File: spectra/VLFR_02-HDPE_nobio_Raman_0068abe6.csv
nm,Intensity
526.532,829.933
527.079,830.267
527.625,830.2
528.172,829.267
528.718,830.267
529.265,830.067
529.811,830.1
530.357,829.667
530.903,829.967
531.449,830.633
531.994,834.5
532.54,830.533
533.085,829.867
533.63,830.667
534.176,908.2
534.721,905.333
535.266,900.467
535.81,871.8
536.355,863.367
536.9,859.5
537.444,859.2
537.988,859.567
538.533,855.5
539.077,855.1
539.621,853.033
540.165,851.367
540.708,850.933
541.252,850.6
541.795,850.533
542.339,850.4
542.882,850.067
543.425,850.2
543.968,850.767
544.511,850.667
545.054,849.033
545.597,850.5
546.139,850.9
546.682,850.3
547.224,850.533
547.766,849.767
548.308,851.033
548.85,849.167
549.392,849.1
549.934,850.9
550.475,850.967
551.017,850.367
551.558,850.867
552.1,850.9
552.641,849.7
553.182,851.633
553.723,853.967
554.264,853.533
554.804,853.667
555.345,854.9
555.885,854.133
556.426,855.2
556.966,857.633
557.506,858.8
558.046,859.667
558.586,860.2
559.126,857.767
559.665,858.267
560.205,856.933
560.745,856.667
561.284,856.533
561.823,857.467
562.362,858.733
562.901,860.767
563.44,864.3
563.979,966.3
564.518,880.633
565.056,875.033
565.595,870.2
566.133,955.367
566.671,870.6
567.21,866.5
567.748,868.433
568.285,862.8
568.823,861.167
569.361,863.767
569.899,864.0
570.436,869.1
570.974,874.367
571.511,1049.63
572.048,888.733
572.585,872.167
573.122,865.433
573.659,866.9
574.196,871.7
574.733,864.833
575.269,872.0
575.806,909.433
576.342,1032.37
576.878,954.833
577.414,920.633
577.951,877.867
578.486,874.433
579.022,873.3
579.558,875.167
580.094,873.967
580.629,875.5
581.165,877.367
581.7,878.333
582.236,879.3
582.771,882.033
583.306,884.167
583.841,885.633
584.376,885.9
584.911,888.033
585.445,890.633
585.98,892.967
586.514,897.767
587.049,898.767
587.583,902.9
588.117,904.367
588.651,908.367
589.186,909.867
589.72,913.733
590.253,915.3
590.787,916.967
591.321,922.3
591.854,925.0
592.388,929.067
592.921,931.667
593.455,932.3
593.988,936.0
594.521,937.267
595.054,941.367
595.587,943.5
596.12,945.767
596.653,949.1
597.186,949.633
597.718,951.3
598.251,957.767
598.783,958.6
599.316,961.267
599.848,962.833
600.38,962.7
600.912,961.167
601.444,962.567
601.976,967.2
602.508,962.867
603.04,963.7
603.572,963.033
604.103,962.667
604.635,958.933
605.167,955.667
605.698,951.6
606.229,949.867
606.761,947.133
607.292,944.2
607.823,942.133
608.354,943.4
608.885,943.567
609.416,940.733
609.947,936.033
610.477,934.3
611.008,936.9
611.539,933.433
612.069,929.467
612.6,931.467
613.13,931.333
613.66,929.0
614.19,926.233
614.721,926.9
615.251,925.733
615.781,926.4
616.311,925.167
616.841,928.467
617.37,931.067
617.9,931.6
618.43,930.467
618.96,929.833
619.489,931.167
620.019,933.667
620.548,930.833
621.077,937.9
621.607,952.667
622.136,988.067
622.665,977.5
623.194,935.9
623.723,926.967
624.252,923.3
624.781,923.7
625.31,926.267
625.839,938.967
626.368,985.333
626.896,1398.2
627.425,1884.43
627.953,1481.1
628.482,1941.0
629.01,1434.7
629.539,1316.33
630.067,1190.1
630.596,1155.53
631.124,1011.93
631.652,937.867
632.18,922.167
632.708,917.133
633.236,914.467
633.764,910.267
634.292,907.967
634.82,905.767
635.348,903.1
635.876,902.433
636.403,901.067
636.931,900.667
637.459,899.1
637.986,898.7
638.514,897.433
639.041,898.733
639.568,897.533
640.096,898.767
640.623,897.6
641.15,900.267
641.678,899.967
642.205,899.967
642.732,898.533
643.259,898.267
643.786,899.367
644.313,900.233
644.84,900.1
645.367,899.7
645.894,901.5
646.421,901.767
646.948,900.667
647.474,901.867
648.001,900.9
648.528,902.1
649.054,900.767
649.581,901.433
650.108,900.8
650.634,901.9
651.161,901.333
651.687,901.433
652.214,902.333
652.74,901.333
653.266,899.9
653.793,904.867
654.319,898.867
654.845,898.533
655.371,900.267
655.897,898.8
656.424,895.6
656.95,897.467
657.476,896.233
658.002,897.0
658.528,896.7
659.054,896.667
659.58,895.4
660.106,896.7
660.631,892.467
661.157,891.833
661.683,889.667
662.209,889.3
662.735,887.9
663.129,885.667