File: spectra/VLFR_06-PET_nobio_Raman_38feb096.csv
nm,Intensity
528.65,1841.17
529.155,1840.83
529.66,1842.67
530.165,1841.63
530.67,1841.63
531.175,1844.27
531.68,1869.2
532.185,3189.37
532.69,1845.0
533.194,1853.1
533.699,3154.73
534.204,6101.1
534.708,5019.47
535.213,4029.07
535.717,3240.17
536.222,2790.33
536.726,2616.5
537.231,2525.43
537.735,2489.7
538.239,2512.13
538.743,2505.03
539.247,2527.6
539.751,2614.97
540.255,2535.33
540.759,2418.73
541.263,2391.4
541.767,2370.53
542.271,2387.17
542.775,2386.47
543.279,2378.2
543.782,2415.03
544.286,2402.8
544.789,2412.13
545.293,2397.47
545.796,2405.03
546.3,2406.23
546.803,2407.6
547.306,2402.17
547.81,2424.23
548.313,2416.2
548.816,2421.7
549.319,2412.5
549.822,2410.93
550.325,2518.33
550.828,2778.27
551.331,2443.3
551.834,2441.2
552.337,2441.67
552.839,2721.0
553.342,2456.93
553.844,2468.53
554.347,2450.5
554.849,2458.13
555.352,2609.43
555.854,2754.63
556.357,2812.07
556.859,2875.73
557.361,3459.77
557.863,3136.03
558.365,2945.3
558.867,2776.97
559.369,2584.73
559.871,2549.83
560.373,2545.07
560.875,2574.9
561.377,2602.23
561.878,2634.93
562.38,2686.2
562.881,2752.17
563.383,2725.0
563.884,2676.23
564.386,2721.7
564.887,2926.47
565.388,3277.0
565.89,3416.43
566.391,2934.67
566.892,2754.03
567.393,2908.73
567.894,3000.43
568.395,2776.9
568.896,2746.73
569.396,2821.43
569.897,2956.43
570.398,3307.83
570.898,3959.03
571.399,4433.57
571.9,3687.0
572.4,3126.93
572.9,2921.87
573.401,2913.1
573.901,3044.87
574.401,2982.03
574.901,3023.07
575.401,3209.47
575.901,3010.13
576.401,3214.2
576.901,3216.6
577.401,3004.4
577.901,3004.17
578.4,2993.17
578.9,2994.57
579.399,3002.93
579.899,3055.97
580.398,3088.0
580.898,3192.6
581.397,3384.23
581.896,6274.83
582.395,5466.3
582.895,3285.4
583.394,3180.77
583.893,3190.6
584.391,3243.47
584.89,3298.67
585.389,4167.7
585.888,6400.83
586.386,4954.67
586.885,3510.53
587.384,3244.8
587.882,3259.63
588.38,3225.8
588.879,3190.03
589.377,3215.7
589.875,3170.57
590.373,3202.8
590.871,3195.63
591.369,3205.63
591.867,3190.2
592.365,3248.83
592.863,3200.6
593.361,3208.97
593.858,3237.03
594.356,3234.17
594.853,3229.77
595.351,3263.53
595.848,3237.77
596.345,3269.13
596.843,3246.5
597.34,3241.03
597.837,3228.1
598.334,3298.5
598.831,3283.37
599.328,3304.5
599.824,3245.6
600.321,3246.27
600.818,3307.07
601.314,3316.47
601.811,3284.67
602.307,3320.83
602.804,3293.3
603.3,3307.43
603.796,3312.33
604.293,3314.53
604.789,3304.77
605.285,3307.27
605.781,3286.9
606.277,3342.17
606.772,3326.53
607.268,3359.77
607.764,3330.03
608.259,3319.43
608.755,3355.17
609.25,3337.87
609.746,3347.77
610.241,3345.8
610.736,3389.77
611.231,3322.43
611.727,3351.13
612.222,3370.27
612.716,3391.1
613.211,3369.57
613.706,3388.23
614.201,3391.87
614.695,3415.8
615.19,3398.17
615.684,3413.0
616.179,3458.9
616.673,3453.13
617.168,3470.33
617.662,3461.7
618.156,3540.63
618.65,3551.87
619.144,3469.87
619.638,3457.73
620.131,3514.2
620.625,3495.03
621.119,3477.27
621.612,3488.47
622.106,3494.43
622.599,3499.17
623.093,3559.47
623.586,3563.67
624.079,3539.07
624.572,3584.0
625.065,3660.43
625.558,3568.53
626.051,3553.07
626.544,3646.23
627.037,3577.53
627.529,3675.6
628.022,3657.97
628.514,3790.1
629.007,3796.77
629.499,3845.33
629.991,3785.27
630.483,3780.53
630.976,4111.43
631.468,4645.4
631.959,4644.43
632.451,4348.03
632.943,4153.9
633.435,4049.83
633.926,4078.37
634.418,3858.13
634.909,3846.2
635.401,3915.07
635.892,4220.03
636.383,4815.37
636.874,4475.33
637.365,4054.83
637.856,3847.83
638.347,3800.0
638.838,3817.87
639.329,3868.4
639.819,3768.03
640.31,3818.23
640.8,3782.13
641.291,3776.57
641.781,3787.6
642.271,3826.47
642.761,3796.37
643.251,3749.53
643.741,3836.4
644.231,3770.1
644.721,3762.9
645.211,3710.47
645.7,3820.23
646.19,3761.1
646.679,3725.8
647.169,3762.23
647.658,3724.57
648.147,3717.87
648.636,3758.5
649.125,3751.03
649.614,3673.4
650.103,3693.67
650.592,3724.87
651.08,3713.17
651.569,3667.1
652.058,3656.03
652.546,3606.17
653.034,3622.17
653.523,3638.23
654.011,3601.2
654.499,3668.2
654.987,3656.7
655.475,3544.8
655.963,3539.63
656.45,3524.77
656.938,3485.57
657.425,3531.4
657.913,3530.3
658.4,3423.0
658.888,3463.23
659.375,3417.23
659.862,3387.7
660.349,3381.77
660.836,3370.77
661.079,3352.13