File: spectra/VLFR_07-PET_nobio_Raman_b449973c.csv
nm,Intensity
791.377,10805.2
792.477,9759.68
793.576,9131.52
794.676,8914.94
795.775,8632.1
796.874,8699.46
797.973,8637.84
799.072,8571.36
800.171,8488.06
801.27,8530.6
802.368,8548.78
803.467,8216.32
804.565,8124.06
805.664,7999.0
806.762,7990.74
807.86,7938.12
808.958,7813.24
810.056,7809.88
811.153,7703.82
812.251,7683.66
813.349,7626.34
814.446,7642.04
815.543,7440.06
816.64,7438.46
817.737,7317.46
818.834,7337.02
819.931,7329.46
821.028,7211.14
822.125,7125.72
823.221,7011.52
824.317,7080.0
825.414,7184.6
826.51,6941.24
827.606,6950.94
828.702,6779.94
829.797,6783.04
830.893,6910.3
831.988,6645.44
833.084,6581.32
834.179,6564.26
835.274,6557.62
836.369,6558.86
837.464,6649.14
838.559,6557.86
839.654,6517.84
840.748,6700.26
841.843,6726.92
842.937,6521.68
844.031,6376.36
845.125,6235.92
846.219,6105.16
847.313,6112.3
848.407,6070.18
849.5,6062.0
850.593,6051.14
851.687,6051.12
852.78,6033.48
853.873,6015.04
854.966,5948.0
856.059,5876.66
857.151,5873.24
858.244,5992.82
859.336,6074.2
860.428,6065.5
861.52,5878.62
862.612,5817.92
863.704,5710.52
864.796,5775.3
865.888,5600.96
866.979,5673.86
868.07,5605.42
869.162,5589.16
870.253,5659.9
871.344,5750.48
872.434,6001.6
873.525,5941.52
874.615,5720.84
875.706,5523.2
876.796,5475.34
877.886,5409.38
878.976,5397.22
880.066,5368.02
881.156,5374.72
882.245,5371.66
883.335,5327.04
884.424,5304.5
885.513,5342.38
886.602,5229.74
887.691,5206.22
888.78,5125.92
889.868,5134.34
890.957,5104.64
892.045,5133.7
893.133,5074.06
894.221,5049.42
895.309,4985.6
896.397,5046.0
897.484,5262.48
898.571,5767.66
899.659,5282.08
900.746,4908.5
901.833,4878.06
902.92,4839.7
904.006,4855.08
905.093,4823.8
906.179,4955.86
907.266,5260.28
908.352,5321.7
909.438,5000.12
910.523,4763.6
911.609,4651.74
912.695,4643.98
913.78,4609.66
914.865,4605.08
915.95,4555.3
917.035,4532.26
918.12,4511.56
919.204,4508.14
920.289,4471.96
921.373,4465.32
922.457,4451.54
923.541,4390.02
924.625,4411.7
925.709,4390.42
926.792,4372.7
927.876,4338.38
928.959,4324.34
930.042,4304.58
931.125,4294.36
932.208,4252.34
933.29,4267.5
934.373,4235.4
935.455,4210.62
936.537,4221.0
937.619,4193.68
938.701,4193.36
939.782,4178.08
940.864,4160.04
941.945,4136.68
943.026,4142.32
944.107,4113.1
945.188,4101.42
946.269,4105.66
947.349,4084.1
948.43,4082.52
949.51,4068.52
950.59,4049.6
951.67,4042.84
952.75,4031.9
953.829,4026.3
954.909,4011.14
955.988,4009.18
957.067,4003.1
958.146,3987.48
959.224,3982.5
960.303,3969.52
961.381,3968.34
962.459,3964.74
963.537,3957.66
964.615,3945.16
965.693,3939.38
966.771,3928.44
967.848,3923.74
968.925,3924.92
970.002,3910.44
971.079,3908.86
972.156,3907.66
973.232,3892.92
974.309,3887.38
975.385,3886.7
976.461,3879.64
977.537,3878.66
978.612,3864.18
979.688,3868.02
980.763,3863.62
981.838,3858.26
982.913,3853.0
983.988,3849.98
985.063,3846.08
986.137,3844.2
987.211,3839.28
988.285,3839.92
989.359,3834.94
990.433,3827.2
991.506,3823.22
992.58,3819.84
993.653,3816.5
994.726,3813.0
995.799,3811.58
996.872,3807.36
997.944,3806.98
999.016,3802.3
1000.09,3798.9
1001.16,3794.22
1002.23,3795.26
1003.3,3790.56
1004.38,3788.66
1005.45,3789.46
1006.52,3786.56
1007.59,3783.44
1008.66,3782.08
1009.73,3778.8
1010.8,3776.98
1011.87,3775.46
1012.94,3774.28
1014.01,3774.32
1015.08,3771.86
1016.15,3772.24
1017.22,3768.88
1018.29,3768.3
1019.36,3767.08
1020.42,3767.26
1021.49,3773.34
1022.56,3776.94
1023.63,3776.9
1024.7,3769.78
1025.76,3763.8
1026.83,3760.9
1027.9,3759.52
1028.97,3755.52
1030.03,3752.0
1031.1,3751.2
1032.17,3752.74
1033.23,3753.14
1034.3,3756.46
1035.36,3758.38
1036.43,3756.1
1037.5,3750.26
1038.56,3747.62
1039.63,3746.54
1040.69,3743.36
1041.76,3743.62
1042.82,3743.08
1043.89,3742.06
1044.95,3741.22
1046.01,3740.28
1047.08,3740.38
1048.14,3740.58
1049.2,3739.66
1050.27,3739.82
1051.33,3739.26
1052.39,3738.7
1053.46,3738.52
1054.52,3738.5
1055.58,3739.84
1056.64,3737.08
1057.7,3737.96
1058.77,3737.52
1059.83,3737.44
1060.89,3737.7
1061.95,3736.5
1063.01,3737.12
1064.07,3736.66
1065.13,3736.3
1066.19,3736.5
1067.25,3735.96
1068.05,3735.42