File: spectra/VLFR_07-PET_nobio_Raman_e3623f29.csv
nm,Intensity
791.377,10784.3
792.477,9875.56
793.576,9455.8
794.676,9170.38
795.775,9044.42
796.874,8898.22
797.973,8937.78
799.072,8936.56
800.171,8764.5
801.27,8852.42
802.368,8684.82
803.467,8720.5
804.565,8562.9
805.664,8492.06
806.762,8452.64
807.86,8354.58
808.958,8345.7
810.056,8230.74
811.153,8164.78
812.251,8108.36
813.349,8047.66
814.446,7862.38
815.543,7923.68
816.64,7915.12
817.737,7805.74
818.834,7734.62
819.931,7624.88
821.028,7572.0
822.125,7485.54
823.221,7468.6
824.317,7342.92
825.414,7486.56
826.51,7400.98
827.606,7216.7
828.702,7190.62
829.797,7213.38
830.893,7195.04
831.988,7073.86
833.084,7012.82
834.179,7030.78
835.274,6889.24
836.369,6877.18
837.464,7062.0
838.559,6924.42
839.654,6985.74
840.748,7002.38
841.843,7164.42
842.937,6796.36
844.031,6793.94
845.125,6536.3
846.219,6520.42
847.313,6513.22
848.407,6468.36
849.5,6404.48
850.593,6332.64
851.687,6365.42
852.78,6380.64
853.873,6264.12
854.966,6240.56
856.059,6229.28
857.151,6182.9
858.244,6266.82
859.336,6344.38
860.428,6280.26
861.52,6163.48
862.612,6068.84
863.704,6028.16
864.796,6082.84
865.888,5991.18
866.979,5932.48
868.07,5913.32
869.162,5905.84
870.253,5909.92
871.344,6036.7
872.434,6200.6
873.525,6190.94
874.615,5992.62
875.706,5799.76
876.796,5764.82
877.886,5680.06
878.976,5660.06
880.066,5648.42
881.156,5611.36
882.245,5583.66
883.335,5635.32
884.424,5551.86
885.513,5588.34
886.602,5471.46
887.691,5428.04
888.78,5420.4
889.868,5388.5
890.957,5368.18
892.045,5387.72
893.133,5275.4
894.221,5257.58
895.309,5282.8
896.397,5251.26
897.484,5489.1
898.571,5961.64
899.659,5474.72
900.746,5127.1
901.833,5098.3
902.92,5033.2
904.006,5065.24
905.093,5017.02
906.179,5141.52
907.266,5408.42
908.352,5465.5
909.438,5160.0
910.523,4945.14
911.609,4845.08
912.695,4836.86
913.78,4776.9
914.865,4755.96
915.95,4735.2
917.035,4721.64
918.12,4674.34
919.204,4648.04
920.289,4623.5
921.373,4613.8
922.457,4609.06
923.541,4596.22
924.625,4538.84
925.709,4515.74
926.792,4488.24
927.876,4485.72
928.959,4432.74
930.042,4431.66
931.125,4398.96
932.208,4377.48
933.29,4362.08
934.373,4357.52
935.455,4313.58
936.537,4316.34
937.619,4292.32
938.701,4277.94
939.782,4255.2
940.864,4251.52
941.945,4222.34
943.026,4212.32
944.107,4210.46
945.188,4161.38
946.269,4176.66
947.349,4167.82
948.43,4144.8
949.51,4129.62
950.59,4127.2
951.67,4110.9
952.75,4096.24
953.829,4072.54
954.909,4080.62
955.988,4057.92
957.067,4058.6
958.146,4036.7
959.224,4036.0
960.303,4030.28
961.381,4010.76
962.459,4006.06
963.537,3991.74
964.615,3986.88
965.693,3983.86
966.771,3973.9
967.848,3965.76
968.925,3962.88
970.002,3954.8
971.079,3949.68
972.156,3928.6
973.232,3934.86
974.309,3922.74
975.385,3919.72
976.461,3916.12
977.537,3898.58
978.612,3901.12
979.688,3893.72
980.763,3887.14
981.838,3882.32
982.913,3885.16
983.988,3877.46
985.063,3871.26
986.137,3866.02
987.211,3864.66
988.285,3857.48
989.359,3852.12
990.433,3851.14
991.506,3842.52
992.58,3838.66
993.653,3836.12
994.726,3828.12
995.799,3823.82
996.872,3823.54
997.944,3821.82
999.016,3818.2
1000.09,3816.54
1001.16,3813.02
1002.23,3810.14
1003.3,3806.04
1004.38,3802.42
1005.45,3800.3
1006.52,3798.66
1007.59,3793.14
1008.66,3793.84
1009.73,3790.94
1010.8,3787.14
1011.87,3786.06
1012.94,3784.02
1014.01,3786.34
1015.08,3780.72
1016.15,3778.92
1017.22,3777.92
1018.29,3776.6
1019.36,3775.1
1020.42,3774.98
1021.49,3780.02
1022.56,3780.4
1023.63,3782.64
1024.7,3776.56
1025.76,3769.82
1026.83,3766.42
1027.9,3763.74
1028.97,3759.32
1030.03,3757.74
1031.1,3757.3
1032.17,3756.52
1033.23,3756.5
1034.3,3760.9
1035.36,3761.06
1036.43,3759.82
1037.5,3753.8
1038.56,3750.7
1039.63,3747.46
1040.69,3747.46
1041.76,3745.48
1042.82,3745.22
1043.89,3744.62
1044.95,3743.54
1046.01,3742.96
1047.08,3742.52
1048.14,3742.26
1049.2,3742.0
1050.27,3741.16
1051.33,3741.96
1052.39,3741.04
1053.46,3739.42
1054.52,3740.48
1055.58,3740.12
1056.64,3738.94
1057.7,3738.1
1058.77,3739.18
1059.83,3739.98
1060.89,3739.28
1061.95,3738.66
1063.01,3738.42
1064.07,3738.14
1065.13,3738.24
1066.19,3738.04
1067.25,3736.38
1068.05,3736.46