File: spectra/VLFR_09-PET_bio_Raman_1ffc1a7c.csv
nm,Intensity
526.508,831.5
527.055,829.5
527.602,830.2
528.149,830.3
528.695,829.3
529.241,830.5
529.787,829.7
530.334,828.7
530.879,829.4
531.425,830.5
531.971,833.1
532.516,832.9
533.062,830.1
533.607,834.0
534.152,1561.4
534.697,1422.4
535.242,1269.5
535.786,1188.9
536.331,1135.1
536.876,1108.1
537.42,1106.6
537.964,1100.9
538.508,1103.7
539.052,1098.0
539.596,1111.4
540.14,1126.1
540.683,1113.2
541.227,1103.8
541.77,1106.4
542.313,1107.7
542.856,1112.6
543.399,1123.1
543.942,1126.8
544.485,1123.5
545.027,1126.9
545.57,1135.6
546.112,1137.1
546.654,1140.8
547.196,1139.3
547.738,1141.2
548.28,1153.7
548.822,1153.9
549.363,1155.2
549.905,1163.3
550.446,1170.2
550.988,1181.5
551.529,1170.6
552.07,1182.2
552.611,1179.6
553.152,1196.5
553.692,1188.1
554.233,1192.8
554.773,1193.9
555.314,1206.8
555.854,1226.1
556.394,1225.3
556.934,1243.4
557.474,1340.8
558.014,1281.3
558.553,1248.3
559.093,1239.0
559.632,1228.9
560.172,1233.7
560.711,1232.1
561.25,1246.6
561.789,1254.7
562.328,1276.4
562.867,1265.5
563.406,1270.8
563.944,1273.3
564.483,1292.1
565.021,1353.0
565.559,1351.7
566.098,1355.4
566.636,1299.8
567.174,1280.2
567.711,1334.8
568.249,1314.3
568.787,1300.2
569.324,1320.7
569.862,1329.7
570.399,1352.5
570.936,1448.3
571.474,1559.2
572.011,1436.7
572.548,1360.5
573.084,1342.5
573.621,1355.1
574.158,1357.5
574.694,1353.7
575.231,1380.7
575.767,1385.1
576.303,1384.8
576.84,1402.6
577.376,1390.9
577.912,1378.2
578.447,1391.8
578.983,1385.7
579.519,1392.0
580.054,1397.7
580.59,1400.1
581.125,1412.1
581.661,1484.4
582.196,2396.2
582.731,1468.9
583.266,1433.9
583.801,1431.7
584.336,1428.5
584.87,1447.8
585.405,1498.8
585.94,1891.4
586.474,1722.6
587.008,1484.8
587.543,1456.2
588.077,1458.1
588.611,1452.7
589.145,1444.9
589.679,1454.2
590.213,1444.8
590.747,1465.6
591.28,1454.7
591.814,1458.2
592.347,1463.9
592.881,1456.5
593.414,1465.5
593.947,1460.2
594.48,1466.3
595.014,1481.8
595.547,1480.3
596.079,1492.6
596.612,1484.7
597.145,1487.8
597.678,1485.0
598.21,1496.0
598.743,1498.8
599.275,1516.6
599.807,1513.4
600.34,1510.4
600.872,1511.8
601.404,1518.4
601.936,1516.2
602.468,1517.5
603.0,1532.6
603.532,1522.5
604.063,1539.3
604.595,1534.8
605.126,1531.6
605.658,1527.0
606.189,1538.2
606.721,1529.0
607.252,1548.0
607.783,1555.5
608.314,1572.8
608.845,1568.3
609.376,1583.2
609.907,1582.3
610.438,1589.6
610.968,1590.5
611.499,1597.9
612.03,1608.2
612.56,1622.8
613.091,1649.8
613.621,1665.6
614.151,1666.6
614.681,1677.1
615.212,1676.7
615.742,1690.9
616.272,1701.4
616.802,1729.4
617.332,1729.8
617.861,1744.2
618.391,1762.1
618.921,1764.5
619.45,1769.3
619.98,1772.5
620.509,1790.0
621.039,1796.4
621.568,1810.6
622.097,1841.1
622.627,1847.2
623.156,1851.9
623.685,1874.1
624.214,1899.6
624.743,1901.1
625.272,1921.2
625.801,1907.7
626.33,1948.8
626.858,1954.8
627.387,1956.6
627.916,1974.0
628.444,1988.8
628.973,2024.7
629.501,2040.3
630.029,2050.2
630.558,2059.7
631.086,2111.6
631.614,2175.0
632.142,2195.8
632.67,2159.5
633.198,2173.6
633.726,2151.0
634.254,2153.5
634.782,2148.6
635.31,2188.8
635.838,2239.4
636.365,2363.8
636.893,2351.8
637.421,2258.8
637.948,2242.6
638.476,2242.6
639.003,2265.9
639.531,2259.5
640.058,2276.3
640.585,2295.6
641.113,2311.8
641.64,2315.6
642.167,2334.9
642.694,2337.6
643.221,2330.5
643.748,2334.6
644.275,2345.7
644.802,2334.8
645.329,2357.3
645.856,2359.8
646.382,2371.2
646.909,2378.6
647.436,2377.8
647.962,2411.1
648.489,2406.7
649.016,2410.6
649.542,2420.1
650.069,2421.5
650.595,2425.3
651.121,2419.2
651.648,2423.7
652.174,2446.1
652.7,2457.3
653.227,2446.5
653.753,2451.6
654.279,2464.4
654.805,2460.7
655.331,2495.0
655.857,2502.5
656.383,2472.4
656.909,2488.7
657.435,2492.3
657.961,2504.1
658.487,2528.2
659.013,2520.3
659.538,2530.8
660.064,2533.2
660.59,2538.7
661.116,2527.3
661.641,2531.7
662.167,2506.1
662.692,2527.7
663.087,2523.7