File: spectra/VLFR_01-LDPE_bio_Raman_e0ea7e8c.csv
nm,Intensity
528.629,1852.3
529.134,1852.5
529.639,1851.4
530.145,1852.2
530.65,1851.1
531.155,1856.0
531.66,1895.5
532.165,3444.7
532.67,1855.4
533.175,1852.7
533.68,1921.5
534.185,2083.1
534.69,2065.7
535.195,2048.2
535.699,2028.7
536.204,2019.7
536.709,2006.1
537.213,2015.6
537.718,2014.9
538.222,2015.0
538.727,2032.6
539.231,2038.9
539.735,2008.5
540.239,2013.2
540.744,2005.1
541.248,1998.9
541.752,2002.9
542.256,2008.3
542.76,2014.1
543.264,2014.5
543.768,2012.9
544.271,2004.3
544.775,1998.4
545.279,1999.5
545.783,1998.6
546.286,2002.5
546.79,2005.5
547.293,2013.8
547.797,2013.2
548.3,2016.5
548.803,2007.7
549.306,2005.3
549.81,2008.8
550.313,2014.5
550.816,2022.2
551.319,2021.0
551.822,2025.6
552.325,2019.4
552.828,2018.4
553.33,2032.4
553.833,2026.7
554.336,2032.1
554.838,2035.8
555.341,2033.8
555.843,2048.1
556.346,2041.9
556.848,2057.5
557.35,2061.1
557.853,2064.3
558.355,2075.3
558.857,2062.5
559.359,2056.2
559.861,2056.3
560.363,2053.1
560.865,2048.0
561.367,2050.1
561.869,2066.1
562.37,2070.0
562.872,2082.6
563.374,2099.1
563.875,2298.2
564.376,2178.7
564.878,2149.0
565.379,2111.5
565.881,2244.0
566.382,2212.4
566.883,2117.6
567.384,2117.9
567.885,2083.1
568.386,2091.9
568.887,2096.9
569.388,2108.5
569.888,2107.0
570.389,2121.3
570.89,2156.2
571.39,2449.1
571.891,2283.6
572.391,2173.0
572.892,2134.1
573.392,2135.2
573.892,2158.9
574.393,2128.7
574.893,2115.2
575.393,2222.7
575.893,2342.3
576.393,2514.2
576.893,2408.4
577.392,2232.5
577.892,2149.1
578.392,2123.7
578.891,2120.4
579.391,2113.8
579.89,2129.6
580.39,2121.3
580.889,2127.6
581.388,2131.4
581.888,2129.2
582.387,2126.1
582.886,2126.7
583.385,2151.3
583.884,2145.2
584.383,2161.4
584.881,2158.6
585.38,2153.2
585.879,2165.9
586.377,2172.1
586.876,2200.1
587.374,2194.7
587.873,2204.0
588.371,2228.4
588.869,2244.0
589.368,2262.8
589.866,2267.3
590.364,2283.2
590.862,2270.3
591.36,2304.4
591.857,2327.5
592.355,2330.4
592.853,2363.7
593.35,2396.2
593.848,2355.2
594.345,2409.9
594.843,2409.6
595.34,2464.5
595.837,2447.8
596.335,2499.6
596.832,2520.6
597.329,2536.2
597.826,2557.4
598.323,2539.2
598.819,2567.8
599.316,2573.0
599.813,2600.7
600.309,2613.4
600.806,2626.8
601.302,2632.0
601.799,2629.5
602.295,2640.6
602.791,2613.2
603.288,2622.4
603.784,2581.9
604.28,2542.7
604.776,2550.3
605.272,2533.2
605.767,2498.2
606.263,2468.5
606.759,2467.3
607.254,2441.1
607.75,2456.7
608.245,2445.2
608.74,2412.8
609.236,2389.7
609.731,2407.1
610.226,2404.2
610.721,2402.4
611.216,2396.0
611.711,2363.9
612.206,2355.9
612.7,2324.5
613.195,2365.3
613.69,2342.1
614.184,2357.5
614.679,2331.4
615.173,2315.1
615.667,2327.7
616.161,2331.4
616.656,2320.6
617.15,2330.0
617.644,2330.7
618.137,2335.9
618.631,2323.2
619.125,2327.9
619.619,2330.1
620.112,2314.0
620.606,2329.3
621.099,2378.0
621.592,2414.7
622.086,2501.5
622.579,2438.3
623.072,2355.0
623.565,2299.3
624.058,2301.5
624.551,2287.0
625.043,2292.9
625.536,2339.4
626.029,2412.7
626.521,2780.8
627.014,5017.7
627.506,4686.4
627.998,4228.0
628.49,5717.8
628.983,4434.9
629.475,4029.1
629.966,3544.5
630.458,3409.3
630.95,2850.8
631.442,2474.6
631.933,2350.4
632.425,2295.2
632.916,2239.8
633.408,2227.9
633.899,2227.4
634.39,2203.5
634.881,2210.0
635.372,2199.7
635.863,2196.0
636.354,2185.0
636.845,2175.2
637.336,2166.1
637.826,2165.5
638.317,2178.4
638.807,2166.3
639.298,2173.9
639.788,2169.1
640.278,2170.4
640.768,2162.6
641.258,2170.5
641.748,2161.8
642.238,2159.6
642.728,2176.9
643.217,2184.3
643.707,2176.3
644.197,2195.6
644.686,2169.3
645.175,2175.9
645.664,2181.4
646.154,2175.3
646.643,2198.8
647.132,2187.8
647.621,2175.2
648.109,2194.1
648.598,2196.5
649.087,2190.8
649.575,2190.7
650.064,2182.2
650.552,2179.6
651.04,2206.6
651.528,2191.5
652.017,2193.8
652.505,2195.1
652.992,2183.5
653.48,2179.3
653.968,2195.6
654.456,2183.3
654.943,2167.2
655.431,2169.9
655.918,2162.5
656.405,2157.3
656.893,2144.0
657.38,2137.1
657.867,2147.6
658.354,2148.1
658.84,2126.2
659.327,2114.6
659.814,2127.3
660.3,2104.5
660.787,2091.1
661.03,2099.1