File: spectra/VLFR_01-LDPE_nobio_Raman_65567425.csv
nm,Intensity
526.532,830.367
527.079,829.633
527.625,829.533
528.172,829.633
528.718,830.233
529.265,830.2
529.811,830.5
530.357,830.067
530.903,829.767
531.449,829.367
531.994,838.333
532.54,830.167
533.085,830.133
533.63,831.733
534.176,917.033
534.721,901.267
535.266,885.2
535.81,867.367
536.355,861.967
536.9,858.367
537.444,859.2
537.988,856.6
538.533,854.267
539.077,851.667
539.621,850.533
540.165,847.967
540.708,844.733
541.252,845.367
541.795,844.7
542.339,844.133
542.882,844.767
543.425,844.0
543.968,844.233
544.511,842.333
545.054,842.1
545.597,842.0
546.139,842.533
546.682,842.033
547.224,841.267
547.766,841.433
548.308,840.867
548.85,840.367
549.392,839.467
549.934,840.233
550.475,839.2
551.017,839.2
551.558,840.8
552.1,840.9
552.641,840.167
553.182,842.333
553.723,844.533
554.264,844.6
554.804,843.167
555.345,845.1
555.885,845.533
556.426,848.9
556.966,851.633
557.506,854.833
558.046,856.333
558.586,856.9
559.126,851.6
559.665,848.5
560.205,848.2
560.745,848.767
561.284,847.933
561.823,849.467
562.362,851.3
562.901,854.833
563.44,860.167
563.979,940.267
564.518,881.033
565.056,873.2
565.595,864.6
566.133,958.133
566.671,868.567
567.21,858.233
567.748,859.467
568.285,852.467
568.823,852.433
569.361,852.167
569.899,854.167
570.436,858.067
570.974,867.367
571.511,1009.2
572.048,898.233
572.585,868.633
573.122,860.733
573.659,861.433
574.196,865.833
574.733,857.167
575.269,863.233
575.806,909.4
576.342,1036.17
576.878,968.133
577.414,918.5
577.951,878.367
578.486,872.133
579.022,874.5
579.558,876.633
580.094,879.867
580.629,883.4
581.165,885.2
581.7,889.533
582.236,893.167
582.771,899.967
583.306,902.833
583.841,908.767
584.376,911.167
584.911,915.9
585.445,922.367
585.98,928.967
586.514,935.633
587.049,943.267
587.583,949.8
588.117,953.367
588.651,960.3
589.186,967.733
589.72,976.267
590.253,982.667
590.787,988.867
591.321,993.367
591.854,999.667
592.388,1003.3
592.921,1007.83
593.455,1008.57
593.988,1011.83
594.521,1018.57
595.054,1018.93
595.587,1027.0
596.12,1031.97
596.653,1030.0
597.186,1038.77
597.718,1038.97
598.251,1047.03
598.783,1050.33
599.316,1053.97
599.848,1056.93
600.38,1056.0
600.912,1050.33
601.444,1048.47
601.976,1045.67
602.508,1043.53
603.04,1037.73
603.572,1032.5
604.103,1024.57
604.635,1013.9
605.167,1005.77
605.698,996.333
606.229,989.467
606.761,982.667
607.292,978.033
607.823,973.3
608.354,967.733
608.885,964.133
609.416,961.667
609.947,957.933
610.477,951.167
611.008,951.867
611.539,950.8
612.069,946.033
612.6,943.333
613.13,943.3
613.66,937.733
614.19,937.933
614.721,934.6
615.251,934.933
615.781,931.133
616.311,928.233
616.841,929.633
617.37,937.367
617.9,933.6
618.43,931.067
618.96,930.167
619.489,929.467
620.019,933.633
620.548,930.567
621.077,936.467
621.607,947.533
622.136,972.667
622.665,969.0
623.194,935.0
623.723,925.267
624.252,926.067
624.781,928.0
625.31,928.033
625.839,937.533
626.368,971.533
626.896,1279.8
627.425,1759.17
627.953,1442.0
628.482,1787.77
629.01,1524.13
629.539,1382.63
630.067,1269.03
630.596,1232.73
631.124,1064.6
631.652,980.367
632.18,947.867
632.708,934.033
633.236,929.433
633.764,925.9
634.292,921.9
634.82,923.067
635.348,922.533
635.876,922.167
636.403,924.467
636.931,921.967
637.459,920.9
637.986,923.433
638.514,925.333
639.041,924.7
639.568,928.0
640.096,929.633
640.623,929.8
641.15,932.867
641.678,934.667
642.205,936.433
642.732,935.467
643.259,940.3
643.786,940.5
644.313,940.567
644.84,942.733
645.367,940.733
645.894,942.533
646.421,942.633
646.948,942.7
647.474,945.767
648.001,945.133
648.528,944.467
649.054,944.933
649.581,942.733
650.108,943.167
650.634,944.467
651.161,942.933
651.687,942.267
652.214,943.067
652.74,945.0
653.266,942.2
653.793,945.667
654.319,940.133
654.845,940.333
655.371,940.367
655.897,938.267
656.424,935.6
656.95,936.933
657.476,931.433
658.002,931.567
658.528,928.467
659.054,925.167
659.58,923.7
660.106,921.467
660.631,918.5
661.157,912.533
661.683,909.633
662.209,906.2
662.735,903.833
663.129,900.567