File: spectra/VLFR_07-PET_bio_Raman_25d41577.csv
nm,Intensity
791.377,15091.6
792.477,13578.3
793.576,12865.6
794.676,12335.8
795.775,12206.9
796.874,12109.4
797.973,11972.1
799.072,12088.5
800.171,11796.8
801.27,11941.3
802.368,11728.8
803.467,11504.1
804.565,11201.6
805.664,11151.3
806.762,11035.8
807.86,10893.8
808.958,10829.4
810.056,10706.1
811.153,10524.0
812.251,10510.0
813.349,10497.1
814.446,10239.9
815.543,10334.0
816.64,10117.2
817.737,10006.7
818.834,9778.78
819.931,9764.0
821.028,9518.86
822.125,9588.24
823.221,9560.9
824.317,9375.5
825.414,9519.26
826.51,9287.16
827.606,9151.52
828.702,8982.16
829.797,9017.72
830.893,9043.0
831.988,8837.06
833.084,8727.58
834.179,8650.18
835.274,8386.74
836.369,8611.72
837.464,8581.42
838.559,8506.52
839.654,8535.1
840.748,8538.32
841.843,8739.3
842.937,8451.72
844.031,8213.22
845.125,8023.16
846.219,7919.96
847.313,7840.32
848.407,7768.02
849.5,7742.02
850.593,7687.3
851.687,7648.5
852.78,7609.12
853.873,7581.12
854.966,7528.36
856.059,7422.08
857.151,7455.3
858.244,7573.32
859.336,7658.24
860.428,7630.82
861.52,7387.4
862.612,7291.74
863.704,7215.14
864.796,7236.94
865.888,7121.48
866.979,7035.02
868.07,7018.24
869.162,7009.36
870.253,7131.06
871.344,7164.08
872.434,7497.66
873.525,7475.2
874.615,7151.6
875.706,6970.06
876.796,6809.56
877.886,6702.1
878.976,6694.58
880.066,6704.0
881.156,6607.58
882.245,6557.0
883.335,6586.46
884.424,6493.3
885.513,6532.08
886.602,6401.64
887.691,6408.66
888.78,6300.0
889.868,6272.72
890.957,6260.2
892.045,6266.66
893.133,6173.6
894.221,6056.16
895.309,6093.68
896.397,6026.74
897.484,6288.92
898.571,7007.18
899.659,6457.96
900.746,5892.46
901.833,5774.44
902.92,5766.12
904.006,5692.82
905.093,5728.16
906.179,5790.48
907.266,6213.5
908.352,6321.02
909.438,5865.52
910.523,5566.84
911.609,5452.52
912.695,5420.42
913.78,5324.44
914.865,5278.26
915.95,5325.02
917.035,5221.62
918.12,5191.96
919.204,5167.98
920.289,5104.68
921.373,5068.5
922.457,5065.18
923.541,5029.26
924.625,4980.96
925.709,4970.52
926.792,4893.1
927.876,4859.94
928.959,4817.84
930.042,4823.68
931.125,4768.64
932.208,4782.96
933.29,4717.2
934.373,4693.04
935.455,4705.18
936.537,4632.9
937.619,4616.16
938.701,4610.96
939.782,4566.08
940.864,4541.08
941.945,4542.54
943.026,4500.54
944.107,4491.2
945.188,4452.06
946.269,4431.74
947.349,4431.2
948.43,4415.76
949.51,4385.36
950.59,4355.4
951.67,4351.5
952.75,4324.64
953.829,4312.96
954.909,4286.84
955.988,4268.28
957.067,4272.32
958.146,4241.08
959.224,4239.44
960.303,4226.88
961.381,4198.46
962.459,4196.9
963.537,4168.44
964.615,4165.82
965.693,4151.16
966.771,4135.54
967.848,4129.56
968.925,4117.94
970.002,4095.36
971.079,4108.12
972.156,4083.02
973.232,4068.56
974.309,4059.46
975.385,4054.88
976.461,4042.44
977.537,4034.7
978.612,4029.7
979.688,4018.18
980.763,4009.96
981.838,4006.18
982.913,3988.52
983.988,3990.48
985.063,3979.14
986.137,3979.2
987.211,3967.5
988.285,3962.52
989.359,3956.5
990.433,3950.5
991.506,3931.88
992.58,3926.44
993.653,3926.2
994.726,3922.7
995.799,3916.96
996.872,3908.8
997.944,3906.24
999.016,3899.66
1000.09,3895.82
1001.16,3888.22
1002.23,3888.46
1003.3,3881.72
1004.38,3876.86
1005.45,3876.02
1006.52,3869.4
1007.59,3866.76
1008.66,3862.28
1009.73,3860.0
1010.8,3854.16
1011.87,3850.78
1012.94,3851.92
1014.01,3848.2
1015.08,3845.04
1016.15,3844.56
1017.22,3841.7
1018.29,3837.24
1019.36,3837.56
1020.42,3836.12
1021.49,3839.28
1022.56,3840.58
1023.63,3839.98
1024.7,3833.8
1025.76,3829.52
1026.83,3822.96
1027.9,3821.0
1028.97,3814.6
1030.03,3811.5
1031.1,3809.64
1032.17,3807.2
1033.23,3809.98
1034.3,3813.56
1035.36,3813.5
1036.43,3813.0
1037.5,3805.88
1038.56,3800.62
1039.63,3797.78
1040.69,3797.5
1041.76,3794.1
1042.82,3793.9
1043.89,3793.0
1044.95,3792.08
1046.01,3790.42
1047.08,3791.4
1048.14,3788.84
1049.2,3788.9
1050.27,3787.32
1051.33,3787.04
1052.39,3788.3
1053.46,3785.84
1054.52,3786.26
1055.58,3787.28
1056.64,3786.34
1057.7,3785.76
1058.77,3785.18
1059.83,3785.04
1060.89,3785.04
1061.95,3785.4
1063.01,3783.22
1064.07,3784.48
1065.13,3783.22
1066.19,3783.64
1067.25,3782.26
1068.05,3782.5