File: spectra/VLFR_01-LDPE_nobio_Raman_5b8f31a8.csv
nm,Intensity
526.5,829.9
527.047,829.6
527.594,828.8
528.14,829.4
528.687,830.1
529.233,829.6
529.779,829.3
530.325,828.0
530.871,828.9
531.417,828.8
531.962,838.0
532.508,832.9
533.053,828.8
533.599,830.4
534.144,859.4
534.689,850.6
535.234,846.7
535.778,842.6
536.323,841.3
536.867,840.6
537.412,839.0
537.956,839.9
538.5,839.1
539.044,837.8
539.588,836.9
540.132,836.5
540.675,835.5
541.219,836.4
541.762,835.1
542.305,835.9
542.848,834.6
543.391,835.7
543.934,836.4
544.477,835.0
545.02,833.9
545.562,835.1
546.105,834.4
546.647,834.6
547.189,833.6
547.731,833.6
548.273,832.9
548.815,832.9
549.356,835.1
549.898,833.7
550.439,832.4
550.981,833.0
551.522,833.7
552.063,833.3
552.604,833.2
553.145,834.6
553.686,833.5
554.226,835.5
554.767,834.0
555.307,836.6
555.848,837.7
556.388,838.4
556.928,836.7
557.468,839.6
558.008,840.6
558.547,838.6
559.087,839.6
559.626,837.4
560.166,836.8
560.705,836.0
561.244,838.2
561.783,835.7
562.322,839.1
562.861,839.2
563.4,842.8
563.939,863.0
564.477,851.3
565.015,846.6
565.554,843.7
566.092,879.5
566.63,847.5
567.168,841.5
567.706,843.2
568.244,841.3
568.781,841.3
569.319,842.2
569.857,843.2
570.394,844.6
570.931,847.7
571.468,887.6
572.005,862.0
572.542,850.5
573.079,848.8
573.616,850.0
574.153,854.2
574.689,850.4
575.226,854.3
575.762,875.1
576.298,900.2
576.834,887.3
577.371,877.0
577.907,865.9
578.442,868.8
578.978,873.5
579.514,875.4
580.049,878.8
580.585,880.9
581.12,889.6
581.656,891.2
582.191,897.3
582.726,902.0
583.261,907.8
583.796,912.9
584.331,922.1
584.865,922.5
585.4,929.3
585.935,928.0
586.469,939.5
587.004,943.8
587.538,951.6
588.072,955.2
588.606,959.7
589.14,964.8
589.674,971.2
590.208,977.5
590.742,979.5
591.275,986.4
591.809,990.0
592.342,993.2
592.876,996.6
593.409,996.5
593.942,994.2
594.476,999.1
595.009,1006.4
595.542,1000.6
596.075,1006.5
596.607,1010.8
597.14,1015.3
597.673,1022.2
598.205,1023.4
598.738,1025.9
599.27,1022.2
599.803,1033.3
600.335,1030.5
600.867,1029.7
601.399,1029.9
601.931,1031.4
602.463,1025.1
602.995,1021.1
603.527,1015.8
604.058,1011.0
604.59,1000.2
605.122,992.9
605.653,981.7
606.184,980.0
606.716,969.7
607.247,964.8
607.778,961.6
608.309,957.2
608.84,952.2
609.371,946.9
609.902,943.8
610.433,941.6
610.964,936.8
611.494,934.5
612.025,937.3
612.556,929.5
613.086,930.3
613.616,930.7
614.147,928.4
614.677,927.2
615.207,920.0
615.737,917.8
616.267,919.0
616.797,913.3
617.327,915.7
617.857,915.1
618.387,916.0
618.917,914.8
619.446,908.1
619.976,907.2
620.505,908.2
621.035,904.9
621.564,910.2
622.093,913.3
622.623,920.4
623.152,906.1
623.681,906.0
624.21,906.0
624.739,902.5
625.268,904.0
625.797,904.7
626.326,912.8
626.855,974.6
627.383,1112.6
627.912,1029.6
628.441,1084.1
628.969,1065.6
629.498,1039.0
630.026,996.1
630.554,993.2
631.083,949.1
631.611,924.0
632.139,915.1
632.667,915.0
633.195,914.7
633.724,910.9
634.252,912.4
634.779,911.9
635.307,912.9
635.835,912.6
636.363,909.2
636.891,913.2
637.418,915.5
637.946,912.6
638.474,919.1
639.001,923.0
639.529,921.1
640.056,920.2
640.583,922.2
641.111,926.1
641.638,924.2
642.165,927.2
642.692,932.0
643.22,925.6
643.747,926.5
644.274,924.6
644.801,927.7
645.328,926.3
645.854,930.8
646.381,925.5
646.908,926.8
647.435,929.0
647.962,928.3
648.488,927.3
649.015,923.6
649.542,922.6
650.068,925.8
650.595,925.3
651.121,927.0
651.648,928.9
652.174,927.1
652.7,926.2
653.227,925.4
653.753,926.2
654.279,928.9
654.805,923.4
655.331,926.5
655.858,924.5
656.384,920.4
656.91,920.5
657.436,922.6
657.962,919.0
658.488,913.6
659.013,913.7
659.539,911.8
660.065,906.9
660.591,906.4
661.117,901.6
661.642,899.7
662.168,895.7
662.694,890.3
663.088,891.3