File: spectra/VLFR_02-HDPE_bio_Raman_ecbfc5a2.csv
nm,Intensity
526.494,835.5
527.041,834.3
527.588,833.7
528.135,833.7
528.682,836.2
529.229,834.3
529.775,835.2
530.321,835.0
530.868,835.0
531.414,836.9
531.96,847.7
532.506,836.9
533.051,835.5
533.597,834.1
534.142,897.4
534.687,899.3
535.232,895.4
535.777,867.8
536.322,857.4
536.867,856.4
537.411,855.1
537.956,855.4
538.5,852.4
539.044,851.8
539.588,851.5
540.132,849.4
540.676,848.1
541.22,848.3
541.763,848.0
542.306,850.8
542.85,848.0
543.393,850.9
543.936,846.9
544.479,848.1
545.021,848.8
545.564,848.2
546.106,848.5
546.649,849.0
547.191,850.1
547.733,850.4
548.275,850.8
548.817,847.4
549.359,848.1
549.9,849.7
550.442,849.7
550.983,848.6
551.524,848.9
552.066,849.0
552.607,849.9
553.148,850.6
553.688,851.9
554.229,852.0
554.77,852.5
555.31,854.7
555.85,853.3
556.39,851.9
556.931,855.3
557.471,857.0
558.01,857.4
558.55,858.1
559.09,855.3
559.629,856.1
560.169,853.7
560.708,856.7
561.247,854.6
561.786,854.5
562.325,855.0
562.864,859.1
563.403,862.2
563.941,934.2
564.48,874.3
565.018,869.5
565.557,864.2
566.095,911.8
566.633,866.8
567.171,864.5
567.709,869.8
568.247,860.2
568.784,860.2
569.322,858.6
569.859,862.0
570.397,863.8
570.934,870.8
571.471,981.2
572.008,880.4
572.545,867.2
573.082,858.9
573.619,863.9
574.155,869.2
574.692,860.2
575.228,865.7
575.765,893.7
576.301,990.9
576.837,933.5
577.373,907.7
577.909,870.3
578.445,862.6
578.981,862.9
579.516,861.9
580.052,862.4
580.587,860.9
581.123,862.5
581.658,861.3
582.193,862.1
582.728,861.4
583.263,861.2
583.798,861.0
584.333,862.7
584.868,862.5
585.402,863.3
585.937,863.8
586.471,863.0
587.005,864.6
587.54,863.4
588.074,866.7
588.608,864.5
589.142,866.8
589.676,864.2
590.21,864.6
590.743,867.2
591.277,867.7
591.81,865.9
592.344,865.8
592.877,866.5
593.411,868.2
593.944,869.9
594.477,870.7
595.01,871.2
595.543,870.3
596.076,873.4
596.608,874.6
597.141,870.3
597.674,873.2
598.206,872.7
598.739,875.9
599.271,874.9
599.803,875.9
600.335,875.6
600.868,877.5
601.4,874.2
601.931,880.3
602.463,878.5
602.995,877.8
603.527,878.8
604.058,876.4
604.59,875.1
605.121,876.3
605.653,876.8
606.184,875.1
606.715,876.3
607.246,872.0
607.778,871.4
608.309,873.9
608.839,874.2
609.37,873.4
609.901,873.6
610.432,874.8
610.962,873.8
611.493,876.0
612.023,873.2
612.554,873.8
613.084,874.5
613.614,874.2
614.145,875.4
614.675,874.3
615.205,875.4
615.735,875.7
616.265,876.0
616.795,878.8
617.324,885.5
617.854,887.2
618.384,887.1
618.913,887.6
619.443,888.7
619.972,892.1
620.502,889.7
621.031,898.5
621.56,915.8
622.089,958.9
622.618,950.7
623.147,904.3
623.676,894.4
624.205,891.9
624.734,893.3
625.263,897.2
625.792,905.8
626.32,952.4
626.849,1355.3
627.377,1980.0
627.906,1509.3
628.434,1955.5
628.963,1433.3
629.491,1298.5
630.019,1172.1
630.547,1145.1
631.076,998.9
631.604,915.0
632.132,899.0
632.66,889.8
633.188,887.4
633.715,886.2
634.243,879.9
634.771,878.8
635.299,875.4
635.826,871.5
636.354,874.7
636.881,873.5
637.409,868.6
637.936,869.7
638.464,865.7
638.991,867.8
639.518,866.4
640.045,865.2
640.573,866.6
641.1,865.9
641.627,864.5
642.154,866.6
642.681,863.8
643.208,865.5
643.735,863.9
644.261,862.3
644.788,862.3
645.315,864.4
645.842,865.0
646.368,862.3
646.895,864.9
647.421,862.8
647.948,866.5
648.474,867.2
649.001,863.3
649.527,862.1
650.054,864.9
650.58,864.9
651.106,863.8
651.633,862.4
652.159,865.0
652.685,864.2
653.211,862.5
653.737,862.0
654.263,862.5
654.789,862.8
655.315,863.7
655.841,861.7
656.367,862.9
656.893,863.2
657.419,862.6
657.945,863.9
658.47,865.6
658.996,861.3
659.522,859.8
660.047,866.8
660.573,863.4
661.099,860.5
661.624,861.5
662.15,859.3
662.675,861.9
663.07,860.1