File: spectra/VLFR_07-PET_bio_Raman_d27384ec.csv
nm,Intensity
791.588,6483.4
792.685,6355.9
793.781,6327.6
794.878,6297.6
795.975,6291.1
797.071,6305.6
798.168,6361.9
799.264,6324.5
800.36,6326.2
801.456,6304.9
802.552,6308.8
803.648,6265.8
804.744,6189.2
805.84,6215.7
806.936,6132.3
808.031,6139.2
809.127,6068.5
810.222,6019.1
811.317,5983.8
812.412,5947.1
813.507,5875.1
814.602,5844.6
815.697,5813.6
816.792,5779.0
817.887,5721.6
818.981,5705.2
820.076,5714.4
821.17,5678.2
822.265,5666.2
823.359,5599.9
824.453,5618.3
825.547,5634.1
826.641,5597.3
827.735,5519.3
828.828,5538.3
829.922,5524.3
831.016,5514.4
832.109,5456.5
833.202,5416.5
834.295,5432.3
835.388,5367.0
836.481,5384.3
837.574,5347.9
838.667,5356.9
839.76,5334.7
840.852,5310.3
841.945,5288.5
843.037,5255.3
844.129,5245.1
845.221,5176.3
846.314,5145.8
847.405,5141.8
848.497,5131.7
849.589,5090.0
850.68,5072.4
851.772,5074.6
852.863,5056.8
853.955,5011.5
855.046,5017.6
856.137,5001.8
857.228,5004.3
858.318,4994.6
859.409,4985.1
860.5,4987.8
861.59,4944.0
862.681,4944.9
863.771,4930.2
864.861,4923.1
865.951,4891.5
867.041,4887.4
868.131,4875.8
869.22,4854.6
870.31,4887.4
871.399,4858.8
872.488,4885.1
873.578,4886.0
874.667,4857.9
875.756,4847.7
876.845,4817.4
877.933,4809.6
879.022,4782.8
880.11,4791.0
881.199,4786.6
882.287,4768.8
883.375,4749.3
884.463,4729.8
885.551,4728.6
886.639,4700.1
887.726,4694.2
888.814,4680.8
889.901,4671.0
890.988,4628.9
892.075,4624.9
893.162,4599.9
894.249,4595.3
895.336,4541.3
896.423,4539.0
897.509,4552.2
898.595,4608.9
899.682,4522.4
900.768,4465.3
901.854,4443.0
902.94,4451.5
904.025,4446.3
905.111,4417.8
906.196,4430.2
907.282,4441.1
908.367,4417.9
909.452,4402.8
910.537,4329.9
911.622,4316.2
912.706,4300.1
913.791,4287.7
914.875,4268.8
915.959,4254.7
917.044,4241.3
918.128,4242.1
919.211,4223.3
920.295,4218.9
921.379,4229.6
922.462,4191.5
923.546,4185.7
924.629,4162.5
925.712,4157.6
926.795,4141.2
927.877,4129.6
928.96,4098.8
930.043,4082.6
931.125,4084.2
932.207,4064.2
933.289,4037.6
934.371,4050.5
935.453,4029.9
936.535,4023.6
937.616,4013.3
938.697,4017.1
939.779,4004.2
940.86,4004.2
941.941,3994.0
943.022,3977.6
944.102,3973.7
945.183,3962.8
946.263,3958.4
947.343,3959.5
948.423,3949.4
949.503,3936.0
950.583,3935.8
951.663,3932.6
952.742,3929.4
953.822,3925.8
954.901,3919.1
955.98,3915.1
957.059,3910.0
958.137,3906.9
959.216,3903.7
960.294,3898.9
961.373,3894.0
962.451,3885.2
963.529,3886.5
964.607,3884.0
965.684,3879.7
966.762,3877.7
967.839,3880.4
968.917,3872.5
969.994,3872.9
971.071,3869.1
972.147,3862.7
973.224,3862.1
974.3,3855.5
975.377,3854.4
976.453,3849.6
977.529,3848.4
978.605,3846.1
979.68,3840.1
980.756,3842.0
981.831,3838.5
982.907,3838.4
983.982,3834.0
985.057,3832.7
986.131,3831.7
987.206,3829.4
988.28,3827.5
989.355,3825.2
990.429,3823.4
991.503,3820.6
992.576,3818.1
993.65,3821.6
994.723,3811.5
995.797,3816.7
996.87,3808.6
997.943,3807.4
999.016,3805.4
1000.09,3804.9
1001.16,3805.4
1002.23,3801.3
1003.31,3798.5
1004.38,3799.6
1005.45,3797.4
1006.52,3792.0
1007.59,3796.3
1008.66,3794.2
1009.73,3788.9
1010.81,3787.5
1011.88,3788.9
1012.95,3787.3
1014.02,3786.9
1015.09,3786.4
1016.16,3781.7
1017.23,3781.5
1018.3,3779.9
1019.37,3782.4
1020.44,3779.0
1021.51,3778.0
1022.58,3777.1
1023.64,3777.5
1024.71,3777.3
1025.78,3775.4
1026.85,3770.1
1027.92,3770.9
1028.99,3771.5
1030.05,3771.0
1031.12,3769.1
1032.19,3768.7
1033.26,3767.9
1034.32,3768.0
1035.39,3770.8
1036.46,3768.9
1037.52,3768.6
1038.59,3767.6
1039.66,3765.4
1040.72,3764.2
1041.79,3765.2
1042.86,3764.3
1043.92,3763.9
1044.99,3762.9
1046.05,3762.0
1047.12,3762.4
1048.18,3760.5
1049.25,3760.4
1050.31,3761.1
1051.37,3762.8
1052.44,3760.4
1053.5,3759.8
1054.57,3760.1
1055.63,3760.7
1056.69,3760.3
1057.76,3760.7
1058.82,3763.3
1059.88,3759.2
1060.95,3761.0
1062.01,3760.0
1063.07,3759.3
1064.13,3757.7
1065.19,3760.3
1066.26,3758.8
1067.32,3759.7
1068.11,3757.6