File: spectra/VLFR_07-PET_nobio_Raman_7f3b0613.csv
nm,Intensity
791.75,12193.6
792.846,11360.1
793.942,10991.7
795.037,10772.3
796.133,10601.0
797.228,10708.3
798.324,10592.0
799.419,10591.8
800.514,10536.2
801.61,10403.8
802.705,10250.6
803.8,9980.95
804.894,9976.8
805.989,10010.8
807.084,9614.05
808.178,9630.55
809.273,9668.0
810.367,9520.15
811.461,9388.25
812.556,9276.0
813.65,9225.55
814.744,9227.0
815.837,9169.25
816.931,8934.9
818.025,8858.85
819.118,8940.3
820.212,8788.05
821.305,8694.8
822.398,8696.55
823.491,8567.4
824.585,8466.3
825.677,8748.1
826.77,8273.65
827.863,8239.1
828.956,8166.9
830.048,8208.35
831.14,7981.3
832.233,7858.35
833.325,7856.4
834.417,7687.6
835.509,7701.5
836.601,7765.05
837.692,7706.35
838.784,7695.3
839.876,7654.35
840.967,7902.7
842.058,7637.7
843.149,7454.15
844.24,7371.6
845.331,7116.35
846.422,7113.5
847.513,7067.55
848.604,6974.05
849.694,6969.7
850.784,6967.2
851.875,6974.85
852.965,6927.1
854.055,6797.1
855.145,6741.35
856.235,6704.9
857.324,6750.0
858.414,6788.9
859.503,6866.85
860.593,6860.1
861.682,6562.45
862.771,6539.55
863.86,6576.45
864.949,6543.85
866.038,6437.95
867.126,6386.95
868.215,6365.15
869.303,6425.9
870.391,6457.95
871.479,6504.45
872.567,6789.4
873.655,6512.8
874.743,6318.1
875.831,6236.15
876.918,6157.1
878.006,6084.55
879.093,6060.95
880.18,6057.05
881.267,6064.2
882.354,5971.85
883.441,5942.7
884.527,5933.4
885.614,5970.0
886.7,5832.7
887.786,5842.2
888.872,5685.6
889.958,5716.75
891.044,5658.85
892.13,5668.9
893.216,5582.45
894.301,5565.2
895.386,5532.45
896.472,5538.1
897.557,6112.95
898.642,6086.1
899.726,5525.85
900.811,5337.35
901.896,5294.75
902.98,5300.55
904.064,5251.0
905.148,5232.0
906.232,5496.1
907.316,5701.1
908.4,5467.25
909.484,5212.3
910.567,5088.25
911.65,5028.95
912.734,4961.7
913.817,4914.45
914.9,4917.1
915.982,4862.7
917.065,4845.0
918.147,4792.15
919.23,4784.9
920.312,4777.45
921.394,4709.1
922.476,4716.35
923.558,4650.35
924.639,4637.2
925.721,4595.75
926.802,4576.7
927.884,4552.1
928.965,4534.8
930.046,4499.2
931.126,4468.6
932.207,4463.75
933.288,4428.2
934.368,4404.35
935.448,4401.2
936.528,4342.55
937.608,4351.95
938.688,4331.2
939.767,4295.15
940.847,4290.55
941.926,4271.05
943.005,4267.6
944.084,4239.9
945.163,4206.55
946.242,4199.6
947.321,4188.25
948.399,4171.85
949.477,4156.3
950.556,4135.2
951.634,4119.05
952.711,4121.2
953.789,4107.85
954.867,4074.7
955.944,4091.25
957.021,4061.85
958.098,4046.15
959.175,4047.4
960.252,4012.5
961.328,4017.4
962.405,4007.6
963.481,3996.55
964.557,3978.25
965.633,3974.85
966.709,3968.65
967.785,3961.7
968.86,3951.95
969.936,3938.2
971.011,3936.25
972.086,3918.95
973.161,3917.8
974.235,3910.05
975.31,3903.1
976.384,3898.45
977.459,3888.5
978.533,3876.0
979.607,3875.9
980.68,3865.75
981.754,3855.1
982.827,3853.0
983.901,3850.85
984.974,3842.8
986.047,3841.6
987.119,3839.05
988.192,3827.8
989.264,3822.45
990.337,3819.9
991.409,3815.5
992.481,3809.65
993.553,3800.95
994.624,3796.55
995.696,3797.3
996.767,3788.5
997.838,3790.55
998.909,3782.8
999.98,3783.9
1001.05,3777.75
1002.12,3771.2
1003.19,3774.05
1004.26,3770.15
1005.33,3764.0
1006.4,3762.35
1007.47,3760.85
1008.54,3755.2
1009.61,3754.0
1010.68,3749.35
1011.75,3749.3
1012.82,3748.1
1013.88,3746.25
1014.95,3747.45
1016.02,3740.0
1017.09,3737.4
1018.16,3735.0
1019.22,3735.4
1020.29,3741.0
1021.36,3743.35
1022.43,3743.6
1023.49,3737.85
1024.56,3733.0
1025.63,3729.4
1026.69,3726.2
1027.76,3724.6
1028.83,3720.7
1029.89,3717.25
1030.96,3719.3
1032.02,3721.8
1033.09,3718.3
1034.15,3723.1
1035.22,3719.55
1036.28,3717.75
1037.35,3715.25
1038.41,3712.6
1039.48,3710.65
1040.54,3708.7
1041.6,3707.35
1042.67,3708.05
1043.73,3705.7
1044.79,3706.0
1045.86,3704.45
1046.92,3705.1
1047.98,3704.2
1049.05,3702.35
1050.11,3704.25
1051.17,3702.15
1052.23,3702.6
1053.29,3702.6
1054.36,3702.8
1055.42,3702.75
1056.48,3701.9
1057.54,3701.4
1058.6,3702.5
1059.66,3701.15
1060.72,3699.45
1061.78,3700.9
1062.84,3702.4
1063.9,3700.75
1064.96,3701.5
1066.02,3698.55
1067.08,3699.6
1067.88,3698.65