File: spectra/VLFR_06-PET_nobio_Raman_8e3653e8.csv
cm-1,Intensity
-123.878,1854.0
-105.821,1852.5
-87.8007,1852.45
-69.8161,1853.1
-51.8675,1853.7
-33.9547,1855.7
-16.0776,1885.25
1.76388,3560.35
19.5698,1856.8
37.3403,1858.25
55.0755,2586.4
72.7754,4233.75
90.4402,3686.85
108.07,3234.95
125.665,2890.7
143.225,2678.45
160.75,2600.25
178.241,2589.45
195.697,2596.75
213.119,2605.8
230.506,2629.55
247.859,2650.0
265.178,2699.1
282.463,2672.9
299.713,2622.15
316.93,2622.1
334.113,2613.45
351.263,2622.85
368.379,2652.4
385.461,2650.55
402.51,2651.5
419.526,2654.15
436.508,2695.25
453.458,2693.35
470.374,2711.7
487.257,2715.9
504.107,2755.25
520.925,2749.9
537.71,2757.45
554.462,2781.75
571.182,2803.05
587.87,2775.7
604.525,2811.75
621.148,2833.0
637.739,3008.75
654.297,2825.4
670.824,2879.7
687.319,2864.15
703.782,2996.6
720.213,2869.35
736.613,2886.6
752.981,2878.05
769.317,2898.9
785.623,2986.25
801.897,3063.6
818.139,3053.1
834.351,3127.7
850.532,3435.05
866.681,3264.75
882.8,3188.5
898.888,3110.6
914.945,2994.6
930.972,2984.7
946.968,3047.65
962.934,3073.55
978.869,3081.7
994.774,3124.35
1010.65,3167.9
1026.49,3201.5
1042.31,3245.25
1058.09,3197.75
1073.85,3254.45
1089.57,3401.7
1105.27,3541.45
1120.93,3671.65
1136.57,3445.75
1152.18,3358.55
1167.75,3501.4
1183.3,3522.05
1198.82,3400.75
1214.31,3463.7
1229.77,3477.85
1245.2,3578.25
1260.6,3774.35
1275.97,4265.25
1291.32,4508.05
1306.63,4066.5
1321.92,3791.1
1337.18,3672.15
1352.41,3717.6
1367.61,3753.15
1382.78,3707.0
1397.93,3796.9
1413.05,3917.9
1428.14,3825.4
1443.2,3965.55
1458.23,3942.65
1473.23,3887.1
1488.21,3873.4
1503.16,3917.7
1518.08,3916.95
1532.97,3935.45
1547.84,3893.95
1562.68,4006.3
1577.49,4063.05
1592.27,4165.8
1607.03,5835.75
1621.76,5493.35
1636.46,4121.15
1651.14,4051.5
1665.78,4119.05
1680.41,4128.3
1695.0,4139.75
1709.57,4618.5
1724.11,6067.3
1738.62,5288.75
1753.11,4290.5
1767.57,4152.0
1782.01,4170.8
1796.41,4172.45
1810.8,4176.15
1825.15,4083.5
1839.48,4176.5
1853.79,4185.1
1868.06,4119.25
1882.31,4199.05
1896.54,4206.3
1910.74,4138.6
1924.91,4204.4
1939.06,4208.05
1953.19,4181.0
1967.28,4269.8
1981.35,4214.65
1995.4,4212.8
2009.42,4257.55
2023.42,4328.6
2037.39,4267.5
2051.33,4213.2
2065.25,4294.4
2079.15,4322.8
2093.01,4332.65
2106.86,4281.15
2120.68,4393.1
2134.47,4326.8
2148.24,4365.5
2161.99,4376.35
2175.71,4301.95
2189.41,4431.2
2203.08,4340.4
2216.73,4436.5
2230.35,4329.95
2243.95,4432.15
2257.52,4401.9
2271.07,4423.3
2284.6,4407.3
2298.1,4436.45
2311.58,4426.5
2325.03,4467.65
2338.46,4445.95
2351.87,4438.05
2365.25,4482.6
2378.61,4479.45
2391.94,4476.0
2405.26,4519.65
2418.54,4436.5
2431.81,4548.35
2445.05,4545.05
2458.27,4522.3
2471.46,4486.6
2484.63,4453.15
2497.78,4577.05
2510.9,4654.9
2524.0,4563.9
2537.08,4592.7
2550.14,4489.3
2563.17,4582.5
2576.18,4525.95
2589.17,4562.0
2602.13,4602.3
2615.07,4718.65
2627.99,4686.9
2640.89,4574.75
2653.76,4708.5
2666.61,4625.9
2679.44,4672.65
2692.25,4727.95
2705.03,4648.15
2717.79,4704.4
2730.53,4681.7
2743.25,4685.25
2755.94,4793.95
2768.61,4743.9
2781.27,4714.6
2793.89,4830.1
2806.5,4827.3
2819.09,4810.45
2831.65,4826.6
2844.19,4880.25
2856.71,4977.1
2869.21,4873.55
2881.69,4877.3
2894.14,4984.45
2906.58,5096.95
2918.99,5046.4
2931.38,5081.4
2943.75,5268.5
2956.1,5884.65
2968.42,5884.05
2980.73,5594.55
2993.01,5316.75
3005.28,5539.9
3017.52,5301.95
3029.74,5285.45
3041.94,5321.35
3054.12,5343.0
3066.28,5661.25
3078.42,6204.05
3090.54,5978.15
3102.63,5315.9
3114.71,5225.55
3126.77,5239.55
3138.8,5331.6
3150.82,5252.3
3162.81,5264.85
3174.78,5318.75
3186.74,5242.7
3198.67,5169.85
3210.58,5291.35
3222.47,5363.7
3234.35,5309.35
3246.2,5154.75
3258.03,5293.55
3269.84,5358.35
3281.64,5281.7
3293.41,5173.2
3305.16,5198.25
3316.89,5230.8
3328.61,5212.45
3340.3,5182.65
3351.97,5272.45
3363.63,5308.7
3375.26,5228.4
3386.88,5139.7
3398.47,5243.7
3410.05,5098.85
3421.6,5174.35
3433.14,5066.5
3444.66,5071.0
3456.15,5157.85
3467.63,5151.75
3479.09,4986.45
3490.53,5018.1
3501.96,5015.7
3513.36,5064.05
3524.74,5033.55
3536.11,4990.35
3547.45,4854.75
3558.78,4904.7
3570.09,4838.05
3581.37,4906.95
3592.64,4833.55
3603.9,4860.7
3615.13,4728.6
3626.34,4714.15
3637.54,4684.2
3648.72,4671.15
3659.87,4685.55
3665.45,4637.15