File: spectra/VLFR_01-LDPE_nobio_Raman_f34b1672.csv
nm,Intensity
526.486,829.1
527.033,828.3
527.579,829.5
528.126,828.6
528.672,828.5
529.219,828.3
529.765,828.5
530.311,828.3
530.857,828.6
531.403,830.1
531.948,829.8
532.494,829.5
533.039,829.1
533.585,831.0
534.13,893.0
534.675,886.8
535.22,873.4
535.764,865.9
536.309,861.9
536.854,858.6
537.398,858.0
537.942,857.4
538.486,856.4
539.03,860.0
539.574,856.4
540.118,852.8
540.662,851.4
541.205,852.4
541.749,851.5
542.292,851.3
542.835,851.3
543.378,850.0
543.921,848.1
544.464,849.3
545.006,847.4
545.549,846.3
546.091,847.7
546.634,846.8
547.176,847.6
547.718,846.6
548.26,846.1
548.802,846.7
549.343,847.5
549.885,849.3
550.426,849.0
550.968,847.8
551.509,847.2
552.05,847.3
552.591,846.1
553.132,848.0
553.673,848.6
554.214,849.7
554.754,850.1
555.295,850.3
555.835,853.1
556.375,851.2
556.915,853.0
557.455,852.3
557.995,857.1
558.535,854.8
559.075,851.8
559.614,852.9
560.154,852.7
560.693,852.9
561.232,852.9
561.772,854.2
562.311,855.0
562.85,856.4
563.388,859.9
563.927,889.4
564.466,870.9
565.004,867.0
565.543,861.0
566.081,892.1
566.619,865.3
567.157,860.0
567.695,864.9
568.233,856.6
568.771,857.6
569.309,857.5
569.846,861.4
570.384,861.9
570.921,868.1
571.458,916.2
571.995,888.1
572.532,871.1
573.069,864.4
573.606,865.5
574.143,871.0
574.68,861.4
575.216,863.3
575.753,893.0
576.289,959.4
576.825,922.8
577.361,899.1
577.897,872.9
578.433,868.2
578.969,866.2
579.505,868.9
580.041,865.0
580.576,868.0
581.112,868.6
581.647,869.9
582.183,870.8
582.718,873.9
583.253,878.5
583.788,877.2
584.323,881.7
584.858,885.7
585.392,884.9
585.927,889.4
586.462,895.2
586.996,898.9
587.53,899.4
588.065,908.3
588.599,911.2
589.133,915.5
589.667,919.6
590.201,924.6
590.735,924.4
591.268,930.4
591.802,929.6
592.335,937.3
592.869,937.8
593.402,940.0
593.936,945.4
594.469,954.4
595.002,954.5
595.535,965.6
596.068,964.0
596.601,976.0
597.133,981.9
597.666,988.4
598.199,999.4
598.731,1001.6
599.264,1008.4
599.796,1024.9
600.328,1027.4
600.86,1019.4
601.393,1026.1
601.925,1021.6
602.457,1015.1
602.988,1010.6
603.52,1010.1
604.052,1003.3
604.583,989.7
605.115,982.7
605.646,972.9
606.178,971.8
606.709,956.7
607.24,953.0
607.771,954.1
608.302,949.9
608.833,949.0
609.364,945.0
609.895,937.0
610.426,932.7
610.957,932.5
611.487,930.0
612.018,931.7
612.548,926.4
613.078,926.9
613.609,924.3
614.139,923.0
614.669,920.5
615.199,915.9
615.729,915.5
616.259,913.2
616.789,915.2
617.319,919.0
617.849,916.4
618.378,915.1
618.908,910.0
619.437,916.3
619.967,918.1
620.496,912.7
621.025,918.3
621.555,926.3
622.084,941.2
622.613,943.2
623.142,919.1
623.671,910.8
624.2,911.6
624.729,912.5
625.258,913.9
625.786,914.7
626.315,936.1
626.844,1114.2
627.372,1535.6
627.901,1282.5
628.429,1435.2
628.957,1320.7
629.486,1233.0
630.014,1141.2
630.542,1116.7
631.07,1012.2
631.598,943.2
632.126,922.5
632.654,908.5
633.182,900.9
633.71,897.6
634.237,896.8
634.765,895.0
635.293,894.0
635.82,893.9
636.348,896.5
636.875,895.2
637.403,893.4
637.93,894.3
638.458,895.5
638.985,895.5
639.512,898.2
640.039,899.8
640.566,899.9
641.093,898.8
641.62,902.0
642.147,904.3
642.674,907.4
643.201,908.4
643.728,905.3
644.255,907.4
644.781,908.4
645.308,909.7
645.835,907.5
646.361,913.4
646.888,913.1
647.414,912.6
647.941,913.1
648.467,910.5
648.993,915.9
649.52,916.3
650.046,912.2
650.572,914.7
651.098,917.8
651.625,917.2
652.151,915.6
652.677,920.1
653.203,920.8
653.729,926.3
654.255,921.2
654.78,918.3
655.306,920.5
655.832,920.5
656.358,918.4
656.884,920.9
657.409,919.0
657.935,918.5
658.461,915.4
658.986,910.5
659.512,907.8
660.037,910.3
660.563,905.9
661.088,903.9
661.614,896.7
662.139,896.2
662.664,892.1
663.058,890.1