File: spectra/VLFR_08-PLA_nobio_Raman_6d6c95d3.csv
nm,Intensity
526.532,832.05
527.079,833.15
527.625,833.4
528.172,833.4
528.718,833.75
529.265,832.55
529.811,833.0
530.357,832.85
530.903,833.45
531.449,832.05
531.994,845.3
532.54,832.85
533.085,832.65
533.63,838.4
534.176,1114.1
534.721,1055.85
535.266,1016.8
535.81,993.3
536.355,986.6
536.9,983.45
537.444,974.95
537.988,975.1
538.533,960.8
539.077,957.7
539.621,954.9
540.165,949.7
540.708,972.1
541.252,972.85
541.795,962.45
542.339,956.85
542.882,962.65
543.425,992.1
543.968,1000.45
544.511,970.05
545.054,961.7
545.597,956.05
546.139,957.6
546.682,956.6
547.224,963.5
547.766,962.55
548.308,965.15
548.85,965.25
549.392,968.05
549.934,967.4
550.475,966.9
551.017,974.6
551.558,976.95
552.1,980.65
552.641,983.6
553.182,985.35
553.723,983.25
554.264,989.15
554.804,981.9
555.345,977.7
555.885,973.4
556.426,974.15
556.966,979.0
557.506,1000.05
558.046,1160.1
558.586,1012.15
559.126,991.8
559.665,994.7
560.205,992.2
560.745,986.6
561.284,984.9
561.823,981.3
562.362,984.8
562.901,999.05
563.44,1039.05
563.979,1009.8
564.518,1005.2
565.056,1031.5
565.595,1025.8
566.133,1060.15
566.671,1018.25
567.21,999.4
567.748,1005.75
568.285,1004.55
568.823,1007.4
569.361,1008.55
569.899,1007.45
570.436,1007.45
570.974,1010.45
571.511,1033.65
572.048,1030.85
572.585,1024.15
573.122,1028.8
573.659,1030.0
574.196,1028.85
574.733,1038.75
575.269,1014.35
575.806,1012.8
576.342,1043.2
576.878,1106.3
577.414,1038.5
577.951,1017.85
578.486,1016.65
579.022,1019.9
579.558,1016.1
580.094,1018.75
580.629,1018.0
581.165,1016.9
581.7,1015.1
582.236,1018.5
582.771,1017.2
583.306,1021.65
583.841,1023.15
584.376,1021.75
584.911,1018.8
585.445,1027.8
585.98,1025.15
586.514,1043.65
587.049,1085.35
587.583,1116.2
588.117,1048.45
588.651,1028.9
589.186,1026.25
589.72,1024.85
590.253,1020.6
590.787,1026.7
591.321,1026.7
591.854,1024.45
592.388,1023.9
592.921,1021.55
593.455,1020.5
593.988,1020.75
594.521,1018.75
595.054,1022.25
595.587,1018.35
596.12,1026.85
596.653,1024.4
597.186,1022.1
597.718,1021.05
598.251,1021.05
598.783,1022.5
599.316,1024.8
599.848,1021.6
600.38,1023.95
600.912,1022.5
601.444,1017.75
601.976,1023.25
602.508,1021.3
603.04,1022.55
603.572,1020.65
604.103,1017.9
604.635,1014.6
605.167,1016.95
605.698,1009.7
606.229,1012.7
606.761,1013.65
607.292,1008.95
607.823,1012.5
608.354,1012.35
608.885,1010.75
609.416,1013.35
609.947,1013.55
610.477,1009.85
611.008,1012.15
611.539,1012.7
612.069,1014.1
612.6,1016.6
613.13,1014.65
613.66,1015.9
614.19,1018.4
614.721,1018.1
615.251,1015.45
615.781,1017.7
616.311,1011.85
616.841,1013.75
617.37,1016.5
617.9,1017.75
618.43,1012.5
618.96,1010.95
619.489,1011.95
620.019,1012.6
620.548,1011.75
621.077,1009.7
621.607,1009.3
622.136,1013.25
622.665,1024.2
623.194,1029.35
623.723,1020.55
624.252,1018.7
624.781,1010.15
625.31,1013.4
625.839,1011.4
626.368,1008.4
626.896,1009.75
627.425,1012.75
627.953,1023.1
628.482,1110.4
629.01,1079.2
629.539,1086.35
630.067,1092.65
630.596,1186.45
631.124,1654.15
631.652,1292.25
632.18,1162.4
632.708,1143.15
633.236,1256.75
633.764,1195.65
634.292,1079.9
634.82,1025.5
635.348,1005.6
635.876,1004.15
636.403,998.8
636.931,999.6
637.459,992.85
637.986,993.1
638.514,992.65
639.041,991.3
639.568,993.05
640.096,991.95
640.623,988.95
641.15,993.85
641.678,991.85
642.205,991.75
642.732,989.05
643.259,986.9
643.786,982.7
644.313,981.9
644.84,977.45
645.367,977.0
645.894,975.5
646.421,977.9
646.948,975.55
647.474,973.5
648.001,974.3
648.528,972.9
649.054,970.8
649.581,973.35
650.108,973.15
650.634,969.45
651.161,968.2
651.687,969.8
652.214,966.55
652.74,966.75
653.266,968.35
653.793,965.9
654.319,965.05
654.845,966.3
655.371,961.75
655.897,960.75
656.424,966.5
656.95,963.3
657.476,963.3
658.002,965.2
658.528,961.9
659.054,961.95
659.58,960.85
660.106,962.25
660.631,962.15
661.157,957.1
661.683,958.8
662.209,956.1
662.735,958.05
663.129,953.25