File: spectra/VLFR_08-PLA_nobio_Raman_f88d6922.csv
nm,Intensity
526.532,830.4
527.079,830.2
527.625,830.133
528.172,830.733
528.718,831.233
529.265,829.767
529.811,830.733
530.357,830.1
530.903,830.867
531.449,830.433
531.994,835.3
532.54,829.6
533.085,830.533
533.63,832.733
534.176,1018.63
534.721,972.433
535.266,936.267
535.81,917.033
536.355,909.233
536.9,907.8
537.444,898.067
537.988,898.533
538.533,885.633
539.077,885.233
539.621,880.433
540.165,873.467
540.708,890.7
541.252,891.933
541.795,879.867
542.339,875.5
542.882,877.9
543.425,902.567
543.968,906.3
544.511,885.267
545.054,874.033
545.597,868.733
546.139,869.8
546.682,869.567
547.224,871.567
547.766,871.733
548.308,871.867
548.85,873.7
549.392,872.633
549.934,874.3
550.475,874.8
551.017,877.267
551.558,879.933
552.1,881.633
552.641,881.0
553.182,881.767
553.723,878.967
554.264,884.933
554.804,878.033
555.345,874.2
555.885,868.467
556.426,873.467
556.966,875.233
557.506,891.233
558.046,1012.6
558.586,903.467
559.126,886.733
559.665,884.433
560.205,880.633
560.745,876.9
561.284,874.467
561.823,875.833
562.362,872.667
562.901,886.533
563.44,918.533
563.979,893.6
564.518,885.267
565.056,909.567
565.595,901.233
566.133,934.467
566.671,897.833
567.21,880.467
567.748,886.633
568.285,885.433
568.823,882.833
569.361,886.7
569.899,882.5
570.436,882.9
570.974,887.2
571.511,906.1
572.048,902.767
572.585,896.267
573.122,898.033
573.659,903.0
574.196,895.5
574.733,904.233
575.269,883.267
575.806,887.933
576.342,906.933
576.878,961.233
577.414,904.667
577.951,887.667
578.486,884.1
579.022,883.4
579.558,884.367
580.094,885.267
580.629,883.6
581.165,883.3
581.7,883.833
582.236,885.9
582.771,885.267
583.306,885.8
583.841,887.0
584.376,885.567
584.911,885.5
585.445,887.233
585.98,889.533
586.514,901.467
587.049,937.767
587.583,961.133
588.117,908.833
588.651,890.2
589.186,886.7
589.72,886.267
590.253,887.667
590.787,884.1
591.321,885.6
591.854,886.1
592.388,886.833
592.921,882.733
593.455,884.333
593.988,884.1
594.521,884.267
595.054,884.6
595.587,885.0
596.12,886.5
596.653,887.167
597.186,886.033
597.718,886.5
598.251,887.1
598.783,886.4
599.316,886.467
599.848,886.5
600.38,885.633
600.912,886.133
601.444,884.3
601.976,885.733
602.508,883.367
603.04,886.6
603.572,885.367
604.103,885.3
604.635,885.767
605.167,884.967
605.698,882.5
606.229,883.4
606.761,885.633
607.292,883.167
607.823,884.1
608.354,885.467
608.885,885.5
609.416,885.833
609.947,886.0
610.477,885.6
611.008,884.533
611.539,885.133
612.069,884.1
612.6,886.433
613.13,886.5
613.66,887.333
614.19,887.7
614.721,885.733
615.251,887.033
615.781,887.9
616.311,886.133
616.841,888.167
617.37,889.233
617.9,888.533
618.43,887.133
618.96,887.167
619.489,885.633
620.019,885.267
620.548,886.333
621.077,886.8
621.607,887.867
622.136,887.9
622.665,899.433
623.194,904.033
623.723,899.6
624.252,892.6
624.781,889.167
625.31,888.567
625.839,886.6
626.368,887.533
626.896,890.2
627.425,891.033
627.953,901.733
628.482,967.767
629.01,952.5
629.539,952.333
630.067,959.433
630.596,1024.5
631.124,1403.03
631.652,1129.5
632.18,1016.13
632.708,1001.17
633.236,1090.87
633.764,1046.93
634.292,954.633
634.82,910.333
635.348,895.8
635.876,892.0
636.403,887.767
636.931,885.633
637.459,883.867
637.986,883.3
638.514,883.467
639.041,883.033
639.568,883.5
640.096,882.0
640.623,882.5
641.15,881.433
641.678,883.833
642.205,884.2
642.732,882.933
643.259,881.467
643.786,878.733
644.313,878.033
644.84,878.867
645.367,876.8
645.894,877.4
646.421,875.8
646.948,876.3
647.474,877.267
648.001,875.133
648.528,876.133
649.054,874.767
649.581,874.967
650.108,873.667
650.634,872.933
651.161,872.733
651.687,874.1
652.214,875.7
652.74,875.033
653.266,874.167
653.793,873.9
654.319,874.0
654.845,873.3
655.371,872.067
655.897,871.767
656.424,873.267
656.95,874.967
657.476,874.133
658.002,873.133
658.528,872.667
659.054,871.467
659.58,872.367
660.106,871.867
660.631,870.5
661.157,871.133
661.683,870.067
662.209,871.1
662.735,870.133
663.129,869.5