File: spectra/VLFR_08-PLA_nobio_Raman_67de3816.csv
nm,Intensity
526.486,829.6
527.033,829.4
527.579,831.0
528.126,829.95
528.672,830.0
529.219,829.5
529.765,831.25
530.311,829.75
530.857,831.45
531.403,830.3
531.948,833.15
532.494,830.9
533.039,831.4
533.585,830.85
534.13,922.6
534.675,917.15
535.22,902.85
535.764,891.6
536.309,880.6
536.854,871.85
537.398,868.25
537.942,867.05
538.486,864.55
539.03,864.3
539.574,864.15
540.118,863.6
540.662,864.2
541.205,865.7
541.749,865.0
542.292,863.35
542.835,864.35
543.378,865.8
543.921,869.0
544.464,867.2
545.006,867.4
545.549,865.7
546.091,866.85
546.634,867.45
547.176,869.85
547.718,867.2
548.26,869.1
548.802,872.0
549.343,873.8
549.885,874.0
550.426,874.95
550.968,876.2
551.509,876.0
552.05,877.85
552.591,875.75
553.132,875.3
553.673,877.9
554.214,876.35
554.754,877.05
555.295,874.35
555.835,873.15
556.375,873.35
556.915,873.25
557.455,876.25
557.995,883.15
558.535,877.25
559.075,875.3
559.614,875.75
560.154,876.2
560.693,883.15
561.232,899.7
561.772,882.75
562.311,877.3
562.85,879.0
563.388,879.3
563.927,880.05
564.466,879.6
565.004,881.5
565.543,881.8
566.081,884.75
566.619,880.65
567.157,879.1
567.695,880.15
568.233,881.45
568.771,879.4
569.309,880.2
569.846,882.45
570.384,883.2
570.921,884.3
571.458,884.15
571.995,884.25
572.532,884.7
573.069,887.35
573.606,889.55
574.143,887.8
574.68,888.45
575.216,887.1
575.753,891.35
576.289,891.8
576.825,899.25
577.361,891.25
577.897,890.95
578.433,889.2
578.969,889.0
579.505,886.5
580.041,888.2
580.576,889.05
581.112,888.5
581.647,887.15
582.183,889.3
582.718,888.3
583.253,885.75
583.788,886.9
584.323,887.45
584.858,886.45
585.392,887.1
585.927,886.95
586.462,887.6
586.996,889.75
587.53,894.45
588.065,889.3
588.599,887.35
589.133,887.4
589.667,888.05
590.201,886.4
590.735,888.75
591.268,888.7
591.802,886.75
592.335,887.45
592.869,887.95
593.402,887.2
593.936,886.3
594.469,886.5
595.002,885.65
595.535,886.5
596.068,886.7
596.601,887.7
597.133,885.85
597.666,886.4
598.199,887.9
598.731,887.05
599.264,887.05
599.796,887.6
600.328,887.45
600.86,887.35
601.393,886.45
601.925,888.35
602.457,887.9
602.988,887.5
603.52,887.95
604.052,888.0
604.583,887.55
605.115,886.55
605.646,884.85
606.178,885.6
606.709,884.4
607.24,885.4
607.771,885.35
608.302,886.7
608.833,886.75
609.364,887.65
609.895,887.65
610.426,888.55
610.957,887.55
611.487,887.0
612.018,888.0
612.548,887.65
613.078,889.45
613.609,887.25
614.139,891.15
614.669,891.55
615.199,888.9
615.729,890.2
616.259,888.4
616.789,889.1
617.319,887.35
617.849,888.7
618.378,886.5
618.908,889.15
619.437,888.35
619.967,886.45
620.496,888.7
621.025,886.05
621.555,887.25
622.084,888.25
622.613,887.5
623.142,889.05
623.671,887.85
624.2,889.3
624.729,891.1
625.258,888.95
625.786,889.45
626.315,890.55
626.844,890.55
627.372,891.1
627.901,894.6
628.429,900.8
628.957,902.5
629.486,900.9
630.014,904.05
630.542,911.1
631.07,946.4
631.598,927.05
632.126,918.45
632.654,908.6
633.182,913.7
633.71,906.95
634.237,899.1
634.765,891.5
635.293,886.95
635.82,887.5
636.348,887.6
636.875,885.8
637.403,884.75
637.93,887.8
638.458,884.2
638.985,883.85
639.512,887.1
640.039,885.65
640.566,885.65
641.093,886.0
641.62,884.5
642.147,886.75
642.674,883.7
643.201,884.45
643.728,884.75
644.255,883.4
644.781,884.35
645.308,882.4
645.835,885.8
646.361,883.4
646.888,887.45
647.414,884.95
647.941,882.95
648.467,885.35
648.993,885.1
649.52,882.05
650.046,885.15
650.572,882.25
651.098,882.45
651.625,878.7
652.151,878.45
652.677,877.9
653.203,878.95
653.729,876.9
654.255,878.75
654.78,875.55
655.306,873.4
655.832,875.1
656.358,872.75
656.884,872.65
657.409,873.15
657.935,871.6
658.461,872.45
658.986,873.25
659.512,873.35
660.037,873.75
660.563,870.9
661.088,870.4
661.614,871.55
662.139,871.15
662.664,870.7
663.058,869.35