File: spectra/VLFR_01-LDPE_bio_Raman_771e705e.csv
nm,Intensity
528.637,1834.2
529.143,1833.9
529.648,1834.5
530.153,1833.2
530.659,1834.7
531.164,1841.1
531.669,1921.7
532.174,5748.4
532.679,1836.6
533.184,1836.3
533.689,2222.6
534.194,2989.2
534.699,2834.4
535.203,2643.9
535.708,2432.8
536.213,2301.5
536.717,2270.2
537.222,2266.8
537.726,2252.6
538.231,2213.5
538.735,2147.0
539.24,2111.6
539.744,2080.4
540.248,2069.5
540.752,2054.0
541.256,2040.0
541.761,2041.3
542.265,2047.9
542.769,2028.7
543.272,2018.2
543.776,2029.3
544.28,2017.1
544.784,2001.7
545.288,2000.0
545.791,1996.7
546.295,1983.2
546.798,1989.1
547.302,1990.1
547.805,1985.1
548.308,1974.3
548.812,1959.2
549.315,1962.5
549.818,1961.3
550.321,1959.4
550.824,1959.6
551.327,1956.6
551.83,1967.5
552.333,1964.9
552.836,1980.3
553.339,2054.3
553.842,2048.7
554.344,2063.6
554.847,2084.1
555.349,2090.6
555.852,2125.0
556.354,2155.6
556.857,2203.4
557.359,2259.1
557.861,2316.4
558.363,2342.5
558.866,2309.4
559.368,2224.3
559.87,2194.4
560.372,2177.1
560.873,2173.7
561.375,2177.8
561.877,2202.9
562.379,2259.4
562.88,2332.7
563.382,2465.1
563.883,3886.7
564.385,2958.2
564.886,2770.3
565.388,2552.1
565.889,3389.6
566.39,3187.2
566.891,2438.4
567.392,2565.3
567.893,2318.3
568.394,2317.5
568.895,2309.4
569.396,2331.2
569.897,2367.2
570.398,2450.1
570.898,2659.4
571.399,4970.6
571.899,3454.6
572.4,2783.9
572.9,2526.1
573.4,2540.5
573.901,2754.0
574.401,2488.0
574.901,2497.5
575.401,3409.6
575.901,4022.7
576.401,5403.5
576.901,4685.0
577.401,3575.6
577.9,2948.1
578.4,2871.8
578.9,2925.9
579.399,2912.0
579.899,3041.3
580.398,3078.5
580.897,3151.3
581.397,3152.6
581.896,3205.0
582.395,3226.9
582.894,3293.0
583.393,3326.1
583.892,3332.7
584.391,3410.3
584.889,3475.0
585.388,3402.7
585.887,3478.8
586.385,3516.5
586.884,3532.6
587.382,3538.8
587.881,3671.3
588.379,3688.9
588.877,3719.0
589.375,3752.7
589.874,3757.1
590.372,3828.1
590.87,3873.1
591.367,3936.0
591.865,3882.0
592.363,3900.6
592.861,3921.0
593.358,3922.2
593.856,3925.8
594.353,3885.9
594.851,3933.9
595.348,3931.4
595.845,3968.2
596.342,3932.9
596.84,4027.2
597.337,4077.8
597.833,4078.7
598.33,4122.7
598.827,4182.0
599.324,4189.9
599.821,4243.6
600.317,4187.4
600.814,4284.4
601.31,4265.6
601.807,4224.2
602.303,4274.1
602.799,4113.4
603.295,4060.4
603.791,4073.0
604.287,3956.1
604.783,3863.4
605.279,3744.9
605.775,3793.7
606.271,3682.6
606.766,3681.4
607.262,3576.8
607.757,3505.8
608.253,3533.6
608.748,3408.4
609.243,3369.6
609.738,3330.9
610.233,3367.0
610.729,3328.9
611.223,3360.1
611.718,3287.6
612.213,3208.4
612.708,3185.3
613.202,3134.7
613.697,3163.4
614.192,3153.5
614.686,3132.2
615.18,3094.6
615.675,3099.9
616.169,3101.2
616.663,3119.8
617.157,3196.0
617.651,3200.0
618.145,3158.9
618.638,3153.6
619.132,3192.6
619.626,3286.4
620.119,3238.5
620.613,3289.4
621.106,3369.4
621.599,3698.8
622.093,4184.0
622.586,3925.4
623.079,3394.5
623.572,3226.9
624.065,3186.8
624.558,3209.9
625.05,3252.9
625.543,3411.2
626.036,3769.5
626.528,5894.0
627.02,17374.6
627.513,16280.8
628.005,13460.8
628.497,20971.8
628.989,14338.6
629.481,11507.6
629.973,9958.0
630.465,8947.5
630.957,6269.9
631.449,4383.2
631.94,3850.6
632.432,3430.8
632.923,3292.7
633.414,3211.5
633.906,3150.8
634.397,3122.8
634.888,3029.9
635.379,2996.6
635.87,3026.4
636.361,3004.2
636.852,2925.9
637.342,2915.9
637.833,2918.0
638.323,2874.9
638.814,2897.0
639.304,2895.7
639.794,2849.2
640.285,2853.8
640.775,2834.5
641.265,2861.9
641.755,2839.8
642.244,2861.6
642.734,2832.4
643.224,2799.1
643.713,2885.2
644.203,2833.5
644.692,2855.5
645.181,2850.3
645.671,2828.3
646.16,2826.8
646.649,2826.5
647.138,2801.6
647.627,2836.0
648.115,2773.5
648.604,2800.6
649.093,2754.2
649.581,2793.3
650.07,2739.7
650.558,2771.9
651.046,2722.0
651.534,2740.2
652.023,2725.8
652.511,2691.0
652.998,2691.1
653.486,2631.4
653.974,2696.6
654.462,2621.8
654.949,2661.6
655.437,2662.6
655.924,2614.2
656.411,2603.2
656.898,2578.5
657.385,2579.4
657.872,2533.8
658.359,2539.1
658.846,2511.6
659.333,2490.1
659.82,2469.7
660.306,2494.5
660.793,2409.3
661.036,2424.5