File: spectra/VLFR_08-PLA_bio_Raman_e11959af.csv
nm,Intensity
526.495,830.7
527.042,828.2
527.589,828.6
528.136,831.9
528.682,830.7
529.229,828.8
529.775,828.7
530.321,828.1
530.867,829.4
531.413,828.1
531.959,836.7
532.505,831.6
533.051,828.1
533.596,833.6
534.141,1197.3
534.687,1118.5
535.232,1052.0
535.777,1019.8
536.321,1007.3
536.866,1005.5
537.41,990.7
537.955,987.9
538.499,964.5
539.043,957.4
539.587,955.1
540.131,945.3
540.675,973.9
541.219,979.1
541.762,962.5
542.305,952.8
542.849,958.7
543.392,999.8
543.935,1011.7
544.478,975.7
545.02,957.2
545.563,947.6
546.106,946.1
546.648,949.2
547.19,948.5
547.732,952.5
548.274,951.1
548.816,954.3
549.358,953.8
549.9,956.6
550.441,956.2
550.983,960.0
551.524,970.0
552.065,974.2
552.606,978.0
553.147,977.5
553.688,967.9
554.229,986.2
554.769,971.2
555.31,959.3
555.85,956.7
556.391,962.8
556.931,969.4
557.471,995.1
558.011,1205.5
558.551,1034.6
559.09,988.3
559.63,985.0
560.169,972.3
560.709,970.9
561.248,965.4
561.787,964.2
562.326,968.6
562.865,984.3
563.404,1048.7
563.943,1008.2
564.481,989.4
565.02,1029.5
565.558,1018.9
566.096,1078.2
566.634,1014.2
567.172,983.5
567.71,989.2
568.248,993.1
568.786,993.2
569.324,997.0
569.861,989.8
570.399,993.3
570.936,994.6
571.473,1028.5
572.01,1025.0
572.547,1010.6
573.084,1020.6
573.621,1022.4
574.158,1015.1
574.694,1041.2
575.231,1000.6
575.767,1003.6
576.303,1036.9
576.84,1148.0
577.376,1042.4
577.912,1005.6
578.448,999.2
578.984,999.6
579.519,994.7
580.055,1000.8
580.59,995.9
581.126,1000.8
581.661,1003.7
582.196,1003.4
582.731,1002.8
583.267,1003.1
583.801,1007.1
584.336,1004.2
584.871,1004.6
585.406,1004.2
585.94,1011.4
586.475,1030.0
587.009,1099.5
587.543,1142.3
588.078,1050.9
588.612,1014.6
589.146,1009.7
589.68,1011.1
590.214,1001.6
590.747,1014.5
591.281,1006.7
591.815,1007.1
592.348,1006.1
592.881,1003.0
593.415,1006.8
593.948,1005.5
594.481,1006.5
595.014,1005.9
595.547,1005.0
596.08,1006.2
596.613,1010.3
597.146,1009.9
597.678,1012.5
598.211,1014.7
598.743,1011.8
599.276,1013.6
599.808,1010.8
600.34,1012.5
600.872,1008.8
601.404,1010.8
601.936,1013.3
602.468,1012.5
603.0,1013.3
603.532,1016.1
604.064,1017.7
604.595,1013.5
605.127,1012.8
605.658,1008.1
606.189,1010.5
606.721,1008.6
607.252,1004.4
607.783,1011.2
608.314,1013.8
608.845,1023.2
609.376,1015.2
609.907,1013.6
610.438,1017.7
610.968,1015.7
611.499,1017.7
612.029,1019.3
612.56,1018.8
613.09,1024.3
613.621,1028.1
614.151,1031.1
614.681,1030.8
615.211,1028.4
615.741,1027.9
616.271,1029.7
616.801,1031.2
617.331,1030.1
617.861,1027.6
618.39,1030.8
618.92,1035.9
619.45,1029.5
619.979,1029.3
620.509,1030.8
621.038,1028.7
621.567,1029.4
622.096,1032.9
622.626,1053.2
623.155,1059.7
623.684,1051.5
624.213,1039.5
624.742,1030.7
625.271,1037.4
625.799,1031.7
626.328,1037.6
626.857,1037.0
627.386,1039.4
627.914,1056.4
628.443,1191.5
628.971,1170.6
629.5,1156.0
630.028,1167.7
630.556,1289.1
631.084,2061.6
631.613,1554.1
632.141,1303.0
632.669,1256.0
633.197,1432.8
633.725,1368.2
634.253,1175.7
634.781,1069.4
635.308,1042.8
635.836,1029.3
636.364,1032.7
636.891,1023.8
637.419,1018.0
637.947,1020.0
638.474,1011.1
639.002,1017.0
639.529,1013.4
640.056,1013.6
640.584,1011.2
641.111,1016.2
641.638,1017.3
642.165,1011.5
642.692,1008.1
643.219,1008.4
643.746,1000.9
644.273,1000.4
644.8,995.7
645.327,988.1
645.854,991.2
646.381,995.2
646.908,989.0
647.434,992.2
647.961,984.4
648.488,991.2
649.014,986.6
649.541,987.0
650.067,982.9
650.594,980.6
651.12,979.1
651.646,984.1
652.173,980.2
652.699,976.4
653.225,978.2
653.752,979.2
654.278,980.3
654.804,979.7
655.33,972.4
655.856,974.2
656.382,969.5
656.908,971.8
657.434,973.3
657.96,972.6
658.486,972.2
659.012,969.6
659.538,973.2
660.064,968.4
660.589,968.6
661.115,972.3
661.641,964.6
662.166,964.2
662.692,964.5
663.086,961.3