File: spectra/VLFR_08-PLA_nobio_Raman_c34a66cb.csv
nm,Intensity
526.508,830.6
527.055,830.15
527.602,830.5
528.149,829.85
528.695,830.35
529.241,830.8
529.787,831.3
530.334,830.5
530.879,830.15
531.425,831.05
531.971,833.0
532.516,831.5
533.062,831.1
533.607,831.55
534.152,1002.4
534.697,972.4
535.242,937.8
535.786,924.95
536.331,917.8
536.876,919.9
537.42,910.15
537.964,912.65
538.508,904.7
539.052,901.35
539.596,898.95
540.14,894.4
540.683,908.0
541.227,908.45
541.77,905.45
542.313,898.55
542.856,899.45
543.399,915.8
543.942,924.8
544.485,908.8
545.027,898.05
545.57,895.6
546.112,896.45
546.654,896.65
547.196,902.2
547.738,896.05
548.28,900.85
548.822,899.15
549.363,902.3
549.905,901.55
550.446,902.85
550.988,905.0
551.529,905.1
552.07,910.1
552.611,909.6
553.152,907.55
553.692,905.45
554.233,915.0
554.773,909.15
555.314,903.3
555.854,901.7
556.394,900.95
556.934,906.25
557.474,920.55
558.014,1004.35
558.553,933.45
559.093,917.35
559.632,916.55
560.172,911.4
560.711,910.55
561.25,907.1
561.789,908.95
562.328,911.05
562.867,916.35
563.406,941.4
563.944,928.45
564.483,920.8
565.021,940.25
565.559,934.0
566.098,961.05
566.636,930.85
567.174,918.9
567.711,919.3
568.249,924.1
568.787,921.6
569.324,922.0
569.862,924.25
570.399,921.0
570.936,927.95
571.474,934.45
572.011,941.6
572.548,939.25
573.084,935.55
573.621,941.65
574.158,935.75
574.694,943.9
575.231,927.75
575.767,926.65
576.303,940.85
576.84,990.5
577.376,949.6
577.912,929.7
578.447,930.45
578.983,929.45
579.519,927.0
580.054,928.1
580.59,928.6
581.125,928.05
581.661,929.55
582.196,931.65
582.731,930.55
583.266,931.35
583.801,933.4
584.336,935.4
584.87,935.9
585.405,935.15
585.94,932.9
586.474,946.7
587.008,977.15
587.543,993.2
588.077,951.55
588.611,936.0
589.145,935.45
589.679,935.55
590.213,933.7
590.747,936.3
591.28,935.6
591.814,935.1
592.347,930.55
592.881,932.65
593.414,930.55
593.947,930.4
594.48,931.25
595.014,933.4
595.547,934.3
596.079,936.5
596.612,932.95
597.145,933.45
597.678,934.35
598.21,933.05
598.743,936.8
599.275,936.45
599.807,932.9
600.34,936.3
600.872,933.25
601.404,934.25
601.936,932.65
602.468,934.25
603.0,934.9
603.532,933.2
604.063,934.2
604.595,930.9
605.126,930.65
605.658,930.15
606.189,930.4
606.721,927.1
607.252,929.65
607.783,930.7
608.314,931.55
608.845,930.05
609.376,931.7
609.907,929.45
610.438,933.55
610.968,928.0
611.499,930.95
612.03,931.6
612.56,933.9
613.091,931.85
613.621,930.95
614.151,932.35
614.681,932.35
615.212,933.85
615.742,933.7
616.272,930.75
616.802,933.25
617.332,933.6
617.861,934.55
618.391,933.3
618.921,929.5
619.45,932.5
619.98,932.2
620.509,929.5
621.039,929.55
621.568,929.0
622.097,931.75
622.627,938.5
623.156,945.0
623.685,939.35
624.214,938.7
624.743,931.65
625.272,927.3
625.801,931.75
626.33,931.25
626.858,933.6
627.387,934.35
627.916,937.1
628.444,994.0
628.973,987.45
629.501,986.6
630.029,991.85
630.558,1041.15
631.086,1361.2
631.614,1156.4
632.142,1040.2
632.67,1026.6
633.198,1101.0
633.726,1071.3
634.254,994.45
634.782,948.4
635.31,933.5
635.838,934.8
636.365,927.65
636.893,925.9
637.421,923.15
637.948,922.9
638.476,924.8
639.003,925.35
639.531,920.8
640.058,922.9
640.585,923.05
641.113,922.6
641.64,919.1
642.167,926.3
642.694,920.9
643.221,918.5
643.748,918.2
644.275,915.45
644.802,914.75
645.329,914.5
645.856,913.35
646.382,914.0
646.909,914.4
647.436,911.9
647.962,912.2
648.489,910.65
649.016,914.5
649.542,910.5
650.069,908.75
650.595,909.3
651.121,909.5
651.648,909.05
652.174,907.85
652.7,908.5
653.227,908.0
653.753,907.5
654.279,906.95
654.805,908.3
655.331,904.85
655.857,905.2
656.383,907.45
656.909,908.35
657.435,906.1
657.961,906.15
658.487,908.45
659.013,906.1
659.538,905.2
660.064,905.4
660.59,904.9
661.116,904.55
661.641,903.45
662.167,903.0
662.692,901.35
663.087,902.4