File: spectra/VLFR_07-PET_nobio_Raman_258fb31a.csv
nm,Intensity
791.75,15181.6
792.846,14072.2
793.942,13471.8
795.037,13480.3
796.133,13061.5
797.228,12904.8
798.324,13079.2
799.419,13095.5
800.514,12928.8
801.61,12779.0
802.705,12575.7
803.8,12553.8
804.894,12318.1
805.989,12253.5
807.084,11938.9
808.178,11898.8
809.273,11783.2
810.367,11779.4
811.461,11740.8
812.556,11434.0
813.65,11433.0
814.744,11244.5
815.837,11174.3
816.931,11035.5
818.025,11038.6
819.118,10810.0
820.212,10813.2
821.305,10729.8
822.398,10503.1
823.491,10554.8
824.585,10355.7
825.677,10647.2
826.77,10060.8
827.863,10056.5
828.956,9970.2
830.048,9998.85
831.14,9766.6
832.233,9649.95
833.325,9461.45
834.417,9624.9
835.509,9465.0
836.601,9471.55
837.692,9393.5
838.784,9296.15
839.876,9240.05
840.967,9813.05
842.058,9160.4
843.149,9190.0
844.24,8850.8
845.331,8692.6
846.422,8638.65
847.513,8477.35
848.604,8544.05
849.694,8348.9
850.784,8390.7
851.875,8410.45
852.965,8439.8
854.055,8220.7
855.145,8161.85
856.235,8056.35
857.324,8093.65
858.414,8212.85
859.503,8342.8
860.593,8087.7
861.682,7940.05
862.771,7836.65
863.86,7881.65
864.949,7796.9
866.038,7657.2
867.126,7526.05
868.215,7655.2
869.303,7545.85
870.391,7689.5
871.479,7798.2
872.567,7940.15
873.655,7837.3
874.743,7564.9
875.831,7386.0
876.918,7194.0
878.006,7196.35
879.093,7161.85
880.18,7087.2
881.267,7174.7
882.354,7146.9
883.441,7009.5
884.527,6976.25
885.614,6983.6
886.7,6728.15
887.786,6795.85
888.872,6648.2
889.958,6673.75
891.044,6646.65
892.13,6545.7
893.216,6499.85
894.301,6435.05
895.386,6362.25
896.472,6487.85
897.557,7142.0
898.642,7105.45
899.726,6361.7
900.811,6151.55
901.896,6077.9
902.98,6103.75
904.064,5950.55
905.148,6043.55
906.232,6306.95
907.316,6550.95
908.4,6259.7
909.484,5913.4
910.567,5753.7
911.65,5676.7
912.734,5620.05
913.817,5522.8
914.9,5486.5
915.982,5499.35
917.065,5389.2
918.147,5335.75
919.23,5339.35
920.312,5339.05
921.394,5252.3
922.476,5213.95
923.558,5143.6
924.639,5114.35
925.721,5090.9
926.802,5021.35
927.884,5003.35
928.965,4965.95
930.046,4914.85
931.126,4875.55
932.207,4862.7
933.288,4826.55
934.368,4803.8
935.448,4736.1
936.528,4715.3
937.608,4713.25
938.688,4663.6
939.767,4635.55
940.847,4610.5
941.926,4580.75
943.005,4550.7
944.084,4502.1
945.163,4510.25
946.242,4472.1
947.321,4451.4
948.399,4426.95
949.477,4425.25
950.556,4375.85
951.634,4358.4
952.711,4357.3
953.789,4319.15
954.867,4307.35
955.944,4296.8
957.021,4276.25
958.098,4245.15
959.175,4239.9
960.252,4217.3
961.328,4206.5
962.405,4180.55
963.481,4183.3
964.557,4154.85
965.633,4137.75
966.709,4131.95
967.785,4123.1
968.86,4090.75
969.936,4094.3
971.011,4073.95
972.086,4075.85
973.161,4048.75
974.235,4032.5
975.31,4031.25
976.384,4013.35
977.459,4005.05
978.533,3996.4
979.607,3991.45
980.68,3974.1
981.754,3965.75
982.827,3959.4
983.901,3949.55
984.974,3949.35
986.047,3931.8
987.119,3927.35
988.192,3917.15
989.264,3905.75
990.337,3900.05
991.409,3895.0
992.481,3884.4
993.553,3876.7
994.624,3870.7
995.696,3869.1
996.767,3859.75
997.838,3855.85
998.909,3849.2
999.98,3839.5
1001.05,3842.75
1002.12,3829.25
1003.19,3823.6
1004.26,3823.05
1005.33,3816.05
1006.4,3813.75
1007.47,3807.35
1008.54,3799.6
1009.61,3795.7
1010.68,3797.95
1011.75,3790.45
1012.82,3789.0
1013.88,3788.15
1014.95,3783.75
1016.02,3781.55
1017.09,3775.35
1018.16,3774.1
1019.22,3772.9
1020.29,3776.65
1021.36,3776.45
1022.43,3781.05
1023.49,3774.1
1024.56,3767.05
1025.63,3759.35
1026.69,3756.7
1027.76,3752.05
1028.83,3746.15
1029.89,3743.0
1030.96,3743.45
1032.02,3742.05
1033.09,3743.65
1034.15,3749.45
1035.22,3744.3
1036.28,3739.85
1037.35,3734.8
1038.41,3730.2
1039.48,3727.65
1040.54,3726.2
1041.6,3726.0
1042.67,3724.7
1043.73,3723.1
1044.79,3721.9
1045.86,3722.35
1046.92,3719.9
1047.98,3718.45
1049.05,3719.05
1050.11,3718.35
1051.17,3718.9
1052.23,3718.85
1053.29,3715.85
1054.36,3715.3
1055.42,3715.55
1056.48,3715.2
1057.54,3715.4
1058.6,3715.5
1059.66,3713.75
1060.72,3713.55
1061.78,3713.85
1062.84,3713.35
1063.9,3712.5
1064.96,3713.2
1066.02,3712.45
1067.08,3712.15
1067.88,3711.7