File: spectra/VLFR_06-PET_bio_Raman_2e60d889.csv
nm,Intensity
526.547,832.2
527.095,832.7
527.642,832.7
528.189,831.45
528.736,833.1
529.283,832.65
529.829,831.85
530.376,832.7
530.922,831.7
531.468,831.7
532.014,839.8
532.56,833.4
533.106,833.1
533.651,858.5
534.196,2466.25
534.742,1982.45
535.287,1540.65
535.832,1280.55
536.376,1124.85
536.921,1068.2
537.465,1046.35
538.01,1033.8
538.554,1046.95
539.098,1038.65
539.642,1060.45
540.186,1066.9
540.729,1016.05
541.273,1001.9
541.816,993.8
542.36,998.85
542.903,999.55
543.446,1000.3
543.988,1014.4
544.531,1004.95
545.074,1013.1
545.616,1014.35
546.158,1012.8
546.701,1022.3
547.243,1024.25
547.785,1029.2
548.326,1031.3
548.868,1030.95
549.41,1034.45
549.951,1037.0
550.492,1075.7
551.034,1063.55
551.575,1053.2
552.116,1061.05
552.656,1075.9
553.197,1081.3
553.738,1076.95
554.278,1073.4
554.819,1081.55
555.359,1105.25
555.899,1158.4
556.439,1173.15
556.979,1192.35
557.519,1393.9
558.058,1225.9
558.598,1217.75
559.137,1157.8
559.677,1131.15
560.216,1128.65
560.755,1128.1
561.294,1139.05
561.833,1152.8
562.371,1172.6
562.91,1196.4
563.449,1189.45
563.987,1180.05
564.525,1202.15
565.064,1265.4
565.602,1354.8
566.14,1342.75
566.678,1232.55
567.216,1214.95
567.753,1323.6
568.291,1229.2
568.828,1226.6
569.366,1243.25
569.903,1279.75
570.44,1355.85
570.977,1524.3
571.514,1647.95
572.051,1461.7
572.588,1313.85
573.125,1290.8
573.661,1298.0
574.198,1335.85
574.734,1316.35
575.271,1362.3
575.807,1326.9
576.343,1369.0
576.879,1387.65
577.415,1348.3
577.951,1340.8
578.486,1349.0
579.022,1351.4
579.557,1357.1
580.093,1362.0
580.628,1374.1
581.164,1401.05
581.699,1537.4
582.234,3073.8
582.769,1457.95
583.304,1411.55
583.838,1416.95
584.373,1422.7
584.908,1456.9
585.442,1614.4
585.977,2299.45
586.511,1893.2
587.045,1506.2
587.58,1459.45
588.114,1456.95
588.648,1453.4
589.182,1449.5
589.715,1452.85
590.249,1459.1
590.783,1460.25
591.316,1463.9
591.85,1466.15
592.383,1467.0
592.917,1469.6
593.45,1474.05
593.983,1479.85
594.516,1483.8
595.049,1489.65
595.582,1497.4
596.115,1494.35
596.648,1501.2
597.18,1501.65
597.713,1504.9
598.245,1516.9
598.778,1519.75
599.31,1521.15
599.842,1519.9
600.375,1521.95
600.907,1528.05
601.439,1521.7
601.971,1525.3
602.503,1525.4
603.034,1532.4
603.566,1546.3
604.098,1545.2
604.629,1535.15
605.161,1531.3
605.692,1525.8
606.224,1522.95
606.755,1524.45
607.286,1533.8
607.817,1533.9
608.348,1546.75
608.879,1544.55
609.41,1547.55
609.941,1549.15
610.472,1547.7
611.002,1552.8
611.533,1555.7
612.063,1564.3
612.594,1574.7
613.124,1586.35
613.655,1592.2
614.185,1594.6
614.715,1596.85
615.245,1589.85
615.775,1600.55
616.305,1602.55
616.835,1609.8
617.365,1620.3
617.895,1625.15
618.425,1641.3
618.954,1633.35
619.484,1630.35
620.013,1623.65
620.543,1632.45
621.072,1627.05
621.602,1633.95
622.131,1647.25
622.66,1654.75
623.189,1664.5
623.718,1668.2
624.247,1681.3
624.776,1698.75
625.305,1706.05
625.834,1697.9
626.363,1703.8
626.891,1707.2
627.42,1724.3
627.949,1726.65
628.477,1754.05
629.006,1791.35
629.534,1786.3
630.062,1805.7
630.591,1802.15
631.119,1896.65
631.647,2067.0
632.175,2027.25
632.703,1932.7
633.231,1925.55
633.759,1895.25
634.287,1858.6
634.815,1849.3
635.343,1878.3
635.871,1962.2
636.398,2134.25
636.926,2090.75
637.454,1940.1
637.981,1922.3
638.509,1915.15
639.036,1922.4
639.564,1928.65
640.091,1932.95
640.618,1932.9
641.146,1949.75
641.673,1950.9
642.2,1976.4
642.727,1967.9
643.254,1961.1
643.781,1954.4
644.308,1962.1
644.835,1966.0
645.362,1962.85
645.889,1971.0
646.416,1981.4
646.942,1996.7
647.469,2006.1
647.996,1999.8
648.522,2004.4
649.049,1993.0
649.576,2003.0
650.102,2003.15
650.629,2006.2
651.155,2007.85
651.682,2014.8
652.208,2012.1
652.734,2026.35
653.261,2038.75
653.787,2029.55
654.313,2032.45
654.839,2027.85
655.365,2029.35
655.892,2032.4
656.418,2030.7
656.944,2052.25
657.47,2032.35
657.996,2031.5
658.522,2045.2
659.048,2035.05
659.574,2043.6
660.099,2043.4
660.625,2047.0
661.151,2027.9
661.677,2009.85
662.203,2009.6
662.728,2021.1
663.123,2009.2