File: spectra/VLFR_02-HDPE_bio_Raman_330501df.csv
nm,Intensity
526.508,830.2
527.055,829.5
527.602,830.6
528.149,830.8
528.695,830.7
529.241,829.0
529.787,829.3
530.334,828.1
530.879,829.0
531.425,828.3
531.971,832.8
532.516,829.7
533.062,830.4
533.607,830.2
534.152,871.3
534.697,865.2
535.242,860.9
535.786,851.7
536.331,849.4
536.876,846.7
537.42,846.1
537.964,845.0
538.508,846.3
539.052,845.0
539.596,842.8
540.14,841.4
540.683,840.8
541.227,840.6
541.77,841.0
542.313,839.4
542.856,842.3
543.399,843.4
543.942,839.4
544.485,840.7
545.027,839.2
545.57,840.7
546.112,839.0
546.654,842.2
547.196,841.9
547.738,840.7
548.28,841.9
548.822,839.9
549.363,840.0
549.905,839.9
550.446,840.6
550.988,839.4
551.529,841.8
552.07,842.5
552.611,841.5
553.152,841.6
553.692,842.0
554.233,841.5
554.773,842.8
555.314,842.8
555.854,842.1
556.394,842.3
556.934,845.8
557.474,846.6
558.014,848.5
558.553,847.9
559.093,847.5
559.632,846.2
560.172,845.9
560.711,847.6
561.25,845.2
561.789,847.1
562.328,847.6
562.867,850.6
563.406,852.9
563.944,888.4
564.483,861.4
565.021,856.1
565.559,858.3
566.098,907.8
566.636,856.0
567.174,854.5
567.711,858.7
568.249,854.6
568.787,854.1
569.324,852.1
569.862,854.3
570.399,856.3
570.936,859.2
571.474,922.2
572.011,872.3
572.548,862.1
573.084,859.9
573.621,858.7
574.158,865.0
574.694,860.7
575.231,866.7
575.767,893.5
576.303,944.4
576.84,912.1
577.376,901.3
577.912,880.8
578.447,878.5
578.983,879.6
579.519,885.4
580.054,885.7
580.59,890.2
581.125,892.8
581.661,897.9
582.196,904.5
582.731,903.2
583.266,911.5
583.801,911.8
584.336,912.6
584.87,912.0
585.405,916.6
585.94,922.4
586.474,925.6
587.008,928.4
587.543,929.5
588.077,930.3
588.611,937.4
589.145,939.2
589.679,937.8
590.213,943.0
590.747,950.7
591.28,946.8
591.814,951.6
592.347,954.7
592.881,954.0
593.414,953.0
593.947,955.7
594.48,958.1
595.014,956.7
595.547,964.1
596.079,961.6
596.612,963.3
597.145,965.3
597.678,963.0
598.21,964.6
598.743,971.5
599.275,975.6
599.807,972.2
600.34,976.2
600.872,969.7
601.404,975.4
601.936,972.8
602.468,971.6
603.0,967.7
603.532,969.5
604.063,961.0
604.595,959.8
605.126,958.4
605.658,950.3
606.189,943.1
606.721,942.1
607.252,942.4
607.783,942.5
608.314,938.5
608.845,932.4
609.376,933.6
609.907,932.4
610.438,930.4
610.968,924.6
611.499,928.1
612.03,924.5
612.56,924.4
613.091,921.3
613.621,925.3
614.151,919.6
614.681,920.6
615.212,917.1
615.742,920.5
616.272,916.5
616.802,919.4
617.332,920.8
617.861,916.4
618.391,918.5
618.921,914.2
619.45,918.2
619.98,920.5
620.509,919.9
621.039,922.8
621.568,927.7
622.097,946.2
622.627,942.6
623.156,924.6
623.685,919.3
624.214,916.7
624.743,915.1
625.272,919.9
625.801,923.5
626.33,949.3
626.858,1109.0
627.387,1452.8
627.916,1223.3
628.444,1382.5
628.973,1289.0
629.501,1196.1
630.029,1105.2
630.558,1084.5
631.086,995.3
631.614,940.7
632.142,932.7
632.67,921.5
633.198,922.8
633.726,921.2
634.254,918.8
634.782,918.9
635.31,916.9
635.838,918.1
636.365,919.5
636.893,919.4
637.421,916.4
637.948,913.3
638.476,914.3
639.003,911.7
639.531,916.7
640.058,916.1
640.585,913.4
641.113,914.4
641.64,914.1
642.167,911.6
642.694,915.3
643.221,910.5
643.748,914.0
644.275,909.6
644.802,912.2
645.329,913.3
645.856,913.1
646.382,911.1
646.909,912.1
647.436,915.3
647.962,909.0
648.489,912.5
649.016,911.1
649.542,910.2
650.069,909.1
650.595,906.8
651.121,907.3
651.648,907.9
652.174,908.3
652.7,909.3
653.227,904.0
653.753,909.5
654.279,909.5
654.805,906.8
655.331,908.9
655.857,905.5
656.383,903.6
656.909,904.6
657.435,903.4
657.961,904.7
658.487,902.5
659.013,900.9
659.538,898.8
660.064,902.1
660.59,896.3
661.116,892.9
661.641,893.0
662.167,891.2
662.692,890.4
663.087,890.3