File: spectra/VLFR_07-PET_bio_Raman_733757e6.csv
nm,Intensity
791.75,4907.35
792.846,4875.55
793.942,4885.2
795.037,4882.55
796.133,4843.65
797.228,4874.5
798.324,4883.1
799.419,4891.65
800.514,4865.05
801.61,4874.25
802.705,4840.35
803.8,4842.75
804.894,4842.9
805.989,4840.3
807.084,4827.5
808.178,4819.95
809.273,4792.75
810.367,4795.35
811.461,4800.4
812.556,4785.5
813.65,4764.0
814.744,4721.45
815.837,4730.0
816.931,4721.7
818.025,4687.4
819.118,4719.8
820.212,4713.3
821.305,4721.8
822.398,4676.5
823.491,4659.4
824.585,4665.2
825.677,4669.05
826.77,4679.05
827.863,4637.45
828.956,4604.45
830.048,4627.75
831.14,4626.55
832.233,4592.35
833.325,4589.35
834.417,4597.95
835.509,4569.15
836.601,4591.35
837.692,4573.75
838.784,4569.4
839.876,4532.4
840.967,4551.65
842.058,4538.85
843.149,4526.1
844.24,4528.6
845.331,4515.4
846.422,4498.5
847.513,4488.2
848.604,4483.5
849.694,4453.5
850.784,4463.9
851.875,4455.65
852.965,4442.35
854.055,4426.85
855.145,4425.35
856.235,4432.5
857.324,4429.5
858.414,4429.8
859.503,4409.3
860.593,4400.3
861.682,4405.4
862.771,4397.4
863.86,4383.7
864.949,4378.0
866.038,4355.8
867.126,4360.3
868.215,4353.85
869.303,4347.55
870.391,4364.0
871.479,4342.7
872.567,4344.5
873.655,4324.85
874.743,4323.55
875.831,4307.15
876.918,4308.9
878.006,4301.35
879.093,4282.1
880.18,4279.05
881.267,4265.0
882.354,4254.4
883.441,4258.35
884.527,4246.45
885.614,4246.8
886.7,4229.0
887.786,4237.4
888.872,4209.5
889.958,4209.45
891.044,4200.65
892.13,4183.6
893.216,4174.4
894.301,4157.75
895.386,4140.95
896.472,4141.3
897.557,4137.3
898.642,4131.35
899.726,4112.75
900.811,4104.5
901.896,4091.5
902.98,4098.55
904.064,4092.6
905.148,4075.35
906.232,4069.05
907.316,4070.3
908.4,4054.55
909.484,4051.8
910.567,4036.85
911.65,4030.8
912.734,4024.4
913.817,4015.75
914.9,4003.55
915.982,3997.2
917.065,3998.5
918.147,3988.9
919.23,3981.85
920.312,3981.55
921.394,3978.2
922.476,3967.7
923.558,3958.75
924.639,3951.65
925.721,3954.5
926.802,3937.4
927.884,3934.55
928.965,3918.85
930.046,3913.35
931.126,3904.7
932.207,3898.9
933.288,3904.75
934.368,3888.55
935.448,3883.0
936.528,3876.85
937.608,3875.95
938.688,3879.25
939.767,3876.9
940.847,3870.55
941.926,3867.0
943.005,3855.3
944.084,3855.7
945.163,3849.6
946.242,3846.85
947.321,3846.4
948.399,3840.85
949.477,3840.45
950.556,3836.05
951.634,3831.4
952.711,3824.6
953.789,3826.15
954.867,3823.3
955.944,3820.1
957.021,3819.0
958.098,3813.2
959.175,3809.65
960.252,3810.25
961.328,3808.35
962.405,3807.75
963.481,3803.25
964.557,3802.9
965.633,3798.35
966.709,3797.2
967.785,3798.1
968.86,3799.15
969.936,3796.55
971.011,3791.75
972.086,3793.95
973.161,3789.45
974.235,3785.95
975.31,3784.6
976.384,3783.35
977.459,3779.75
978.533,3781.0
979.607,3777.6
980.68,3778.7
981.754,3777.15
982.827,3775.7
983.901,3772.5
984.974,3774.15
986.047,3774.55
987.119,3773.2
988.192,3769.5
989.264,3769.15
990.337,3766.45
991.409,3765.7
992.481,3761.4
993.553,3763.95
994.624,3763.3
995.696,3760.7
996.767,3762.2
997.838,3759.5
998.909,3759.65
999.98,3759.15
1001.05,3758.0
1002.12,3756.05
1003.19,3755.85
1004.26,3752.9
1005.33,3752.45
1006.4,3752.55
1007.47,3750.15
1008.54,3752.0
1009.61,3747.45
1010.68,3750.45
1011.75,3748.0
1012.82,3748.15
1013.88,3747.45
1014.95,3746.0
1016.02,3746.0
1017.09,3745.8
1018.16,3742.05
1019.22,3746.2
1020.29,3743.6
1021.36,3744.65
1022.43,3740.7
1023.49,3741.1
1024.56,3740.75
1025.63,3741.2
1026.69,3738.35
1027.76,3737.75
1028.83,3737.85
1029.89,3738.45
1030.96,3737.0
1032.02,3738.2
1033.09,3738.95
1034.15,3737.1
1035.22,3738.0
1036.28,3735.4
1037.35,3737.25
1038.41,3736.15
1039.48,3737.6
1040.54,3736.25
1041.6,3735.85
1042.67,3735.75
1043.73,3735.7
1044.79,3734.65
1045.86,3733.2
1046.92,3734.25
1047.98,3736.15
1049.05,3734.1
1050.11,3733.25
1051.17,3733.8
1052.23,3733.05
1053.29,3734.15
1054.36,3732.2
1055.42,3733.6
1056.48,3733.4
1057.54,3733.7
1058.6,3731.95
1059.66,3732.45
1060.72,3732.6
1061.78,3732.55
1062.84,3733.6
1063.9,3732.8
1064.96,3731.15
1066.02,3731.0
1067.08,3732.25
1067.88,3730.75