File: spectra/VLFR_08-PLA_bio_Raman_7e854666.csv
nm,Intensity
526.547,832.75
527.095,831.75
527.642,832.45
528.189,831.7
528.736,832.5
529.283,832.7
529.829,831.6
530.376,831.5
530.922,831.55
531.468,831.6
532.014,834.75
532.56,831.9
533.106,832.25
533.651,834.85
534.196,1019.05
534.742,984.5
535.287,964.8
535.832,945.7
536.376,943.6
536.921,945.15
537.465,933.95
538.01,935.1
538.554,929.3
539.098,928.15
539.642,922.2
540.186,921.5
540.729,938.55
541.273,937.65
541.816,927.2
542.36,926.3
542.903,927.15
543.446,948.95
543.988,958.85
544.531,937.05
545.074,927.65
545.616,928.7
546.158,926.2
546.701,926.65
547.243,929.8
547.785,932.05
548.326,929.25
548.868,930.8
549.41,935.2
549.951,936.4
550.492,938.35
551.034,939.65
551.575,944.0
552.116,944.85
552.656,948.45
553.197,948.8
553.738,945.7
554.278,950.5
554.819,944.55
555.359,941.0
555.899,941.35
556.439,943.7
556.979,944.5
557.519,956.15
558.058,1052.75
558.598,963.95
559.137,952.6
559.677,955.95
560.216,948.0
560.755,950.0
561.294,948.85
561.833,948.4
562.371,949.65
562.91,961.75
563.449,984.5
563.987,968.1
564.525,963.95
565.064,984.15
565.602,976.45
566.14,1007.2
566.678,970.8
567.216,966.75
567.753,970.95
568.291,968.9
568.828,971.6
569.366,974.5
569.903,972.1
570.44,971.9
570.977,976.4
571.514,994.35
572.051,990.4
572.588,989.0
573.125,989.3
573.661,994.9
574.198,993.55
574.734,999.15
575.271,985.95
575.807,983.05
576.343,1002.5
576.879,1041.9
577.415,999.4
577.951,982.0
578.486,987.2
579.022,986.1
579.557,986.4
580.093,988.0
580.628,982.7
581.164,987.95
581.699,990.35
582.234,983.05
582.769,985.5
583.304,981.4
583.838,981.95
584.373,976.8
584.908,975.25
585.442,975.4
585.977,974.75
586.511,988.05
587.045,1008.7
587.58,1032.85
588.114,989.75
588.648,978.8
589.182,972.8
589.715,973.65
590.249,973.15
590.783,970.5
591.316,969.35
591.85,973.9
592.383,969.45
592.917,967.1
593.45,969.95
593.983,968.5
594.516,970.35
595.049,971.1
595.582,970.55
596.115,969.5
596.648,969.45
597.18,967.5
597.713,968.75
598.245,969.1
598.778,972.8
599.31,970.25
599.842,969.7
600.375,968.5
600.907,963.1
601.439,967.2
601.971,967.95
602.503,968.85
603.034,966.2
603.566,964.9
604.098,967.3
604.629,964.55
605.161,961.45
605.692,961.75
606.224,958.4
606.755,958.4
607.286,957.8
607.817,960.0
608.348,959.65
608.879,961.2
609.41,957.75
609.941,958.05
610.472,958.6
611.002,953.3
611.533,955.25
612.063,958.2
612.594,959.2
613.124,960.1
613.655,960.25
614.185,959.8
614.715,960.4
615.245,961.95
615.775,955.9
616.305,960.0
616.835,958.85
617.365,958.45
617.895,957.4
618.425,956.85
618.954,957.4
619.484,956.0
620.013,954.75
620.543,955.45
621.072,956.65
621.602,957.35
622.131,960.05
622.66,958.8
623.189,960.8
623.718,962.55
624.247,954.3
624.776,955.7
625.305,955.4
625.834,952.4
626.363,954.95
626.891,953.4
627.42,953.3
627.949,966.25
628.477,1011.3
629.006,998.75
629.534,997.3
630.062,1003.8
630.591,1052.7
631.119,1332.1
631.647,1135.15
632.175,1043.7
632.703,1030.55
633.231,1095.65
633.759,1060.95
634.287,992.45
634.815,961.2
635.343,946.75
635.871,948.3
636.398,944.55
636.926,938.9
637.454,942.2
637.981,940.05
638.509,939.6
639.036,937.6
639.564,940.75
640.091,939.15
640.618,938.0
641.146,938.65
641.673,936.4
642.2,937.4
642.727,935.0
643.254,933.1
643.781,932.15
644.308,928.35
644.835,929.25
645.362,925.85
645.889,926.3
646.416,926.5
646.942,927.95
647.469,928.55
647.996,924.55
648.522,927.2
649.049,923.45
649.576,920.95
650.102,924.45
650.629,923.25
651.155,919.75
651.682,920.35
652.208,923.55
652.734,920.45
653.261,920.35
653.787,921.6
654.313,919.7
654.839,919.5
655.365,920.9
655.892,918.8
656.418,918.85
656.944,919.65
657.47,918.05
657.996,918.8
658.522,915.8
659.048,918.0
659.574,917.6
660.099,919.25
660.625,916.65
661.151,915.9
661.677,915.45
662.203,913.6
662.728,914.1
663.123,913.55