File: spectra/VLFR_06-PET_bio_Raman_3f8f5d99.csv
nm,Intensity
526.508,830.0
527.055,830.2
527.602,830.5
528.149,828.7
528.695,830.2
529.241,829.7
529.787,830.1
530.334,830.3
530.879,829.5
531.425,832.0
531.971,834.6
532.516,830.0
533.062,828.9
533.607,830.9
534.152,1105.7
534.697,1044.2
535.242,983.6
535.786,951.3
536.331,932.1
536.876,919.4
537.42,919.2
537.964,919.2
538.508,917.6
539.052,917.1
539.596,922.4
540.14,927.6
540.683,920.7
541.227,918.3
541.77,915.7
542.313,916.0
542.856,919.9
543.399,922.6
543.942,918.6
544.485,922.7
545.027,920.0
545.57,922.5
546.112,924.2
546.654,924.3
547.196,928.7
547.738,929.3
548.28,926.8
548.822,929.8
549.363,935.0
549.905,932.9
550.446,935.8
550.988,941.1
551.529,936.8
552.07,939.3
552.611,944.6
553.152,943.5
553.692,940.1
554.233,935.9
554.773,943.8
555.314,942.8
555.854,953.5
556.394,954.8
556.934,958.5
557.474,980.3
558.014,963.6
558.553,959.7
559.093,951.9
559.632,960.3
560.172,956.2
560.711,954.8
561.25,961.4
561.789,956.3
562.328,966.1
562.867,968.5
563.406,969.5
563.944,967.4
564.483,971.0
565.021,980.5
565.559,995.3
566.098,993.2
566.636,977.4
567.174,976.5
567.711,989.9
568.249,983.3
568.787,978.4
569.324,984.6
569.862,988.8
570.399,1000.8
570.936,1021.8
571.474,1037.4
572.011,1010.1
572.548,994.6
573.084,1000.7
573.621,1001.2
574.158,1000.6
574.694,1001.6
575.231,1008.9
575.767,998.0
576.303,1015.4
576.84,1013.7
577.376,1008.4
577.912,1009.3
578.447,1006.7
578.983,1003.5
579.519,1007.8
580.054,1016.9
580.59,1017.6
581.125,1023.9
581.661,1043.2
582.196,1228.4
582.731,1030.2
583.266,1022.3
583.801,1022.7
584.336,1026.0
584.87,1029.8
585.405,1043.2
585.94,1134.8
586.474,1092.0
587.008,1043.7
587.543,1035.1
588.077,1028.9
588.611,1031.0
589.145,1030.6
589.679,1036.3
590.213,1029.2
590.747,1038.4
591.28,1035.0
591.814,1036.6
592.347,1031.7
592.881,1033.4
593.414,1042.0
593.947,1031.9
594.48,1037.6
595.014,1040.5
595.547,1040.7
596.079,1041.5
596.612,1042.8
597.145,1042.7
597.678,1042.9
598.21,1042.9
598.743,1046.2
599.275,1044.3
599.807,1044.5
600.34,1044.9
600.872,1044.9
601.404,1042.7
601.936,1043.1
602.468,1052.9
603.0,1044.5
603.532,1045.4
604.063,1045.8
604.595,1045.0
605.126,1049.0
605.658,1032.8
606.189,1044.5
606.721,1043.0
607.252,1047.1
607.783,1040.3
608.314,1051.0
608.845,1040.6
609.376,1049.4
609.907,1042.4
610.438,1043.3
610.968,1043.4
611.499,1042.7
612.03,1048.4
612.56,1052.1
613.091,1055.1
613.621,1057.1
614.151,1054.5
614.681,1052.5
615.212,1047.7
615.742,1053.4
616.272,1053.3
616.802,1061.1
617.332,1058.1
617.861,1058.4
618.391,1061.3
618.921,1057.1
619.45,1062.8
619.98,1063.5
620.509,1060.8
621.039,1063.1
621.568,1056.9
622.097,1054.8
622.627,1067.9
623.156,1068.3
623.685,1066.8
624.214,1069.3
624.743,1071.0
625.272,1067.5
625.801,1074.6
626.33,1069.0
626.858,1075.4
627.387,1073.7
627.916,1081.1
628.444,1079.6
628.973,1085.1
629.501,1083.3
630.029,1088.4
630.558,1085.3
631.086,1102.1
631.614,1123.2
632.142,1118.8
632.67,1102.9
633.198,1101.2
633.726,1095.9
634.254,1095.3
634.782,1091.3
635.31,1090.2
635.838,1106.6
636.365,1128.6
636.893,1132.9
637.421,1104.7
637.948,1100.0
638.476,1095.4
639.003,1102.1
639.531,1104.8
640.058,1108.3
640.585,1107.7
641.113,1106.1
641.64,1106.3
642.167,1109.8
642.694,1111.3
643.221,1109.2
643.748,1102.6
644.275,1100.8
644.802,1106.3
645.329,1106.3
645.856,1111.3
646.382,1108.7
646.909,1114.0
647.436,1110.3
647.962,1107.7
648.489,1110.0
649.016,1106.2
649.542,1112.7
650.069,1110.4
650.595,1102.7
651.121,1102.7
651.648,1110.3
652.174,1108.3
652.7,1116.8
653.227,1110.8
653.753,1116.1
654.279,1110.2
654.805,1112.4
655.331,1112.3
655.857,1119.7
656.383,1110.6
656.909,1120.5
657.435,1116.1
657.961,1118.7
658.487,1118.5
659.013,1113.6
659.538,1113.4
660.064,1118.1
660.59,1113.9
661.116,1108.0
661.641,1117.7
662.167,1110.4
662.692,1109.2
663.087,1102.4