File: spectra/VLFR_08-PLA_nobio_Raman_912f177a.csv
nm,Intensity
526.508,830.9
527.055,831.3
527.602,830.1
528.149,829.4
528.695,829.8
529.241,830.1
529.787,832.6
530.334,831.2
530.879,829.6
531.425,830.0
531.971,832.4
532.516,832.2
533.062,830.0
533.607,831.7
534.152,1084.8
534.697,1035.2
535.242,990.4
535.786,969.8
536.331,962.0
536.876,961.5
537.42,951.7
537.964,948.0
538.508,935.4
539.052,930.5
539.596,929.2
540.14,923.0
540.683,943.1
541.227,945.9
541.77,936.0
542.313,931.1
542.856,933.4
543.399,961.5
543.942,972.1
544.485,946.6
545.027,932.2
545.57,927.3
546.112,926.3
546.654,928.7
547.196,932.4
547.738,931.0
548.28,931.2
548.822,935.7
549.363,934.3
549.905,933.8
550.446,938.6
550.988,938.5
551.529,941.7
552.07,944.3
552.611,947.3
553.152,948.2
553.692,945.3
554.233,951.2
554.773,947.8
555.314,943.7
555.854,936.9
556.394,939.0
556.934,945.5
557.474,961.6
558.014,1096.1
558.553,983.8
559.093,958.0
559.632,957.3
560.172,952.2
560.711,952.7
561.25,949.7
561.789,947.9
562.328,947.1
562.867,958.9
563.406,999.6
563.944,973.6
564.483,967.9
565.021,990.2
565.559,985.2
566.098,1018.4
566.636,985.8
567.174,957.8
567.711,965.9
568.249,969.8
568.787,969.8
569.324,973.0
569.862,966.0
570.399,968.2
570.936,966.6
571.474,992.9
572.011,994.2
572.548,982.9
573.084,983.6
573.621,988.9
574.158,985.4
574.694,1003.4
575.231,972.8
575.767,976.1
576.303,991.9
576.84,1061.4
577.376,1005.9
577.912,980.6
578.447,981.2
578.983,978.2
579.519,976.7
580.054,971.9
580.59,972.5
581.125,977.6
581.661,979.8
582.196,980.7
582.731,977.8
583.266,975.8
583.801,977.0
584.336,981.5
584.87,978.8
585.405,981.5
585.94,986.5
586.474,998.3
587.008,1037.6
587.543,1063.4
588.077,1009.9
588.611,983.4
589.145,974.8
589.679,978.9
590.213,980.9
590.747,979.5
591.28,982.6
591.814,978.3
592.347,981.7
592.881,978.9
593.414,980.5
593.947,980.9
594.48,980.7
595.014,979.6
595.547,980.5
596.079,982.4
596.612,982.7
597.145,981.0
597.678,983.7
598.21,981.9
598.743,980.6
599.275,983.5
599.807,986.8
600.34,980.3
600.872,985.7
601.404,980.3
601.936,982.3
602.468,983.1
603.0,979.7
603.532,986.8
604.063,985.1
604.595,983.7
605.126,982.4
605.658,983.1
606.189,980.5
606.721,977.3
607.252,981.8
607.783,980.0
608.314,981.6
608.845,981.3
609.376,985.6
609.907,982.3
610.438,982.8
610.968,983.4
611.499,980.1
612.03,986.2
612.56,983.4
613.091,983.9
613.621,986.8
614.151,990.9
614.681,984.6
615.212,992.1
615.742,986.8
616.272,990.6
616.802,992.1
617.332,993.0
617.861,987.5
618.391,989.9
618.921,988.4
619.45,989.6
619.98,984.6
620.509,991.4
621.039,990.9
621.568,988.8
622.097,989.6
622.627,999.5
623.156,1009.6
623.685,1001.3
624.214,992.5
624.743,989.9
625.272,991.1
625.801,990.9
626.33,988.8
626.858,993.0
627.387,990.2
627.916,1004.8
628.444,1081.9
628.973,1063.2
629.501,1064.2
630.029,1068.5
630.558,1135.3
631.086,1592.2
631.614,1303.9
632.142,1145.8
632.67,1112.2
633.198,1227.3
633.726,1184.6
634.254,1070.8
634.782,1010.4
635.31,992.2
635.838,982.8
636.365,979.7
636.893,977.5
637.421,974.4
637.948,975.5
638.476,972.4
639.003,974.2
639.531,972.1
640.058,972.5
640.585,976.0
641.113,969.1
641.64,973.8
642.167,967.4
642.694,968.5
643.221,968.7
643.748,961.8
644.275,965.1
644.802,960.6
645.329,958.6
645.856,959.9
646.382,957.1
646.909,955.8
647.436,959.8
647.962,959.4
648.489,953.4
649.016,949.8
649.542,950.4
650.069,954.1
650.595,952.4
651.121,949.0
651.648,952.3
652.174,946.5
652.7,949.7
653.227,949.7
653.753,952.6
654.279,949.6
654.805,944.0
655.331,943.3
655.857,943.6
656.383,946.8
656.909,948.1
657.435,950.2
657.961,944.7
658.487,944.5
659.013,942.7
659.538,947.3
660.064,943.8
660.59,940.4
661.116,936.9
661.641,938.2
662.167,938.3
662.692,935.4
663.087,935.4