File: spectra/VLFR_07-PET_nobio_Raman_8fd6b8dc.csv
nm,Intensity
791.377,9952.04
792.477,9034.68
793.576,8452.02
794.676,8108.0
795.775,7931.66
796.874,7941.84
797.973,7916.64
799.072,7895.8
800.171,7794.0
801.27,7866.08
802.368,7757.9
803.467,7531.46
804.565,7472.16
805.664,7451.42
806.762,7340.14
807.86,7342.28
808.958,7229.2
810.056,7167.54
811.153,7115.02
812.251,7011.82
813.349,7019.2
814.446,6961.8
815.543,6879.1
816.64,6876.74
817.737,6801.68
818.834,6809.12
819.931,6753.8
821.028,6663.08
822.125,6665.84
823.221,6564.08
824.317,6543.62
825.414,6771.12
826.51,6626.36
827.606,6463.12
828.702,6406.64
829.797,6396.78
830.893,6442.1
831.988,6272.86
833.084,6258.5
834.179,6206.66
835.274,6129.98
836.369,6194.3
837.464,6310.86
838.559,6178.88
839.654,6242.8
840.748,6388.24
841.843,6382.32
842.937,6223.12
844.031,6043.74
845.125,5903.18
846.219,5867.32
847.313,5844.12
848.407,5836.5
849.5,5784.78
850.593,5729.26
851.687,5732.24
852.78,5755.84
853.873,5740.12
854.966,5677.74
856.059,5636.96
857.151,5630.8
858.244,5689.04
859.336,5820.8
860.428,5778.94
861.52,5609.44
862.612,5503.56
863.704,5521.02
864.796,5574.88
865.888,5440.08
866.979,5400.08
868.07,5394.12
869.162,5374.64
870.253,5397.46
871.344,5566.26
872.434,5784.26
873.525,5730.1
874.615,5527.22
875.706,5337.2
876.796,5309.22
877.886,5213.18
878.976,5207.1
880.066,5178.08
881.156,5143.36
882.245,5197.66
883.335,5138.54
884.424,5140.22
885.513,5139.74
886.602,5061.58
887.691,5050.78
888.78,4993.06
889.868,4941.84
890.957,4975.06
892.045,4968.96
893.133,4914.34
894.221,4887.92
895.309,4825.34
896.397,4866.66
897.484,5135.4
898.571,5547.44
899.659,5165.02
900.746,4755.96
901.833,4754.36
902.92,4691.68
904.006,4686.9
905.093,4677.76
906.179,4823.5
907.266,5140.48
908.352,5116.34
909.438,4849.58
910.523,4606.82
911.609,4564.3
912.695,4520.7
913.78,4491.26
914.865,4480.1
915.95,4450.16
917.035,4434.58
918.12,4406.2
919.204,4419.5
920.289,4383.78
921.373,4358.46
922.457,4367.12
923.541,4326.96
924.625,4309.14
925.709,4317.86
926.792,4286.3
927.876,4266.52
928.959,4239.68
930.042,4245.64
931.125,4209.2
932.208,4208.34
933.29,4186.1
934.373,4160.86
935.455,4164.64
936.537,4140.4
937.619,4137.5
938.701,4124.96
939.782,4126.48
940.864,4110.28
941.945,4088.12
943.026,4082.82
944.107,4068.02
945.188,4067.54
946.269,4051.02
947.349,4044.04
948.43,4026.24
949.51,4024.12
950.59,4018.72
951.67,4004.86
952.75,3986.58
953.829,3987.8
954.909,3983.14
955.988,3974.2
957.067,3965.82
958.146,3953.84
959.224,3954.96
960.303,3937.72
961.381,3935.06
962.459,3930.2
963.537,3924.02
964.615,3921.58
965.693,3913.56
966.771,3905.86
967.848,3901.4
968.925,3898.44
970.002,3894.78
971.079,3886.8
972.156,3880.1
973.232,3875.42
974.309,3874.6
975.385,3870.4
976.461,3865.88
977.537,3861.88
978.612,3852.18
979.688,3849.72
980.763,3848.94
981.838,3845.82
982.913,3839.9
983.988,3836.74
985.063,3836.34
986.137,3832.08
987.211,3833.04
988.285,3824.12
989.359,3821.0
990.433,3815.76
991.506,3812.52
992.58,3809.08
993.653,3807.22
994.726,3804.9
995.799,3804.08
996.872,3798.32
997.944,3798.68
999.016,3794.58
1000.09,3795.78
1001.16,3787.12
1002.23,3788.56
1003.3,3784.24
1004.38,3783.42
1005.45,3781.02
1006.52,3781.72
1007.59,3777.62
1008.66,3773.1
1009.73,3773.68
1010.8,3770.28
1011.87,3771.1
1012.94,3768.48
1014.01,3767.86
1015.08,3766.82
1016.15,3767.84
1017.22,3764.92
1018.29,3763.34
1019.36,3763.04
1020.42,3763.0
1021.49,3768.7
1022.56,3773.76
1023.63,3771.3
1024.7,3766.12
1025.76,3760.06
1026.83,3757.34
1027.9,3755.6
1028.97,3752.7
1030.03,3750.32
1031.1,3747.8
1032.17,3748.32
1033.23,3749.9
1034.3,3752.9
1035.36,3755.18
1036.43,3754.22
1037.5,3749.06
1038.56,3743.56
1039.63,3742.26
1040.69,3742.36
1041.76,3741.0
1042.82,3740.96
1043.89,3740.36
1044.95,3738.36
1046.01,3737.4
1047.08,3738.84
1048.14,3738.0
1049.2,3736.7
1050.27,3736.48
1051.33,3736.76
1052.39,3737.72
1053.46,3736.4
1054.52,3735.76
1055.58,3735.94
1056.64,3736.8
1057.7,3736.3
1058.77,3735.84
1059.83,3735.24
1060.89,3736.32
1061.95,3735.36
1063.01,3735.16
1064.07,3735.46
1065.13,3734.88
1066.19,3734.18
1067.25,3734.18
1068.05,3734.54