File: spectra/VLFR_01-LDPE_bio_Raman_50996670.csv
nm,Intensity
526.508,829.3
527.055,830.0
527.602,830.5
528.149,829.8
528.695,831.0
529.241,830.2
529.787,830.5
530.334,831.0
530.879,830.9
531.425,830.3
531.971,843.1
532.516,832.7
533.062,831.8
533.607,831.0
534.152,856.9
534.697,857.0
535.242,853.5
535.786,850.8
536.331,850.9
536.876,850.0
537.42,853.8
537.964,851.4
538.508,852.0
539.052,851.7
539.596,851.6
540.14,850.9
540.683,851.6
541.227,850.5
541.77,849.7
542.313,850.9
542.856,851.5
543.399,852.2
543.942,848.5
544.485,852.8
545.027,851.7
545.57,852.5
546.112,851.9
546.654,851.3
547.196,850.6
547.738,850.7
548.28,854.5
548.822,851.3
549.363,851.0
549.905,850.2
550.446,852.8
550.988,854.7
551.529,855.1
552.07,853.8
552.611,853.9
553.152,854.0
553.692,853.0
554.233,852.1
554.773,853.4
555.314,852.3
555.854,856.6
556.394,857.9
556.934,855.1
557.474,854.1
558.014,856.3
558.553,853.8
559.093,856.3
559.632,853.8
560.172,857.0
560.711,858.1
561.25,857.5
561.789,857.3
562.328,856.9
562.867,857.3
563.406,861.9
563.944,863.3
564.483,865.8
565.021,863.5
565.559,861.9
566.098,868.1
566.636,864.1
567.174,861.3
567.711,861.1
568.249,860.3
568.787,865.4
569.324,864.4
569.862,862.3
570.399,866.1
570.936,866.8
571.474,873.8
572.011,870.5
572.548,866.9
573.084,866.8
573.621,868.9
574.158,868.2
574.694,867.1
575.231,868.7
575.767,870.2
576.303,883.5
576.84,876.1
577.376,876.5
577.912,870.7
578.447,868.6
578.983,870.6
579.519,871.5
580.054,873.3
580.59,872.0
581.125,872.9
581.661,873.7
582.196,874.9
582.731,873.6
583.266,877.2
583.801,880.9
584.336,878.5
584.87,882.2
585.405,879.3
585.94,883.4
586.474,885.6
587.008,884.5
587.543,888.1
588.077,890.0
588.611,889.3
589.145,892.3
589.679,895.3
590.213,896.5
590.747,899.4
591.28,900.4
591.814,907.3
592.347,906.1
592.881,911.6
593.414,912.7
593.947,921.1
594.48,928.8
595.014,935.1
595.547,939.7
596.079,944.6
596.612,954.8
597.145,959.0
597.678,969.0
598.21,981.9
598.743,994.0
599.275,993.1
599.807,1000.6
600.34,1002.4
600.872,1001.2
601.404,999.1
601.936,1004.3
602.468,1002.2
603.0,993.9
603.532,992.1
604.063,986.4
604.595,979.8
605.126,972.5
605.658,968.2
606.189,958.0
606.721,952.8
607.252,953.4
607.783,949.2
608.314,942.4
608.845,941.6
609.376,939.4
609.907,934.1
610.438,931.3
610.968,929.5
611.499,928.2
612.03,927.1
612.56,923.6
613.091,925.2
613.621,926.2
614.151,920.7
614.681,920.1
615.212,917.9
615.742,914.4
616.272,914.8
616.802,914.1
617.332,916.6
617.861,911.0
618.391,913.7
618.921,910.9
619.45,911.5
619.98,909.4
620.509,910.0
621.039,910.1
621.568,907.7
622.097,908.7
622.627,909.6
623.156,905.0
623.685,905.1
624.214,906.0
624.743,898.6
625.272,900.1
625.801,899.2
626.33,898.6
626.858,926.3
627.387,974.4
627.916,941.7
628.444,966.7
628.973,949.5
629.501,932.9
630.029,921.6
630.558,919.2
631.086,905.5
631.614,894.8
632.142,894.4
632.67,891.3
633.198,889.3
633.726,889.0
634.254,888.4
634.782,887.1
635.31,887.4
635.838,887.9
636.365,889.4
636.893,889.3
637.421,889.5
637.948,891.7
638.476,889.3
639.003,891.0
639.531,890.7
640.058,892.9
640.585,892.0
641.113,892.3
641.64,894.4
642.167,896.9
642.694,893.6
643.221,897.7
643.748,898.2
644.275,899.2
644.802,899.0
645.329,897.6
645.856,896.8
646.382,900.3
646.909,902.2
647.436,905.5
647.962,902.6
648.489,906.7
649.016,907.1
649.542,907.7
650.069,910.0
650.595,911.0
651.121,911.4
651.648,910.6
652.174,916.2
652.7,915.9
653.227,917.8
653.753,919.0
654.279,917.5
654.805,918.4
655.331,917.9
655.857,919.7
656.383,916.1
656.909,914.4
657.435,909.5
657.961,912.9
658.487,910.6
659.013,910.6
659.538,907.8
660.064,905.1
660.59,906.6
661.116,901.0
661.641,899.4
662.167,898.0
662.692,892.3
663.087,891.7