File: spectra/VLFR_06-PET_nobio_Raman_eeccc400.csv
nm,Intensity
528.65,1841.47
529.155,1841.83
529.66,1840.57
530.165,1842.53
530.67,1840.6
531.175,1842.47
531.68,1864.63
532.185,2840.5
532.69,1843.13
533.194,1845.93
533.699,2375.07
534.204,3657.53
534.708,3240.87
535.213,2895.67
535.717,2614.57
536.222,2458.7
536.726,2393.97
537.231,2358.53
537.735,2367.97
538.239,2388.63
538.743,2378.43
539.247,2413.23
539.751,2443.87
540.255,2432.43
540.759,2384.07
541.263,2379.37
541.767,2383.47
542.271,2391.73
542.775,2402.43
543.279,2406.63
543.782,2433.73
544.286,2433.27
544.789,2430.7
545.293,2441.6
545.796,2457.47
546.3,2464.17
546.803,2446.8
547.306,2437.57
547.81,2463.07
548.313,2476.13
548.816,2469.73
549.319,2477.97
549.822,2473.3
550.325,2522.17
550.828,2639.83
551.331,2508.13
551.834,2493.43
552.337,2502.1
552.839,2599.37
553.342,2507.2
553.844,2516.57
554.347,2516.67
554.849,2523.0
555.352,2578.93
555.854,2624.37
556.357,2685.13
556.859,2720.0
557.361,2956.33
557.863,2810.13
558.365,2738.7
558.867,2687.3
559.369,2586.7
559.871,2599.73
560.373,2601.5
560.875,2619.5
561.377,2631.73
561.878,2657.37
562.38,2651.57
562.881,2687.1
563.383,2703.37
563.884,2697.4
564.386,2715.87
564.887,2813.57
565.388,3001.9
565.89,3038.8
566.391,2851.27
566.892,2773.0
567.393,2862.13
567.894,2889.93
568.395,2815.17
568.896,2811.37
569.396,2836.6
569.897,2882.7
570.398,3073.6
570.898,3392.03
571.399,3576.5
571.9,3284.17
572.4,3048.07
572.9,2934.63
573.401,2956.53
573.901,3022.87
574.401,2963.0
574.901,3013.0
575.401,3115.6
575.901,3010.97
576.401,3111.87
576.901,3142.6
577.401,3037.23
577.901,3038.63
578.4,3036.27
578.9,3035.53
579.399,3080.77
579.899,3081.3
580.398,3117.5
580.898,3152.07
581.397,3271.2
581.896,4632.6
582.395,4326.4
582.895,3244.57
583.394,3203.47
583.893,3188.17
584.391,3175.2
584.89,3247.6
585.389,3668.0
585.888,4748.07
586.386,4072.17
586.885,3370.33
587.384,3240.23
587.882,3250.8
588.38,3212.87
588.879,3214.53
589.377,3241.23
589.875,3206.7
590.373,3233.7
590.871,3206.27
591.369,3218.53
591.867,3247.87
592.365,3258.6
592.863,3243.23
593.361,3232.17
593.858,3267.23
594.356,3263.03
594.853,3271.17
595.351,3288.3
595.848,3274.5
596.345,3331.47
596.843,3285.5
597.34,3277.2
597.837,3266.77
598.334,3294.77
598.831,3328.83
599.328,3309.67
599.824,3277.33
600.321,3266.63
600.818,3355.3
601.314,3347.23
601.811,3313.3
602.307,3317.23
602.804,3334.17
603.3,3336.8
603.796,3363.77
604.293,3330.73
604.789,3322.77
605.285,3352.77
605.781,3298.3
606.277,3341.93
606.772,3352.0
607.268,3382.2
607.764,3393.67
608.259,3372.4
608.755,3373.57
609.25,3387.1
609.746,3393.7
610.241,3364.2
610.736,3385.03
611.231,3383.33
611.727,3370.4
612.222,3416.1
612.716,3422.87
613.211,3418.1
613.706,3419.57
614.201,3435.17
614.695,3451.23
615.19,3442.77
615.684,3461.2
616.179,3478.77
616.673,3484.57
617.168,3516.27
617.662,3479.07
618.156,3490.9
618.65,3539.93
619.144,3510.97
619.638,3437.63
620.131,3524.6
620.625,3537.3
621.119,3487.1
621.612,3517.0
622.106,3544.9
622.599,3526.7
623.093,3582.8
623.586,3543.2
624.079,3581.2
624.572,3599.0
625.065,3671.37
625.558,3567.77
626.051,3565.8
626.544,3671.63
627.037,3610.47
627.529,3682.0
628.022,3638.07
628.514,3740.5
629.007,3731.13
629.499,3800.47
629.991,3754.3
630.483,3795.43
630.976,3966.67
631.468,4303.4
631.959,4261.73
632.451,4124.63
632.943,3992.93
633.435,3922.5
633.926,3958.43
634.418,3806.6
634.909,3779.23
635.401,3910.87
635.892,4061.0
636.383,4428.8
636.874,4195.3
637.365,3985.53
637.856,3778.9
638.347,3774.07
638.838,3798.13
639.329,3884.13
639.819,3754.87
640.31,3776.57
640.8,3781.27
641.291,3789.5
641.781,3746.43
642.271,3774.57
642.761,3765.2
643.251,3706.7
643.741,3778.03
644.231,3741.5
644.721,3760.77
645.211,3712.03
645.7,3812.63
646.19,3751.27
646.679,3709.33
647.169,3714.23
647.658,3712.93
648.147,3685.67
648.636,3742.37
649.125,3739.27
649.614,3657.37
650.103,3671.1
650.592,3719.3
651.08,3693.5
651.569,3647.63
652.058,3692.13
652.546,3593.9
653.034,3616.8
653.523,3622.17
654.011,3601.17
654.499,3597.77
654.987,3616.47
655.475,3510.83
655.963,3555.4
656.45,3538.17
656.938,3412.73
657.425,3502.1
657.913,3499.67
658.4,3446.33
658.888,3429.37
659.375,3371.5
659.862,3387.43
660.349,3329.0
660.836,3330.53
661.079,3324.4