File: spectra/VLFR_08-PLA_bio_Raman_b3eaa2af.csv
nm,Intensity
528.65,1845.65
529.155,1844.6
529.66,1844.25
530.165,1844.9
530.67,1844.4
531.175,1846.0
531.68,1857.1
532.185,2581.7
532.69,1845.45
533.194,1845.45
533.699,1960.65
534.204,2207.55
534.708,2168.95
535.213,2169.95
535.717,2144.7
536.222,2117.45
536.726,2150.55
537.231,2122.65
537.735,2143.45
538.239,2119.65
538.743,2123.35
539.247,2144.3
539.751,2098.4
540.255,2122.25
540.759,2159.45
541.263,2146.3
541.767,2117.95
542.271,2134.5
542.775,2132.55
543.279,2179.1
543.782,2220.55
544.286,2173.9
544.789,2137.0
545.293,2137.05
545.796,2150.1
546.3,2140.85
546.803,2153.95
547.306,2153.75
547.81,2166.6
548.313,2175.1
548.816,2167.8
549.319,2179.9
549.822,2169.5
550.325,2176.5
550.828,2200.3
551.331,2204.9
551.834,2204.9
552.337,2227.1
552.839,2227.7
553.342,2219.8
553.844,2248.25
554.347,2227.1
554.849,2213.0
555.352,2193.9
555.854,2211.6
556.357,2227.7
556.859,2219.7
557.361,2246.5
557.863,2472.0
558.365,2389.75
558.867,2265.95
559.369,2246.95
559.871,2253.2
560.373,2234.35
560.875,2237.55
561.377,2240.9
561.878,2238.0
562.38,2234.95
562.881,2273.1
563.383,2345.65
563.884,2297.4
564.386,2288.15
564.887,2332.4
565.388,2338.7
565.89,2359.3
566.391,2393.25
566.892,2287.7
567.393,2278.55
567.894,2336.15
568.395,2308.5
568.896,2318.7
569.396,2308.15
569.897,2313.95
570.398,2338.3
570.898,2337.55
571.399,2391.0
571.9,2396.55
572.4,2362.9
572.9,2364.6
573.401,2367.4
573.901,2370.3
574.401,2395.6
574.901,2347.4
575.401,2345.1
575.901,2354.3
576.401,2443.3
576.901,2512.85
577.401,2370.65
577.901,2349.85
578.4,2328.9
578.9,2334.65
579.399,2341.65
579.899,2333.8
580.398,2344.6
580.898,2329.1
581.397,2326.7
581.896,2329.1
582.395,2328.35
582.895,2332.6
583.394,2339.85
583.893,2337.25
584.391,2341.55
584.89,2349.05
585.389,2331.3
585.888,2332.95
586.386,2340.65
586.885,2447.95
587.384,2515.85
587.882,2424.45
588.38,2349.95
588.879,2329.2
589.377,2323.35
589.875,2302.0
590.373,2321.35
590.871,2321.55
591.369,2324.65
591.867,2322.65
592.365,2336.25
592.863,2316.25
593.361,2308.45
593.858,2335.3
594.356,2316.75
594.853,2316.8
595.351,2321.85
595.848,2313.55
596.345,2319.65
596.843,2320.45
597.34,2319.75
597.837,2306.75
598.334,2326.85
598.831,2318.45
599.328,2337.9
599.824,2329.85
600.321,2317.5
600.818,2318.4
601.314,2322.15
601.811,2329.45
602.307,2323.55
602.804,2325.35
603.3,2313.8
603.796,2335.65
604.293,2325.7
604.789,2321.9
605.285,2316.45
605.781,2310.8
606.277,2319.75
606.772,2328.55
607.268,2307.9
607.764,2317.15
608.259,2327.9
608.755,2307.9
609.25,2318.9
609.746,2318.8
610.241,2312.9
610.736,2329.0
611.231,2328.4
611.727,2319.85
612.222,2315.6
612.716,2321.9
613.211,2308.9
613.706,2311.9
614.201,2296.9
614.695,2309.45
615.19,2308.6
615.684,2319.25
616.179,2297.95
616.673,2307.35
617.168,2297.65
617.662,2306.4
618.156,2308.7
618.65,2304.4
619.144,2298.5
619.638,2296.5
620.131,2299.6
620.625,2300.1
621.119,2300.4
621.612,2307.75
622.106,2295.1
622.599,2325.8
623.093,2337.25
623.586,2325.0
624.079,2326.6
624.572,2298.15
625.065,2290.9
625.558,2289.15
626.051,2277.6
626.544,2283.7
627.037,2277.4
627.529,2287.3
628.022,2369.3
628.514,2540.25
629.007,2479.9
629.499,2518.4
629.991,2477.1
630.483,2717.2
630.976,3736.85
631.468,3332.45
631.959,2751.55
632.451,2584.8
632.943,2768.1
633.435,2929.65
633.926,2650.6
634.418,2402.95
634.909,2303.55
635.401,2265.15
635.892,2258.05
636.383,2243.65
636.874,2241.25
637.365,2229.1
637.856,2236.05
638.347,2227.4
638.838,2224.25
639.329,2221.9
639.819,2208.4
640.31,2222.2
640.8,2212.65
641.291,2218.2
641.781,2204.65
642.271,2205.65
642.761,2208.95
643.251,2200.4
643.741,2185.2
644.231,2182.9
644.721,2176.85
645.211,2169.6
645.7,2162.3
646.19,2162.4
646.679,2162.35
647.169,2162.55
647.658,2159.35
648.147,2151.65
648.636,2145.3
649.125,2137.75
649.614,2135.95
650.103,2136.95
650.592,2123.15
651.08,2122.15
651.569,2138.25
652.058,2126.1
652.546,2118.3
653.034,2119.8
653.523,2117.75
654.011,2101.95
654.499,2110.15
654.987,2117.75
655.475,2103.7
655.963,2107.95
656.45,2095.9
656.938,2096.45
657.425,2090.95
657.913,2102.55
658.4,2081.0
658.888,2081.95
659.375,2069.05
659.862,2085.65
660.349,2070.75
660.836,2068.95
661.079,2066.6