File: spectra/VLFR_01-LDPE_nobio_Raman_a7d9c3f6.csv
nm,Intensity
526.486,829.2
527.033,828.4
527.579,829.0
528.126,828.5
528.672,828.6
529.219,830.0
529.765,829.6
530.311,830.7
530.857,829.9
531.403,829.4
531.948,831.1
532.494,830.2
533.039,829.3
533.585,829.3
534.13,900.3
534.675,893.0
535.22,881.2
535.764,869.0
536.309,862.7
536.854,858.4
537.398,859.3
537.942,857.2
538.486,857.0
539.03,854.8
539.574,853.2
540.118,853.4
540.662,852.5
541.205,850.6
541.749,848.1
542.292,847.8
542.835,849.8
543.378,850.2
543.921,849.6
544.464,845.9
545.006,849.1
545.549,845.8
546.091,844.8
546.634,846.0
547.176,847.8
547.718,847.0
548.26,845.2
548.802,846.5
549.343,845.0
549.885,846.7
550.426,844.8
550.968,844.3
551.509,844.0
552.05,844.1
552.591,845.5
553.132,845.9
553.673,846.7
554.214,847.1
554.754,846.7
555.295,847.4
555.835,850.5
556.375,849.7
556.915,855.0
557.455,853.4
557.995,857.3
558.535,856.2
559.075,854.4
559.614,854.3
560.154,853.5
560.693,852.8
561.232,852.1
561.772,854.1
562.311,854.1
562.85,857.2
563.388,863.0
563.927,898.9
564.466,879.3
565.004,872.8
565.543,866.0
566.081,906.6
566.619,870.7
567.157,862.8
567.695,868.1
568.233,861.4
568.771,862.4
569.309,862.7
569.846,865.1
570.384,868.6
570.921,876.4
571.458,936.1
571.995,904.1
572.532,880.7
573.069,875.9
573.606,878.8
574.143,886.6
574.68,884.5
575.216,889.5
575.753,924.4
576.289,1016.7
576.825,977.4
577.361,960.7
577.897,930.5
578.433,931.4
578.969,945.6
579.505,952.7
580.041,964.1
580.576,965.8
581.112,976.5
581.647,983.4
582.183,984.8
582.718,986.4
583.253,989.1
583.788,989.2
584.323,992.1
584.858,990.2
585.392,984.6
585.927,978.1
586.462,982.9
586.996,977.9
587.53,975.6
588.065,980.5
588.599,974.5
589.133,979.1
589.667,975.8
590.201,977.1
590.735,974.2
591.268,980.5
591.802,975.3
592.335,976.5
592.869,977.7
593.402,975.6
593.936,975.1
594.469,980.5
595.002,985.6
595.535,987.2
596.068,988.9
596.601,996.6
597.133,999.3
597.666,1007.8
598.199,1012.1
598.731,1014.2
599.264,1021.1
599.796,1026.3
600.328,1028.1
600.86,1024.5
601.393,1021.4
601.925,1021.0
602.457,1020.3
602.988,1014.9
603.52,1013.2
604.052,1005.5
604.583,997.9
605.115,988.9
605.646,980.6
606.178,973.9
606.709,966.6
607.24,962.4
607.771,959.6
608.302,949.3
608.833,951.2
609.364,944.4
609.895,941.1
610.426,943.7
610.957,936.2
611.487,936.9
612.018,934.8
612.548,929.7
613.078,932.1
613.609,929.3
614.139,924.7
614.669,926.8
615.199,922.3
615.729,923.6
616.259,923.2
616.789,922.9
617.319,925.1
617.849,928.3
618.378,930.2
618.908,928.5
619.437,933.4
619.967,927.2
620.496,932.6
621.025,937.0
621.555,951.8
622.084,973.5
622.613,974.9
623.142,948.0
623.671,940.7
624.2,936.5
624.729,941.0
625.258,942.0
625.786,954.9
626.315,982.9
626.844,1205.9
627.372,1722.9
627.901,1412.0
628.429,1603.1
628.957,1457.9
629.486,1349.2
630.014,1229.8
630.542,1214.8
631.07,1090.9
631.598,1006.3
632.126,984.1
632.654,970.1
633.182,964.6
633.71,961.9
634.237,957.9
634.765,955.3
635.293,952.9
635.82,950.3
636.348,946.5
636.875,944.6
637.403,939.3
637.93,937.6
638.458,935.6
638.985,932.9
639.512,931.7
640.039,926.3
640.566,931.3
641.093,931.0
641.62,928.6
642.147,927.7
642.674,921.6
643.201,923.5
643.728,923.4
644.255,920.9
644.781,924.4
645.308,919.0
645.835,916.4
646.361,918.9
646.888,922.1
647.414,913.5
647.941,919.1
648.467,922.0
648.993,917.9
649.52,918.7
650.046,915.4
650.572,920.5
651.098,917.2
651.625,915.8
652.151,921.5
652.677,919.7
653.203,923.9
653.729,921.1
654.255,920.9
654.78,917.7
655.306,914.3
655.832,915.1
656.358,912.0
656.884,914.9
657.409,911.7
657.935,908.4
658.461,908.0
658.986,907.0
659.512,903.3
660.037,898.3
660.563,902.4
661.088,896.5
661.614,895.6
662.139,890.8
662.664,888.5
663.058,888.3