File: spectra/VLFR_06-PET_bio_Raman_a47599f8.csv
nm,Intensity
526.549,832.95
527.096,832.4
527.643,832.05
528.19,832.35
528.737,832.25
529.283,832.55
529.83,831.85
530.376,831.45
530.922,831.25
531.468,831.4
532.014,843.85
532.559,832.95
533.105,831.3
533.65,848.6
534.196,1947.8
534.741,1644.65
535.286,1358.35
535.83,1187.65
536.375,1092.25
536.92,1052.7
537.464,1038.6
538.008,1036.15
538.553,1044.4
539.097,1039.45
539.641,1059.75
540.184,1064.3
540.728,1035.55
541.271,1025.1
541.815,1019.7
542.358,1024.3
542.901,1022.4
543.444,1023.95
543.987,1037.65
544.53,1034.05
545.072,1033.5
545.615,1033.95
546.157,1038.35
546.699,1038.9
547.242,1037.95
547.784,1038.0
548.325,1040.4
548.867,1041.25
549.409,1037.0
549.95,1040.6
550.492,1063.4
551.033,1056.25
551.574,1044.3
552.115,1048.75
552.656,1059.45
553.197,1062.75
553.737,1053.3
554.278,1052.15
554.818,1057.7
555.358,1069.05
555.899,1105.55
556.439,1113.65
556.979,1123.05
557.518,1259.15
558.058,1139.75
558.598,1137.3
559.137,1095.9
559.677,1078.1
560.216,1075.75
560.755,1080.85
561.294,1090.4
561.833,1091.8
562.372,1105.15
562.91,1119.45
563.449,1120.1
563.987,1114.75
564.526,1123.9
565.064,1170.9
565.602,1228.85
566.14,1215.1
566.678,1142.75
567.216,1127.85
567.754,1211.4
568.291,1142.2
568.829,1139.85
569.366,1149.65
569.904,1177.2
570.441,1234.25
570.978,1345.85
571.515,1429.75
572.052,1292.4
572.589,1204.55
573.125,1191.15
573.662,1194.45
574.199,1223.75
574.735,1207.8
575.271,1240.15
575.807,1218.65
576.344,1249.1
576.88,1263.65
577.415,1235.25
577.951,1226.15
578.487,1232.7
579.023,1237.15
579.558,1240.0
580.094,1249.75
580.629,1253.5
581.164,1274.35
581.699,1374.75
582.234,2439.7
582.769,1321.75
583.304,1293.05
583.839,1283.25
584.374,1295.45
584.908,1313.1
585.443,1424.25
585.977,1897.45
586.511,1628.85
587.046,1356.4
587.58,1319.95
588.114,1312.6
588.648,1315.2
589.182,1308.8
589.716,1303.65
590.249,1314.5
590.783,1316.65
591.316,1317.5
591.85,1320.25
592.383,1319.4
592.917,1312.4
593.45,1315.85
593.983,1321.0
594.516,1323.6
595.049,1330.85
595.582,1329.75
596.115,1329.05
596.647,1332.05
597.18,1336.55
597.712,1328.3
598.245,1343.15
598.777,1341.05
599.31,1338.05
599.842,1345.5
600.374,1343.45
600.906,1341.15
601.438,1343.1
601.97,1341.7
602.502,1339.5
603.034,1340.9
603.565,1344.75
604.097,1345.4
604.628,1341.95
605.16,1339.7
605.691,1331.55
606.223,1332.4
606.754,1330.35
607.285,1336.25
607.816,1334.35
608.347,1336.1
608.878,1342.1
609.409,1335.7
609.94,1346.95
610.47,1340.7
611.001,1329.35
611.532,1346.45
612.062,1353.5
612.593,1359.45
613.123,1369.35
613.653,1365.9
614.184,1364.65
614.714,1370.45
615.244,1373.35
615.774,1374.15
616.304,1375.15
616.834,1376.25
617.364,1381.65
617.894,1388.65
618.423,1398.35
618.953,1390.9
619.482,1398.1
620.012,1389.6
620.541,1386.6
621.071,1391.8
621.6,1394.4
622.13,1397.35
622.659,1409.4
623.188,1411.65
623.717,1416.1
624.246,1425.85
624.775,1431.6
625.304,1433.1
625.833,1432.65
626.362,1434.45
626.89,1439.05
627.419,1440.6
627.948,1452.25
628.476,1464.5
629.005,1491.4
629.533,1492.8
630.061,1489.0
630.59,1502.65
631.118,1567.0
631.646,1696.8
632.175,1669.8
632.703,1602.25
633.231,1595.65
633.759,1564.05
634.287,1546.25
634.815,1537.25
635.342,1553.45
635.87,1620.05
636.398,1744.8
636.926,1719.85
637.453,1597.45
637.981,1573.6
638.509,1563.8
639.036,1568.3
639.563,1567.55
640.091,1581.6
640.618,1579.8
641.146,1583.1
641.673,1592.8
642.2,1604.55
642.727,1593.85
643.254,1594.4
643.781,1587.2
644.309,1595.75
644.836,1591.1
645.362,1590.65
645.889,1592.95
646.416,1600.55
646.943,1605.3
647.47,1619.05
647.997,1607.25
648.523,1613.95
649.05,1617.15
649.577,1614.95
650.103,1610.9
650.63,1610.15
651.156,1613.05
651.683,1621.2
652.209,1625.15
652.735,1625.45
653.262,1624.65
653.788,1626.1
654.314,1629.4
654.841,1632.85
655.367,1624.65
655.893,1628.55
656.419,1624.6
656.945,1634.0
657.471,1633.25
657.997,1627.95
658.523,1634.2
659.049,1631.0
659.575,1636.8
660.101,1640.2
660.627,1640.55
661.153,1628.0
661.679,1616.1
662.205,1617.75
662.731,1621.45
663.125,1621.05