File: spectra/VLFR_06-PET_nobio_Raman_187be051.csv
cm-1,Intensity
-123.878,1858.2
-105.821,1858.3
-87.8007,1858.4
-69.8161,1856.95
-51.8675,1857.6
-33.9547,1859.15
-16.0776,1876.7
1.76388,2729.45
19.5698,1860.2
37.3403,1864.85
55.0755,2599.95
72.7754,4381.65
90.4402,3938.0
108.07,3585.3
125.665,3277.85
143.225,3132.7
160.75,3054.05
178.241,3019.9
195.697,3114.3
213.119,3109.65
230.506,3130.9
247.859,3155.2
265.178,3227.65
282.463,3170.1
299.713,3172.9
316.93,3146.4
334.113,3173.35
351.263,3218.7
368.379,3240.5
385.461,3262.45
402.51,3283.75
419.526,3263.35
436.508,3317.45
453.458,3303.15
470.374,3377.85
487.257,3364.2
504.107,3360.4
520.925,3370.55
537.71,3411.45
554.462,3459.05
571.182,3463.8
587.87,3440.85
604.525,3476.8
621.148,3544.5
637.739,3633.55
654.297,3598.25
670.824,3600.0
687.319,3592.25
703.782,3702.4
720.213,3623.25
736.613,3669.3
752.981,3726.9
769.317,3719.25
785.623,3870.35
801.897,3903.75
818.139,3960.3
834.351,3980.65
850.532,4226.1
866.681,4117.25
882.8,4049.8
898.888,4003.6
914.945,3951.3
930.972,4050.55
946.968,3989.0
962.934,4091.8
978.869,4109.7
994.774,4141.15
1010.65,4176.3
1026.49,4228.05
1042.31,4219.55
1058.09,4231.6
1073.85,4309.3
1089.57,4388.45
1105.27,4474.05
1120.93,4554.0
1136.57,4371.9
1152.18,4336.25
1167.75,4400.5
1183.3,4455.0
1198.82,4390.2
1214.31,4407.3
1229.77,4434.65
1245.2,4529.35
1260.6,4673.95
1275.97,4889.65
1291.32,5032.15
1306.63,4844.95
1321.92,4701.1
1337.18,4552.8
1352.41,4605.25
1367.61,4664.55
1382.78,4644.35
1397.93,4659.75
1413.05,4772.25
1428.14,4736.35
1443.2,4836.3
1458.23,4816.35
1473.23,4803.85
1488.21,4757.05
1503.16,4782.2
1518.08,4737.6
1532.97,4850.45
1547.84,4882.55
1562.68,4921.3
1577.49,5033.55
1592.27,5051.9
1607.03,6167.6
1621.76,5771.2
1636.46,4980.6
1651.14,5034.15
1665.78,5034.5
1680.41,5029.3
1695.0,5085.3
1709.57,5305.55
1724.11,6161.05
1738.62,5793.05
1753.11,5219.3
1767.57,5152.35
1782.01,5116.15
1796.41,5160.15
1810.8,5206.55
1825.15,5161.3
1839.48,5181.15
1853.79,5139.4
1868.06,5186.85
1882.31,5226.75
1896.54,5255.4
1910.74,5317.1
1924.91,5254.75
1939.06,5238.9
1953.19,5395.35
1967.28,5238.7
1981.35,5294.2
1995.4,5328.65
2009.42,5344.4
2023.42,5402.25
2037.39,5465.8
2051.33,5410.35
2065.25,5434.05
2079.15,5410.75
2093.01,5433.25
2106.86,5465.3
2120.68,5418.0
2134.47,5452.15
2148.24,5404.8
2161.99,5451.5
2175.71,5499.5
2189.41,5505.25
2203.08,5553.25
2216.73,5497.45
2230.35,5519.0
2243.95,5495.85
2257.52,5535.55
2271.07,5449.9
2284.6,5505.3
2298.1,5447.0
2311.58,5549.5
2325.03,5472.55
2338.46,5469.85
2351.87,5596.5
2365.25,5577.9
2378.61,5548.2
2391.94,5561.8
2405.26,5659.2
2418.54,5623.8
2431.81,5569.65
2445.05,5621.65
2458.27,5589.6
2471.46,5578.85
2484.63,5599.75
2497.78,5590.1
2510.9,5579.25
2524.0,5661.4
2537.08,5592.65
2550.14,5685.0
2563.17,5676.1
2576.18,5606.5
2589.17,5704.5
2602.13,5679.4
2615.07,5654.3
2627.99,5680.45
2640.89,5706.55
2653.76,5683.0
2666.61,5733.7
2679.44,5633.7
2692.25,5689.6
2705.03,5753.5
2717.79,5726.4
2730.53,5616.5
2743.25,5727.5
2755.94,5790.6
2768.61,5828.4
2781.27,5816.8
2793.89,5797.8
2806.5,5660.85
2819.09,5804.95
2831.65,5777.8
2844.19,5776.3
2856.71,5794.5
2869.21,5858.25
2881.69,5802.8
2894.14,5951.1
2906.58,5910.35
2918.99,5961.95
2931.38,5830.55
2943.75,6079.4
2956.1,6283.7
2968.42,6280.3
2980.73,6044.2
2993.01,6107.5
3005.28,6158.75
3017.52,6026.0
3029.74,6031.5
3041.94,5963.65
3054.12,6063.1
3066.28,6068.8
3078.42,6344.2
3090.54,6284.4
3102.63,6179.45
3114.71,6139.45
3126.77,6007.75
3138.8,6059.6
3150.82,6006.9
3162.81,5995.55
3174.78,5984.55
3186.74,5991.8
3198.67,6044.0
3210.58,5908.6
3222.47,5992.55
3234.35,6066.1
3246.2,5903.4
3258.03,6038.2
3269.84,6064.65
3281.64,5938.3
3293.41,6033.95
3305.16,5955.2
3316.89,5889.1
3328.61,5938.4
3340.3,5880.1
3351.97,5943.2
3363.63,5828.3
3375.26,5847.6
3386.88,5838.55
3398.47,5819.8
3410.05,5719.2
3421.6,5806.5
3433.14,5728.9
3444.66,5845.65
3456.15,5792.2
3467.63,5679.95
3479.09,5714.95
3490.53,5769.15
3501.96,5651.1
3513.36,5612.65
3524.74,5533.95
3536.11,5627.6
3547.45,5530.05
3558.78,5555.15
3570.09,5475.5
3581.37,5451.8
3592.64,5423.4
3603.9,5416.65
3615.13,5474.25
3626.34,5170.95
3637.54,5194.5
3648.72,5229.45
3659.87,5265.3
3665.45,5209.25