File: spectra/VLFR_07-PET_bio_Raman_b94410af.csv
nm,Intensity
791.588,9640.4
792.685,9226.3
793.781,9005.8
794.878,8980.9
795.975,8851.4
797.071,8827.4
798.168,8795.8
799.264,8734.2
800.36,8743.0
801.456,8713.1
802.552,8722.6
803.648,8630.2
804.744,8508.2
805.84,8555.9
806.936,8528.9
808.031,8445.1
809.127,8467.3
810.222,8345.0
811.317,8295.8
812.412,8389.6
813.507,8258.5
814.602,8169.7
815.697,8086.2
816.792,8019.7
817.887,7993.9
818.981,7921.8
820.076,7906.7
821.17,7789.0
822.265,7741.7
823.359,7680.5
824.453,7575.2
825.547,7672.3
826.641,7523.2
827.735,7471.3
828.828,7377.9
829.922,7355.5
831.016,7413.4
832.109,7256.6
833.202,7185.6
834.295,7184.1
835.388,7065.7
836.481,7093.3
837.574,7075.7
838.667,7089.9
839.76,6996.2
840.852,7096.6
841.945,7135.2
843.037,6940.1
844.129,6908.0
845.221,6730.9
846.314,6729.8
847.405,6640.8
848.497,6646.4
849.589,6583.7
850.68,6531.2
851.772,6540.0
852.863,6491.0
853.955,6506.1
855.046,6480.7
856.137,6409.9
857.228,6370.1
858.318,6465.3
859.409,6431.0
860.5,6456.6
861.59,6292.3
862.681,6257.5
863.771,6226.9
864.861,6232.9
865.951,6147.2
867.041,6133.4
868.131,6072.0
869.22,6118.4
870.31,6098.6
871.399,6237.0
872.488,6234.4
873.578,6184.9
874.667,6083.1
875.756,6003.0
876.845,5950.3
877.933,5881.6
879.022,5817.9
880.11,5818.9
881.199,5770.0
882.287,5803.1
883.375,5781.9
884.463,5726.0
885.551,5755.8
886.639,5727.4
887.726,5629.6
888.814,5576.9
889.901,5609.0
890.988,5570.2
892.075,5532.6
893.162,5476.7
894.249,5470.2
895.336,5408.8
896.423,5418.4
897.509,5577.1
898.595,5752.8
899.682,5516.6
900.768,5312.0
901.854,5257.9
902.94,5209.7
904.025,5229.0
905.111,5190.4
906.196,5290.8
907.282,5363.9
908.367,5347.2
909.452,5226.6
910.537,5068.6
911.622,5001.0
912.706,4970.2
913.791,4937.9
914.875,4925.9
915.959,4869.5
917.044,4832.4
918.128,4827.4
919.211,4799.8
920.295,4772.3
921.379,4742.6
922.462,4704.6
923.546,4695.2
924.629,4652.8
925.712,4632.5
926.795,4622.0
927.877,4579.3
928.96,4541.7
930.043,4546.4
931.125,4492.7
932.207,4479.7
933.289,4449.4
934.371,4442.1
935.453,4420.3
936.535,4407.7
937.616,4363.7
938.697,4347.7
939.779,4322.5
940.86,4322.5
941.941,4289.5
943.022,4280.7
944.102,4254.2
945.183,4246.6
946.263,4235.2
947.343,4210.9
948.423,4201.0
949.503,4188.8
950.583,4157.7
951.663,4161.1
952.742,4137.0
953.822,4133.3
954.901,4101.7
955.98,4113.4
957.059,4101.9
958.137,4086.0
959.216,4068.1
960.294,4066.7
961.373,4052.5
962.451,4038.7
963.529,4024.6
964.607,4025.6
965.684,4017.5
966.762,4010.3
967.839,3994.8
968.917,3985.6
969.994,3978.3
971.071,3971.8
972.147,3967.5
973.224,3958.7
974.3,3960.5
975.377,3938.1
976.453,3930.5
977.529,3928.3
978.605,3923.7
979.68,3919.9
980.756,3916.7
981.831,3906.6
982.907,3897.5
983.982,3893.2
985.057,3885.6
986.131,3891.6
987.206,3879.1
988.28,3878.9
989.355,3875.6
990.429,3869.0
991.503,3863.3
992.576,3856.5
993.65,3855.2
994.723,3842.4
995.797,3847.0
996.87,3846.3
997.943,3843.0
999.016,3833.2
1000.09,3832.1
1001.16,3821.4
1002.23,3825.6
1003.31,3823.0
1004.38,3818.4
1005.45,3816.5
1006.52,3811.5
1007.59,3810.5
1008.66,3809.0
1009.73,3805.5
1010.81,3803.7
1011.88,3799.9
1012.95,3795.2
1014.02,3797.7
1015.09,3796.5
1016.16,3797.2
1017.23,3795.3
1018.3,3786.1
1019.37,3791.8
1020.44,3790.6
1021.51,3787.7
1022.58,3791.4
1023.64,3785.9
1024.71,3784.3
1025.78,3780.3
1026.85,3778.8
1027.92,3774.0
1028.99,3772.1
1030.05,3769.4
1031.12,3770.1
1032.19,3769.7
1033.26,3770.6
1034.32,3768.5
1035.39,3770.2
1036.46,3767.3
1037.52,3766.8
1038.59,3763.9
1039.66,3762.6
1040.72,3759.9
1041.79,3759.7
1042.86,3756.2
1043.92,3756.2
1044.99,3757.0
1046.05,3755.7
1047.12,3754.7
1048.18,3758.1
1049.25,3755.9
1050.31,3755.7
1051.37,3754.7
1052.44,3755.7
1053.5,3755.0
1054.57,3754.3
1055.63,3752.2
1056.69,3752.2
1057.76,3754.7
1058.82,3751.5
1059.88,3752.5
1060.95,3751.4
1062.01,3752.2
1063.07,3751.4
1064.13,3750.6
1065.19,3749.8
1066.26,3751.0
1067.32,3751.7
1068.11,3748.5