File: spectra/VLFR_01-LDPE_nobio_Raman_7d762772.csv
nm,Intensity
526.532,830.24
527.079,830.33
527.625,829.79
528.172,830.74
528.718,830.04
529.265,830.1
529.811,829.79
530.357,830.6
530.903,830.08
531.449,829.86
531.994,834.63
532.54,830.24
533.085,830.3
533.63,831.67
534.176,941.95
534.721,945.61
535.266,936.44
535.81,939.12
536.355,955.95
536.9,934.18
537.444,932.12
537.988,932.06
538.533,933.02
539.077,934.4
539.621,934.89
540.165,935.08
540.708,941.03
541.252,953.02
541.795,963.52
542.339,962.18
542.882,970.98
543.425,966.21
543.968,961.7
544.511,966.73
545.054,974.93
545.597,976.01
546.139,965.05
546.682,965.36
547.224,972.94
547.766,965.65
548.308,966.59
548.85,971.31
549.392,974.83
549.934,975.28
550.475,972.61
551.017,975.87
551.558,972.1
552.1,972.05
552.641,971.57
553.182,972.35
553.723,975.29
554.264,976.36
554.804,977.21
555.345,976.82
555.885,979.09
556.426,979.08
556.966,981.08
557.506,981.51
558.046,984.3
558.586,990.25
559.126,991.74
559.665,989.17
560.205,988.16
560.745,993.41
561.284,998.12
561.823,1003.9
562.362,998.99
562.901,1004.25
563.44,1012.78
563.979,1027.68
564.518,1039.25
565.056,1123.97
565.595,1065.14
566.133,1063.95
566.671,1031.3
567.21,1018.27
567.748,1009.16
568.285,1006.63
568.823,1009.32
569.361,1016.76
569.899,1023.59
570.436,1026.88
570.974,1024.13
571.511,1029.45
572.048,1028.25
572.585,1040.91
573.122,1056.9
573.659,1039.98
574.196,1050.05
574.733,1050.8
575.269,1041.73
575.806,1039.35
576.342,1028.75
576.878,1028.16
577.414,1032.08
577.951,1021.99
578.486,1018.62
579.022,1020.2
579.558,1020.15
580.094,1018.16
580.629,1019.44
581.165,1029.65
581.7,1071.57
582.236,1043.83
582.771,1034.25
583.306,1020.59
583.841,1017.75
584.376,1016.73
584.911,1018.21
585.445,1020.05
585.98,1019.85
586.514,1019.72
587.049,1020.3
587.583,1019.82
588.117,1019.26
588.651,1017.25
589.186,1015.61
589.72,1016.75
590.253,1019.06
590.787,1021.73
591.321,1022.5
591.854,1021.56
592.388,1023.4
592.921,1024.27
593.455,1024.19
593.988,1025.01
594.521,1023.24
595.054,1024.96
595.587,1025.3
596.12,1029.78
596.653,1029.23
597.186,1030.23
597.718,1031.44
598.251,1035.67
598.783,1039.38
599.316,1041.83
599.848,1040.01
600.38,1040.53
600.912,1041.65
601.444,1040.44
601.976,1037.86
602.508,1039.19
603.04,1042.3
603.572,1043.34
604.103,1044.55
604.635,1045.97
605.167,1043.29
605.698,1045.07
606.229,1046.99
606.761,1048.44
607.292,1050.47
607.823,1053.27
608.354,1055.04
608.885,1053.22
609.416,1052.79
609.947,1053.09
610.477,1051.39
611.008,1053.68
611.539,1055.99
612.069,1058.86
612.6,1068.17
613.13,1072.2
613.66,1074.54
614.19,1077.7
614.721,1078.8
615.251,1080.94
615.781,1077.46
616.311,1077.67
616.841,1077.05
617.37,1074.82
617.9,1078.51
618.43,1079.55
618.96,1081.28
619.489,1084.91
620.019,1086.76
620.548,1089.77
621.077,1093.1
621.607,1098.58
622.136,1102.69
622.665,1106.46
623.194,1104.99
623.723,1101.98
624.252,1104.24
624.781,1101.32
625.31,1099.27
625.839,1105.49
626.368,1111.97
626.896,1126.57
627.425,1149.79
627.953,1168.43
628.482,1204.44
629.01,1235.85
629.539,1235.77
630.067,1208.57
630.596,1192.32
631.124,1189.88
631.652,1177.17
632.18,1163.92
632.708,1126.2
633.236,1110.3
633.764,1099.09
634.292,1092.93
634.82,1094.18
635.348,1094.57
635.876,1097.7
636.403,1102.7
636.931,1103.75
637.459,1107.33
637.986,1107.45
638.514,1112.09
639.041,1109.12
639.568,1108.17
640.096,1106.64
640.623,1104.24
641.15,1102.85
641.678,1101.85
642.205,1101.34
642.732,1102.23
643.259,1105.33
643.786,1110.8
644.313,1122.84
644.84,1133.52
645.367,1141.21
645.894,1143.06
646.421,1140.14
646.948,1146.38
647.474,1154.01
648.001,1152.22
648.528,1152.37
649.054,1144.74
649.581,1135.19
650.108,1132.03
650.634,1129.29
651.161,1125.77
651.687,1126.49
652.214,1128.2
652.74,1127.41
653.266,1124.53
653.793,1126.84
654.319,1127.08
654.845,1125.35
655.371,1124.95
655.897,1124.54
656.424,1119.66
656.95,1123.76
657.476,1122.75
658.002,1118.66
658.528,1119.03
659.054,1114.19
659.58,1113.9
660.106,1113.66
660.631,1114.56
661.157,1112.16
661.683,1112.28
662.209,1111.25
662.735,1116.22
663.129,1115.95