File: spectra/VLFR_01-LDPE_nobio_Raman_37022192.csv
nm,Intensity
526.508,831.85
527.055,829.65
527.602,830.85
528.149,830.75
528.695,829.45
529.241,829.75
529.787,830.15
530.334,830.45
530.879,830.15
531.425,829.95
531.971,833.65
532.516,831.6
533.062,830.5
533.607,831.2
534.152,884.7
534.697,875.25
535.242,865.45
535.786,855.6
536.331,855.9
536.876,851.7
537.42,851.25
537.964,850.2
538.508,848.95
539.052,847.3
539.596,844.35
540.14,845.85
540.683,845.9
541.227,844.1
541.77,842.35
542.313,842.0
542.856,842.35
543.399,841.6
543.942,841.7
544.485,840.6
545.027,841.05
545.57,842.1
546.112,840.15
546.654,840.4
547.196,840.55
547.738,840.7
548.28,840.1
548.822,838.8
549.363,840.1
549.905,841.35
550.446,840.6
550.988,840.5
551.529,839.7
552.07,840.3
552.611,840.05
553.152,841.2
553.692,842.6
554.233,843.05
554.773,844.0
555.314,844.15
555.854,843.15
556.394,844.9
556.934,847.65
557.474,849.3
558.014,849.4
558.553,852.05
559.093,850.9
559.632,849.4
560.172,848.6
560.711,849.5
561.25,850.5
561.789,852.55
562.328,854.15
562.867,855.8
563.406,859.0
563.944,893.0
564.483,872.25
565.021,867.45
565.559,868.05
566.098,910.0
566.636,870.15
567.174,866.35
567.711,867.8
568.249,866.6
568.787,866.7
569.324,870.05
569.862,873.4
570.399,875.55
570.936,884.4
571.474,940.2
572.011,905.15
572.548,893.05
573.084,892.55
573.621,897.25
574.158,906.0
574.694,905.95
575.231,913.4
575.767,945.15
576.303,1001.75
576.84,983.2
577.376,976.35
577.912,965.3
578.447,975.55
578.983,990.95
579.519,999.35
580.054,1012.6
580.59,1027.1
581.125,1040.85
581.661,1055.75
582.196,1070.15
582.731,1082.25
583.266,1096.1
583.801,1107.9
584.336,1129.8
584.87,1141.65
585.405,1157.0
585.94,1174.4
586.474,1195.95
587.008,1219.3
587.543,1240.55
588.077,1262.0
588.611,1283.25
589.145,1306.9
589.679,1324.45
590.213,1352.1
590.747,1371.65
591.28,1389.1
591.814,1402.75
592.347,1411.9
592.881,1421.35
593.414,1427.9
593.947,1438.1
594.48,1448.2
595.014,1458.05
595.547,1462.75
596.079,1479.85
596.612,1482.45
597.145,1497.35
597.678,1513.3
598.21,1529.8
598.743,1541.75
599.275,1554.45
599.807,1556.85
600.34,1556.1
600.872,1548.05
601.404,1539.2
601.936,1529.9
602.468,1530.2
603.0,1511.4
603.532,1501.05
604.063,1477.95
604.595,1448.7
605.126,1417.1
605.658,1373.35
606.189,1360.5
606.721,1337.2
607.252,1316.6
607.783,1308.25
608.314,1286.3
608.845,1271.2
609.376,1257.9
609.907,1243.25
610.438,1230.9
610.968,1221.35
611.499,1212.75
612.03,1199.55
612.56,1192.85
613.091,1190.6
613.621,1185.0
614.151,1177.0
614.681,1160.7
615.212,1159.1
615.742,1147.7
616.272,1138.35
616.802,1135.1
617.332,1131.2
617.861,1122.55
618.391,1116.5
618.921,1111.35
619.45,1104.6
619.98,1102.35
620.509,1097.8
621.039,1098.1
621.568,1096.05
622.097,1103.95
622.627,1100.8
623.156,1085.4
623.685,1086.2
624.214,1080.55
624.743,1077.45
625.272,1079.35
625.801,1079.9
626.33,1089.3
626.858,1204.05
627.387,1411.95
627.916,1286.05
628.444,1383.7
628.973,1318.05
629.501,1262.15
630.029,1215.3
630.558,1205.85
631.086,1140.1
631.614,1105.7
632.142,1094.95
632.67,1090.1
633.198,1088.05
633.726,1092.6
634.254,1090.65
634.782,1092.7
635.31,1091.55
635.838,1102.85
636.365,1104.0
636.893,1108.6
637.421,1112.65
637.948,1120.3
638.476,1119.6
639.003,1127.05
639.531,1130.05
640.058,1141.55
640.585,1141.6
641.113,1147.15
641.64,1150.2
642.167,1157.35
642.694,1158.4
643.221,1157.0
643.748,1163.85
644.275,1162.7
644.802,1165.95
645.329,1170.15
645.856,1167.85
646.382,1169.0
646.909,1176.1
647.436,1174.6
647.962,1174.45
648.489,1175.1
649.016,1171.85
649.542,1175.0
650.069,1169.65
650.595,1165.05
651.121,1167.4
651.648,1166.35
652.174,1170.85
652.7,1168.55
653.227,1168.25
653.753,1169.75
654.279,1170.35
654.805,1163.3
655.331,1163.85
655.857,1157.4
656.383,1155.1
656.909,1150.55
657.435,1146.0
657.961,1140.85
658.487,1136.2
659.013,1125.15
659.538,1114.35
660.064,1109.75
660.59,1096.55
661.116,1081.2
661.641,1069.5
662.167,1065.75
662.692,1055.15
663.087,1050.25