File: spectra/VLFR_07-PET_bio_Raman_3b6282a1.csv
nm,Intensity
791.588,9442.5
792.685,9001.4
793.781,8762.3
794.878,8500.4
795.975,8521.6
797.071,8466.0
798.168,8478.1
799.264,8411.8
800.36,8350.0
801.456,8415.9
802.552,8469.2
803.648,8344.8
804.744,8259.7
805.84,8218.3
806.936,8127.7
808.031,8109.2
809.127,8064.6
810.222,8034.8
811.317,7986.0
812.412,7832.8
813.507,7860.9
814.602,7716.9
815.697,7715.7
816.792,7629.6
817.887,7553.7
818.981,7512.5
820.076,7536.1
821.17,7480.3
822.265,7308.3
823.359,7317.1
824.453,7307.8
825.547,7335.2
826.641,7233.7
827.735,7062.9
828.828,7097.9
829.922,7056.4
831.016,7042.2
832.109,6931.8
833.202,6853.7
834.295,6847.8
835.388,6757.7
836.481,6811.0
837.574,6790.8
838.667,6652.5
839.76,6725.5
840.852,6762.0
841.945,6758.1
843.037,6590.2
844.129,6528.2
845.221,6419.6
846.314,6351.3
847.405,6351.7
848.497,6285.9
849.589,6189.2
850.68,6213.3
851.772,6188.2
852.863,6182.7
853.955,6092.2
855.046,6086.0
856.137,6063.0
857.228,5997.9
858.318,6018.1
859.409,6043.1
860.5,6024.3
861.59,5970.9
862.681,5893.4
863.771,5887.9
864.861,5855.5
865.951,5784.0
867.041,5728.0
868.131,5693.2
869.22,5719.4
870.31,5712.9
871.399,5744.8
872.488,5852.9
873.578,5772.0
874.667,5719.8
875.756,5642.2
876.845,5580.5
877.933,5569.8
879.022,5476.5
880.11,5452.6
881.199,5423.0
882.287,5438.4
883.375,5403.6
884.463,5403.2
885.551,5352.9
886.639,5394.8
887.726,5336.5
888.814,5261.7
889.901,5295.8
890.988,5237.1
892.075,5235.4
893.162,5169.9
894.249,5135.0
895.336,5136.7
896.423,5111.0
897.509,5212.6
898.595,5349.8
899.682,5171.6
900.768,5013.9
901.854,4965.1
902.94,4927.4
904.025,4930.3
905.111,4933.0
906.196,4954.8
907.282,5037.9
908.367,5060.1
909.452,4913.4
910.537,4800.0
911.622,4750.3
912.706,4728.1
913.791,4717.6
914.875,4696.3
915.959,4648.9
917.044,4622.8
918.128,4598.6
919.211,4613.5
920.295,4561.2
921.379,4561.5
922.462,4510.1
923.546,4508.1
924.629,4464.6
925.712,4451.1
926.795,4421.8
927.877,4403.6
928.96,4373.9
930.043,4362.7
931.125,4332.8
932.207,4322.5
933.289,4266.4
934.371,4287.9
935.453,4258.0
936.535,4252.8
937.616,4225.8
938.697,4206.3
939.779,4204.0
940.86,4176.7
941.941,4169.9
943.022,4150.9
944.102,4147.6
945.183,4136.5
946.263,4110.8
947.343,4103.5
948.423,4100.3
949.503,4079.9
950.583,4067.6
951.663,4058.5
952.742,4057.9
953.822,4026.9
954.901,4026.7
955.98,4020.3
957.059,4017.5
958.137,4001.6
959.216,3994.7
960.294,3987.6
961.373,3988.0
962.451,3978.7
963.529,3960.8
964.607,3955.5
965.684,3948.1
966.762,3944.1
967.839,3938.0
968.917,3937.9
969.994,3920.9
971.071,3921.9
972.147,3914.6
973.224,3917.1
974.3,3907.3
975.377,3895.8
976.453,3887.6
977.529,3882.3
978.605,3888.3
979.68,3880.6
980.756,3874.7
981.831,3869.6
982.907,3867.5
983.982,3865.1
985.057,3854.5
986.131,3858.9
987.206,3849.2
988.28,3846.2
989.355,3845.8
990.429,3846.4
991.503,3836.4
992.576,3836.4
993.65,3831.2
994.723,3826.6
995.797,3826.6
996.87,3825.1
997.943,3816.4
999.016,3823.8
1000.09,3819.2
1001.16,3812.8
1002.23,3813.7
1003.31,3804.0
1004.38,3806.7
1005.45,3803.9
1006.52,3797.5
1007.59,3798.8
1008.66,3797.1
1009.73,3796.7
1010.81,3792.3
1011.88,3791.2
1012.95,3790.8
1014.02,3790.1
1015.09,3785.9
1016.16,3783.8
1017.23,3783.9
1018.3,3781.3
1019.37,3778.5
1020.44,3784.3
1021.51,3781.5
1022.58,3780.7
1023.64,3779.8
1024.71,3777.1
1025.78,3777.5
1026.85,3771.9
1027.92,3770.5
1028.99,3769.4
1030.05,3766.1
1031.12,3765.7
1032.19,3765.3
1033.26,3766.5
1034.32,3766.1
1035.39,3766.7
1036.46,3763.9
1037.52,3765.0
1038.59,3762.0
1039.66,3761.8
1040.72,3761.0
1041.79,3759.4
1042.86,3760.6
1043.92,3758.8
1044.99,3757.7
1046.05,3757.2
1047.12,3757.9
1048.18,3755.2
1049.25,3754.9
1050.31,3754.7
1051.37,3755.8
1052.44,3754.4
1053.5,3756.1
1054.57,3753.6
1055.63,3755.6
1056.69,3752.9
1057.76,3754.7
1058.82,3753.7
1059.88,3752.4
1060.95,3754.4
1062.01,3754.0
1063.07,3753.3
1064.13,3752.4
1065.19,3751.7
1066.26,3752.7
1067.32,3753.9
1068.11,3753.4