File: spectra/VLFR_09-PET_bio_Raman_444f1bf8.csv
nm,Intensity
526.508,829.6
527.055,830.2
527.602,830.3
528.149,830.7
528.695,830.8
529.241,829.3
529.787,830.6
530.334,829.7
530.879,831.3
531.425,831.6
531.971,837.1
532.516,831.5
533.062,830.2
533.607,842.6
534.152,2223.4
534.697,2014.8
535.242,1765.4
535.786,1649.3
536.331,1558.3
536.876,1524.7
537.42,1488.7
537.964,1481.3
538.508,1477.6
539.052,1491.3
539.596,1514.5
540.14,1544.5
540.683,1514.7
541.227,1504.7
541.77,1512.6
542.313,1517.7
542.856,1530.4
543.399,1541.5
543.942,1549.2
544.485,1555.7
545.027,1575.2
545.57,1578.2
546.112,1576.2
546.654,1598.9
547.196,1605.2
547.738,1601.5
548.28,1617.5
548.822,1644.0
549.363,1639.3
549.905,1639.7
550.446,1678.4
550.988,1688.4
551.529,1656.0
552.07,1676.7
552.611,1693.9
553.152,1707.3
553.692,1711.5
554.233,1708.7
554.773,1727.1
555.314,1753.8
555.854,1790.3
556.394,1803.3
556.934,1822.0
557.474,2093.1
558.014,1941.6
558.553,1844.1
559.093,1810.0
559.632,1815.2
560.172,1819.5
560.711,1831.2
561.25,1856.2
561.789,1901.1
562.328,1963.5
562.867,1908.1
563.406,1914.0
563.944,1914.2
564.483,1976.6
565.021,2194.7
565.559,2122.7
566.098,2102.1
566.636,2001.5
567.174,1948.0
567.711,2079.7
568.249,2020.6
568.787,1999.9
569.324,2023.8
569.862,2044.2
570.399,2124.8
570.936,2379.2
571.474,2775.8
572.011,2339.0
572.548,2137.5
573.084,2111.8
573.621,2111.6
574.158,2132.3
574.694,2130.5
575.231,2207.9
575.767,2209.3
576.303,2178.0
576.84,2220.8
577.376,2206.7
577.912,2170.5
578.447,2194.6
578.983,2196.7
579.519,2196.2
580.054,2193.9
580.59,2228.7
581.125,2267.5
581.661,2474.1
582.196,5243.1
582.731,2434.4
583.266,2308.6
583.801,2291.1
584.336,2308.2
584.87,2325.4
585.405,2461.8
585.94,3578.8
586.474,3111.7
587.008,2448.1
587.543,2364.9
588.077,2345.2
588.611,2343.7
589.145,2327.5
589.679,2330.5
590.213,2317.5
590.747,2340.6
591.28,2359.1
591.814,2347.4
592.347,2343.8
592.881,2360.9
593.414,2353.1
593.947,2367.5
594.48,2371.3
595.014,2377.7
595.547,2403.0
596.079,2406.4
596.612,2402.9
597.145,2421.8
597.678,2414.4
598.21,2440.1
598.743,2463.0
599.275,2449.5
599.807,2463.5
600.34,2445.0
600.872,2445.4
601.404,2447.5
601.936,2463.3
602.468,2474.2
603.0,2497.8
603.532,2498.4
604.063,2500.4
604.595,2526.2
605.126,2504.5
605.658,2499.5
606.189,2497.6
606.721,2505.8
607.252,2523.6
607.783,2538.2
608.314,2566.9
608.845,2580.4
609.376,2617.3
609.907,2617.5
610.438,2616.2
610.968,2620.3
611.499,2663.9
612.03,2681.9
612.56,2718.8
613.091,2753.0
613.621,2772.2
614.151,2798.7
614.681,2826.0
615.212,2826.7
615.742,2852.0
616.272,2853.9
616.802,2896.6
617.332,2940.5
617.861,2951.7
618.391,2988.2
618.921,3000.9
619.45,3006.8
619.98,3022.0
620.509,3013.0
621.039,3054.7
621.568,3083.0
622.097,3124.1
622.627,3137.3
623.156,3170.4
623.685,3223.8
624.214,3239.6
624.743,3260.2
625.272,3292.9
625.801,3316.4
626.33,3311.1
626.858,3335.0
627.387,3345.4
627.916,3372.1
628.444,3416.8
628.973,3451.5
629.501,3493.3
630.029,3539.6
630.558,3536.1
631.086,3589.8
631.614,3715.2
632.142,3766.5
632.67,3716.6
633.198,3681.7
633.726,3692.1
634.254,3661.0
634.782,3688.2
635.31,3722.6
635.838,3824.1
636.365,4039.1
636.893,4025.3
637.421,3838.3
637.948,3802.0
638.476,3809.2
639.003,3851.2
639.531,3855.7
640.058,3845.2
640.585,3882.0
641.113,3890.0
641.64,3923.2
642.167,3938.7
642.694,3928.7
643.221,3927.1
643.748,3928.2
644.275,3915.7
644.802,3902.4
645.329,3936.2
645.856,3930.2
646.382,3956.1
646.909,3981.1
647.436,3994.6
647.962,3989.5
648.489,4002.8
649.016,3986.2
649.542,3995.3
650.069,3986.6
650.595,3990.8
651.121,4000.9
651.648,4044.9
652.174,4029.7
652.7,4021.8
653.227,4045.8
653.753,4060.6
654.279,4073.7
654.805,4051.0
655.331,4080.9
655.857,4071.5
656.383,4074.8
656.909,4082.1
657.435,4105.7
657.961,4087.9
658.487,4113.3
659.013,4104.7
659.538,4133.9
660.064,4133.8
660.59,4137.6
661.116,4127.2
661.641,4105.1
662.167,4071.9
662.692,4103.9
663.087,4062.0