File: spectra/VLFR_02-HDPE_nobio_Raman_d016e62e.csv
nm,Intensity
526.5,828.8
527.047,830.3
527.594,828.6
528.14,829.0
528.687,829.4
529.233,829.2
529.779,829.9
530.325,829.3
530.871,830.0
531.417,828.9
531.962,834.5
532.508,829.3
533.053,828.7
533.599,831.0
534.144,928.4
534.689,920.8
535.234,913.1
535.778,911.9
536.323,908.8
536.867,903.6
537.412,900.3
537.956,901.3
538.5,897.0
539.044,890.4
539.588,890.2
540.132,887.0
540.675,886.0
541.219,887.9
541.762,886.2
542.305,885.5
542.848,886.5
543.391,884.2
543.934,884.7
544.477,885.7
545.02,880.2
545.562,882.2
546.105,882.5
546.647,884.0
547.189,881.8
547.731,886.0
548.273,880.5
548.815,885.2
549.356,880.6
549.898,879.9
550.439,879.9
550.981,882.6
551.522,885.8
552.063,882.2
552.604,884.8
553.145,883.1
553.686,884.1
554.226,883.6
554.767,884.3
555.307,886.2
555.848,885.9
556.388,888.5
556.928,889.9
557.468,897.1
558.008,896.2
558.547,896.6
559.087,900.5
559.626,902.6
560.166,907.0
560.705,908.7
561.244,912.1
561.783,914.1
562.322,921.4
562.861,922.8
563.4,931.3
563.939,970.7
564.477,947.5
565.015,948.4
565.554,955.7
566.092,1032.3
566.63,965.3
567.168,964.0
567.706,964.5
568.244,975.5
568.781,984.4
569.319,992.0
569.857,1000.7
570.394,1015.3
570.931,1029.2
571.468,1093.3
572.005,1059.3
572.542,1068.6
573.079,1082.4
573.616,1109.3
574.153,1127.5
574.689,1147.8
575.226,1180.4
575.762,1256.6
576.298,1283.0
576.834,1306.7
577.371,1353.1
577.907,1368.0
578.442,1426.2
578.978,1479.4
579.514,1526.6
580.049,1582.6
580.585,1636.6
581.12,1689.7
581.656,1757.2
582.191,1813.7
582.726,1879.2
583.261,1927.4
583.796,1963.6
584.331,2018.8
584.865,2058.3
585.4,2093.8
585.935,2149.4
586.469,2209.3
587.004,2229.1
587.538,2295.6
588.072,2305.0
588.606,2344.1
589.14,2361.6
589.674,2418.6
590.208,2463.7
590.742,2502.1
591.275,2535.3
591.809,2556.8
592.342,2575.9
592.876,2592.0
593.409,2592.6
593.942,2602.1
594.476,2600.7
595.009,2603.5
595.542,2601.1
596.075,2610.9
596.607,2590.5
597.14,2593.3
597.673,2596.9
598.205,2582.8
598.738,2597.8
599.27,2583.8
599.803,2568.0
600.335,2543.0
600.867,2541.0
601.399,2511.4
601.931,2505.8
602.463,2484.8
602.995,2447.8
603.527,2446.7
604.058,2401.2
604.59,2360.3
605.122,2319.1
605.653,2257.4
606.184,2206.1
606.716,2179.5
607.247,2152.6
607.778,2116.9
608.309,2098.5
608.84,2071.0
609.371,2038.3
609.902,1995.9
610.433,1963.7
610.964,1949.5
611.494,1918.6
612.025,1900.5
612.556,1883.4
613.086,1861.5
613.616,1855.6
614.147,1828.6
614.677,1812.8
615.207,1787.9
615.737,1762.8
616.267,1745.0
616.797,1724.0
617.327,1713.5
617.857,1717.1
618.387,1688.7
618.917,1671.6
619.446,1663.4
619.976,1655.4
620.505,1635.9
621.035,1625.1
621.564,1621.2
622.093,1614.8
622.623,1626.0
623.152,1619.7
623.681,1616.5
624.21,1617.5
624.739,1616.4
625.268,1610.3
625.797,1611.2
626.326,1618.1
626.855,1679.8
627.383,1808.6
627.912,1720.9
628.441,1767.1
628.969,1747.3
629.498,1744.4
630.026,1716.9
630.554,1716.3
631.083,1691.6
631.611,1687.8
632.139,1686.7
632.667,1693.9
633.195,1704.1
633.724,1713.7
634.252,1721.9
634.779,1710.0
635.307,1731.0
635.835,1754.1
636.363,1755.0
636.891,1765.1
637.418,1758.9
637.946,1779.7
638.474,1780.8
639.001,1797.7
639.529,1788.3
640.056,1793.7
640.583,1808.7
641.111,1825.1
641.638,1830.7
642.165,1843.6
642.692,1831.0
643.22,1829.4
643.747,1831.5
644.274,1827.5
644.801,1823.7
645.328,1824.8
645.854,1829.3
646.381,1816.6
646.908,1827.9
647.435,1834.0
647.962,1804.4
648.488,1806.7
649.015,1803.0
649.542,1795.1
650.068,1765.8
650.595,1763.0
651.121,1770.5
651.648,1749.3
652.174,1751.8
652.7,1741.8
653.227,1738.1
653.753,1745.0
654.279,1725.6
654.805,1717.2
655.331,1700.4
655.858,1695.5
656.384,1676.5
656.91,1661.6
657.436,1651.7
657.962,1641.9
658.488,1635.1
659.013,1601.7
659.539,1585.5
660.065,1577.0
660.591,1558.4
661.117,1535.8
661.642,1510.5
662.168,1486.4
662.694,1474.2
663.088,1464.4