File: spectra/VLFR_06-PET_bio_Raman_67d1c0ba.csv
nm,Intensity
528.626,1868.3
529.132,1868.4
529.637,1871.3
530.143,1870.5
530.648,1871.5
531.153,1872.4
531.658,1899.0
532.164,4326.1
532.669,1874.1
533.174,1889.0
533.679,3787.0
534.184,9876.5
534.689,7454.3
535.194,5562.5
535.699,4140.9
536.203,3374.8
536.708,3013.9
537.213,2888.8
537.717,2789.6
538.222,2827.2
538.726,2846.3
539.231,2858.9
539.735,3044.9
540.239,2891.8
540.744,2681.6
541.248,2549.2
541.752,2547.5
542.256,2554.1
542.76,2583.6
543.264,2564.0
543.768,2588.0
544.272,2574.6
544.776,2581.9
545.28,2583.5
545.784,2584.8
546.287,2603.9
546.791,2634.5
547.294,2654.6
547.798,2667.6
548.301,2666.3
548.805,2709.1
549.308,2702.5
549.811,2687.9
550.315,2861.5
550.818,3538.9
551.321,2819.0
551.824,2816.7
552.327,2829.8
552.83,3358.8
553.333,2904.2
553.835,2934.4
554.338,2914.3
554.841,2947.6
555.343,3199.6
555.846,3513.8
556.349,3583.3
556.851,3682.7
557.353,4621.3
557.856,4299.4
558.358,3874.2
558.86,3612.7
559.362,3248.0
559.864,3205.5
560.366,3218.6
560.868,3248.3
561.37,3276.9
561.872,3398.6
562.374,3451.9
562.876,3611.5
563.377,3544.5
563.879,3409.7
564.38,3500.1
564.882,3869.2
565.383,4415.2
565.885,4810.2
566.386,4005.3
566.887,3612.0
567.388,3896.9
567.889,4189.3
568.391,3616.0
568.892,3654.7
569.392,3719.0
569.893,3998.8
570.394,4561.2
570.895,5723.4
571.395,6766.3
571.896,5362.3
572.397,4404.5
572.897,4006.8
573.397,3954.7
573.898,4182.8
574.398,4097.2
574.898,4127.2
575.398,4493.6
575.898,4169.8
576.398,4442.4
576.898,4407.5
577.398,4212.8
577.898,4081.6
578.398,4159.3
578.897,4117.2
579.397,4109.4
579.896,4214.1
580.396,4305.2
580.895,4407.4
581.395,4717.3
581.894,9289.0
582.393,9710.7
582.892,4568.1
583.391,4464.3
583.89,4500.7
584.389,4562.9
584.888,4583.7
585.387,5763.0
585.886,10029.5
586.384,8057.1
586.883,5099.1
587.381,4645.0
587.88,4498.3
588.378,4497.2
588.876,4531.8
589.375,4416.7
589.873,4463.5
590.371,4479.2
590.869,4440.8
591.367,4500.8
591.865,4589.1
592.363,4540.4
592.86,4460.9
593.358,4474.6
593.856,4559.5
594.353,4577.0
594.851,4522.8
595.348,4595.7
595.845,4623.8
596.342,4577.7
596.84,4638.8
597.337,4631.6
597.834,4598.0
598.331,4623.7
598.828,4583.9
599.324,4601.3
599.821,4651.5
600.318,4662.2
600.814,4646.9
601.311,4705.7
601.807,4645.7
602.304,4621.9
602.8,4658.6
603.296,4754.7
603.792,4802.2
604.288,4753.9
604.784,4726.6
605.28,4718.5
605.776,4783.1
606.272,4750.5
606.767,4769.3
607.263,4761.7
607.759,4734.6
608.254,4724.0
608.749,4737.4
609.245,4813.0
609.74,4797.0
610.235,4860.2
610.73,4722.2
611.225,4798.7
611.72,4786.0
612.215,4872.3
612.71,4799.4
613.204,4839.2
613.699,4888.8
614.194,4923.4
614.688,4882.8
615.182,4914.4
615.677,4943.9
616.171,4820.8
616.665,5006.6
617.159,4991.6
617.653,5132.9
618.147,5046.6
618.641,5070.3
619.135,5000.5
619.628,5121.8
620.122,4954.6
620.615,5014.6
621.109,5056.3
621.602,5066.0
622.095,5000.5
622.589,5047.6
623.082,5163.1
623.575,5057.0
624.068,5158.0
624.561,5287.0
625.053,5175.6
625.546,5234.7
626.039,5217.9
626.531,5168.6
627.024,5158.5
627.516,5316.2
628.008,5328.5
628.501,5584.6
628.993,5637.9
629.485,5668.5
629.977,5591.7
630.469,5608.4
630.96,6017.5
631.452,7158.1
631.944,7158.3
632.435,6653.5
632.927,6397.3
633.418,6259.6
633.91,6133.4
634.401,5865.5
634.892,5872.5
635.383,5955.7
635.874,6589.3
636.365,7509.9
636.856,7060.7
637.346,6374.9
637.837,5913.6
638.327,5884.3
638.818,5791.8
639.308,5856.5
639.799,5823.9
640.289,5903.0
640.779,5738.6
641.269,5764.8
641.759,5840.7
642.249,5912.3
642.738,6001.0
643.228,5842.0
643.718,5847.2
644.207,5881.1
644.697,5811.2
645.186,5820.5
645.675,5839.1
646.164,5932.9
646.653,5887.2
647.142,5831.4
647.631,5960.9
648.12,5856.4
648.609,5801.8
649.098,5934.9
649.586,5868.9
650.075,5800.2
650.563,5819.9
651.051,5691.8
651.539,5764.9
652.027,5746.6
652.515,5624.1
653.003,5660.5
653.491,5571.2
653.979,5533.3
654.467,5497.2
654.954,5501.7
655.442,5550.0
655.929,5451.8
656.416,5508.2
656.904,5350.7
657.391,5253.0
657.878,5241.8
658.365,5236.3
658.851,5183.9
659.338,5167.3
659.825,5091.3
660.311,5010.2
660.798,5065.8
661.041,5068.7