File: spectra/VLFR_01-LDPE_nobio_Raman_e6c4c421.csv
nm,Intensity
526.532,830.05
527.079,830.375
527.625,829.525
528.172,830.65
528.718,829.825
529.265,830.075
529.811,829.475
530.357,830.35
530.903,830.575
531.449,830.025
531.994,837.075
532.54,830.375
533.085,830.15
533.63,830.825
534.176,855.625
534.721,853.7
535.266,849.825
535.81,846.325
536.355,844.35
536.9,843.325
537.444,843.75
537.988,842.7
538.533,842.95
539.077,846.625
539.621,843.8
540.165,842.25
540.708,842.85
541.252,845.5
541.795,846.775
542.339,846.975
542.882,849.575
543.425,847.4
543.968,845.175
544.511,846.5
545.054,847.2
545.597,846.5
546.139,844.525
546.682,846.0
547.224,848.2
547.766,845.575
548.308,842.15
548.85,842.875
549.392,842.825
549.934,842.35
550.475,841.6
551.017,841.675
551.558,842.2
552.1,841.5
552.641,841.0
553.182,841.0
553.723,841.25
554.264,840.35
554.804,840.9
555.345,841.075
555.885,840.95
556.426,840.5
556.966,841.125
557.506,840.7
558.046,842.4
558.586,842.95
559.126,843.65
559.665,842.475
560.205,841.7
560.745,843.0
561.284,842.95
561.823,844.425
562.362,844.175
562.901,845.7
563.44,847.725
563.979,856.825
564.518,855.475
565.056,867.9
565.595,859.35
566.133,869.8
566.671,852.725
567.21,847.8
567.748,845.4
568.285,843.875
568.823,844.575
569.361,844.85
569.899,846.275
570.436,847.375
570.974,849.475
571.511,864.525
572.048,854.275
572.585,853.7
573.122,853.25
573.659,850.95
574.196,854.725
574.733,853.275
575.269,851.45
575.806,856.05
576.342,861.675
576.878,857.45
577.414,854.025
577.951,848.9
578.486,848.25
579.022,848.575
579.558,847.425
580.094,849.275
580.629,848.975
581.165,850.05
581.7,849.375
582.236,852.075
582.771,851.3
583.306,852.55
583.841,853.05
584.376,853.95
584.911,854.85
585.445,855.425
585.98,856.55
586.514,858.575
587.049,858.8
587.583,859.625
588.117,862.5
588.651,863.6
589.186,864.325
589.72,866.4
590.253,867.3
590.787,868.75
591.321,871.225
591.854,871.975
592.388,873.925
592.921,876.35
593.455,876.6
593.988,878.425
594.521,881.75
595.054,885.05
595.587,888.375
596.12,890.175
596.653,893.575
597.186,896.05
597.718,899.4
598.251,903.75
598.783,906.875
599.316,909.375
599.848,912.1
600.38,913.0
600.912,914.8
601.444,914.15
601.976,913.7
602.508,911.6
603.04,911.4
603.572,908.0
604.103,905.225
604.635,903.45
605.167,899.9
605.698,895.275
606.229,892.9
606.761,889.875
607.292,888.8
607.823,884.125
608.354,884.375
608.885,882.5
609.416,882.225
609.947,879.75
610.477,879.425
611.008,875.35
611.539,876.75
612.069,875.2
612.6,874.325
613.13,874.1
613.66,873.15
614.19,871.425
614.721,870.775
615.251,870.1
615.781,869.35
616.311,868.375
616.841,868.075
617.37,867.875
617.9,866.425
618.43,866.2
618.96,866.125
619.489,866.325
620.019,866.6
620.548,863.1
621.077,865.225
621.607,865.8
622.136,867.55
622.665,868.375
623.194,865.475
623.723,865.0
624.252,864.2
624.781,864.45
625.31,864.525
625.839,866.85
626.368,869.1
626.896,891.4
627.425,931.175
627.953,912.825
628.482,940.1
629.01,937.025
629.539,924.9
630.067,911.7
630.596,904.15
631.124,886.425
631.652,874.875
632.18,870.375
632.708,864.6
633.236,861.625
633.764,860.15
634.292,857.875
634.82,856.8
635.348,857.025
635.876,858.1
636.403,857.175
636.931,857.05
637.459,856.3
637.986,857.075
638.514,856.725
639.041,857.475
639.568,857.9
640.096,858.425
640.623,858.95
641.15,858.775
641.678,860.7
642.205,862.25
642.732,862.525
643.259,863.525
643.786,862.55
644.313,864.25
644.84,866.175
645.367,865.325
645.894,868.45
646.421,866.15
646.948,869.525
647.474,870.725
648.001,870.9
648.528,871.125
649.054,870.425
649.581,872.125
650.108,873.925
650.634,872.725
651.161,872.15
651.687,872.875
652.214,873.775
652.74,872.575
653.266,873.325
653.793,873.6
654.319,873.125
654.845,874.2
655.371,873.275
655.897,871.975
656.424,870.65
656.95,870.875
657.476,870.35
658.002,869.1
658.528,867.4
659.054,867.975
659.58,866.425
660.106,864.975
660.631,863.325
661.157,861.25
661.683,861.6
662.209,859.15
662.735,858.7
663.129,855.625