File: spectra/VLFR_02-HDPE_bio_Raman_ce26a838.csv
nm,Intensity
526.494,834.4
527.041,834.6
527.588,834.4
528.135,833.1
528.682,834.0
529.229,835.9
529.775,834.0
530.321,835.4
530.868,835.2
531.414,833.3
531.96,845.2
532.506,836.5
533.051,834.6
533.597,835.8
534.142,912.3
534.687,915.6
535.232,912.0
535.777,880.7
536.322,872.0
536.867,867.3
537.411,865.1
537.956,866.0
538.5,864.3
539.044,862.5
539.588,858.3
540.132,857.7
540.676,859.5
541.22,855.1
541.763,858.9
542.306,856.3
542.85,858.2
543.393,858.0
543.936,856.8
544.479,855.6
545.021,856.6
545.564,855.4
546.106,857.6
546.649,855.9
547.191,857.6
547.733,856.5
548.275,855.1
548.817,856.3
549.359,855.7
549.9,857.3
550.442,855.2
550.983,856.2
551.524,857.4
552.066,857.0
552.607,857.5
553.148,859.0
553.688,860.6
554.229,859.5
554.77,860.7
555.31,860.5
555.85,863.0
556.39,861.7
556.931,862.8
557.471,866.1
558.01,863.8
558.55,865.9
559.09,864.9
559.629,865.5
560.169,865.1
560.708,864.5
561.247,865.2
561.786,866.8
562.325,865.4
562.864,869.7
563.403,871.2
563.941,960.2
564.48,885.5
565.018,881.5
565.557,875.9
566.095,924.9
566.633,878.3
567.171,875.3
567.709,882.3
568.247,869.9
568.784,869.5
569.322,868.8
569.859,872.3
570.397,874.0
570.934,881.6
571.471,1009.3
572.008,898.2
572.545,880.4
573.082,876.8
573.619,877.3
574.155,880.1
574.692,870.3
575.228,874.3
575.765,912.8
576.301,1032.3
576.837,961.3
577.373,935.1
577.909,887.1
578.445,880.6
578.981,882.1
579.516,883.9
580.052,878.1
580.587,884.9
581.123,882.8
581.658,884.1
582.193,883.4
582.728,887.1
583.263,891.2
583.798,891.9
584.333,896.3
584.868,898.8
585.402,900.0
585.937,903.9
586.471,913.2
587.005,912.1
587.54,921.1
588.074,923.7
588.608,927.4
589.142,935.4
589.676,939.6
590.21,944.9
590.743,951.3
591.277,954.7
591.81,958.3
592.344,963.4
592.877,962.3
593.411,969.5
593.944,967.2
594.477,966.5
595.01,971.7
595.543,970.3
596.076,969.7
596.608,968.3
597.141,971.4
597.674,962.4
598.206,961.8
598.739,962.0
599.271,957.9
599.803,958.9
600.335,952.5
600.868,955.1
601.4,949.8
601.931,953.1
602.463,951.2
602.995,943.5
603.527,946.6
604.058,947.8
604.59,939.6
605.121,943.1
605.653,937.2
606.184,938.1
606.715,933.2
607.246,937.8
607.778,935.7
608.309,936.1
608.839,935.6
609.37,936.0
609.901,936.0
610.432,935.1
610.962,940.9
611.493,938.9
612.023,940.7
612.554,940.4
613.084,940.6
613.614,940.0
614.145,939.5
614.675,939.2
615.205,940.9
615.735,942.2
616.265,946.4
616.795,944.6
617.324,953.6
617.854,957.2
618.384,956.3
618.913,948.7
619.443,954.4
619.972,956.3
620.502,954.8
621.031,960.2
621.56,980.9
622.089,1020.8
622.618,1013.1
623.147,964.9
623.676,952.5
624.205,949.8
624.734,948.1
625.263,949.6
625.792,957.1
626.32,1003.0
626.849,1402.7
627.377,2010.7
627.906,1570.7
628.434,1982.7
628.963,1481.8
629.491,1360.8
630.019,1216.5
630.547,1183.4
631.076,1053.3
631.604,963.6
632.132,942.2
632.66,939.5
633.188,937.3
633.715,926.2
634.243,924.5
634.771,927.5
635.299,922.7
635.826,919.3
636.354,924.5
636.881,919.4
637.409,918.0
637.936,916.3
638.464,917.3
638.991,916.9
639.518,919.9
640.045,914.5
640.573,919.1
641.1,919.2
641.627,918.0
642.154,921.4
642.681,922.1
643.208,920.9
643.735,919.5
644.261,922.2
644.788,918.4
645.315,916.5
645.842,919.1
646.368,921.4
646.895,917.1
647.421,921.4
647.948,923.2
648.474,919.9
649.001,918.6
649.527,920.8
650.054,917.0
650.58,917.1
651.106,917.6
651.633,917.1
652.159,911.5
652.685,912.8
653.211,908.8
653.737,905.7
654.263,904.5
654.789,908.1
655.315,902.6
655.841,904.1
656.367,898.7
656.893,901.9
657.419,900.4
657.945,902.9
658.47,901.6
658.996,897.9
659.522,900.0
660.047,903.0
660.573,900.9
661.099,895.6
661.624,900.8
662.15,897.3
662.675,896.5
663.07,891.0