File: spectra/VLFR_08-PLA_bio_Raman_818b6d48.csv
nm,Intensity
526.495,829.667
527.042,830.0
527.589,829.067
528.136,830.433
528.682,830.333
529.229,829.4
529.775,829.367
530.321,829.5
530.867,828.733
531.413,829.7
531.959,831.3
532.505,829.7
533.051,828.6
533.596,830.367
534.141,898.933
534.687,889.6
535.232,879.5
535.777,874.367
536.321,872.167
536.866,873.933
537.41,869.733
537.955,869.967
538.499,866.733
539.043,868.7
539.587,866.867
540.131,866.833
540.675,871.467
541.219,872.7
541.762,871.833
542.305,870.4
542.849,871.667
543.392,878.8
543.935,878.8
544.478,874.533
545.02,872.2
545.563,871.8
546.106,871.4
546.648,871.033
547.19,874.633
547.732,873.433
548.274,874.767
548.816,873.467
549.358,873.433
549.9,875.4
550.441,874.1
550.983,874.767
551.524,876.967
552.065,877.333
552.606,877.533
553.147,877.2
553.688,877.267
554.229,879.8
554.769,878.3
555.31,875.967
555.85,876.533
556.391,876.267
556.931,877.9
557.471,882.833
558.011,916.667
558.551,888.467
559.09,883.967
559.63,880.667
560.169,882.567
560.709,881.5
561.248,881.367
561.787,881.6
562.326,882.667
562.865,885.6
563.404,894.3
563.943,890.133
564.481,889.0
565.02,898.967
565.558,895.267
566.096,904.767
566.634,892.0
567.172,885.633
567.71,884.867
568.248,886.733
568.786,888.367
569.324,887.233
569.861,887.233
570.399,887.8
570.936,888.867
571.473,891.8
572.01,894.067
572.547,892.233
573.084,894.6
573.621,892.933
574.158,895.2
574.694,899.867
575.231,891.867
575.767,891.333
576.303,896.3
576.84,911.167
577.376,898.533
577.912,892.2
578.448,889.367
578.984,889.9
579.519,890.633
580.055,890.033
580.59,890.667
581.126,890.433
581.661,892.267
582.196,891.633
582.731,891.7
583.267,893.667
583.801,893.4
584.336,893.233
584.871,892.3
585.406,893.567
585.94,891.433
586.475,898.333
587.009,907.7
587.543,914.233
588.078,899.933
588.612,893.067
589.146,892.533
589.68,894.333
590.214,893.267
590.747,893.933
591.281,895.433
591.815,893.733
592.348,893.8
592.881,893.533
593.415,893.8
593.948,893.1
594.481,891.633
595.014,893.333
595.547,892.967
596.08,894.5
596.613,893.833
597.146,894.933
597.678,894.867
598.211,894.3
598.743,894.8
599.276,894.433
599.808,895.567
600.34,894.667
600.872,894.233
601.404,894.0
601.936,893.333
602.468,892.1
603.0,894.2
603.532,890.7
604.064,893.9
604.595,892.4
605.127,891.467
605.658,890.867
606.189,889.0
606.721,890.6
607.252,891.367
607.783,888.933
608.314,891.667
608.845,890.5
609.376,891.633
609.907,890.367
610.438,890.733
610.968,890.367
611.499,890.0
612.029,889.8
612.56,890.233
613.09,890.933
613.621,892.3
614.151,891.5
614.681,889.033
615.211,891.3
615.741,891.7
616.271,890.4
616.801,890.533
617.331,888.767
617.861,891.233
618.39,890.933
618.92,889.267
619.45,889.267
619.979,889.9
620.509,890.633
621.038,889.733
621.567,889.8
622.096,891.0
622.626,893.7
623.155,895.233
623.684,893.767
624.213,892.8
624.742,891.433
625.271,890.833
625.799,890.467
626.328,892.367
626.857,893.6
627.386,894.333
627.914,901.0
628.443,925.567
628.971,923.433
629.5,923.133
630.028,919.667
630.556,938.333
631.084,1056.63
631.613,974.0
632.141,935.633
632.669,926.167
633.197,953.567
633.725,940.667
634.253,909.1
634.781,893.967
635.308,888.0
635.836,886.7
636.364,885.567
636.891,885.167
637.419,885.833
637.947,884.567
638.474,882.433
639.002,884.267
639.529,883.067
640.056,881.1
640.584,885.367
641.111,883.067
641.638,884.267
642.165,885.367
642.692,884.067
643.219,884.133
643.746,882.067
644.273,882.133
644.8,879.033
645.327,881.2
645.854,881.033
646.381,880.133
646.908,881.067
647.434,882.3
647.961,881.3
648.488,880.867
649.014,880.567
649.541,878.333
650.067,878.5
650.594,877.767
651.12,877.033
651.646,877.3
652.173,876.533
652.699,877.367
653.225,875.033
653.752,876.5
654.278,873.633
654.804,876.967
655.33,875.767
655.856,874.9
656.382,874.267
656.908,873.567
657.434,871.867
657.96,873.233
658.486,873.5
659.012,871.533
659.538,871.267
660.064,872.333
660.589,871.0
661.115,872.467
661.641,870.167
662.166,869.3
662.692,868.733
663.086,868.0