File: spectra/VLFR_08-PLA_bio_Raman_c8e467a2.csv
nm,Intensity
528.626,1865.05
529.132,1865.15
529.637,1865.65
530.143,1865.6
530.648,1865.4
531.153,1866.45
531.658,1890.2
532.164,4579.0
532.669,1868.5
533.174,1867.7
533.679,2071.35
534.184,3054.55
534.689,3036.95
535.194,3032.7
535.699,3041.75
536.203,3002.65
536.708,2980.1
537.213,2987.7
537.717,3030.7
538.222,3034.55
538.726,3037.8
539.231,3067.15
539.735,3099.7
540.239,3106.7
540.744,3188.45
541.248,3189.9
541.752,3186.5
542.256,3238.75
542.76,3283.25
543.264,3312.65
543.768,3386.9
544.272,3388.0
544.776,3376.15
545.28,3380.35
545.784,3435.85
546.287,3459.95
546.791,3479.65
547.294,3498.95
547.798,3483.25
548.301,3529.55
548.805,3568.45
549.308,3563.2
549.811,3617.55
550.315,3563.75
550.818,3629.8
551.321,3624.65
551.824,3653.2
552.327,3657.8
552.83,3637.6
553.333,3638.4
553.835,3701.8
554.338,3695.15
554.841,3668.45
555.343,3674.9
555.846,3694.9
556.349,3688.6
556.851,3691.65
557.353,3699.65
557.856,3901.7
558.358,3870.65
558.86,3707.0
559.362,3707.85
559.864,3693.85
560.366,3717.05
560.868,3705.05
561.37,3704.0
561.872,3678.8
562.374,3691.95
562.876,3692.05
563.377,3768.0
563.879,3663.9
564.38,3650.65
564.882,3691.5
565.383,3671.25
565.885,3700.1
566.386,3717.15
566.887,3616.95
567.388,3563.8
567.889,3605.2
568.391,3578.45
568.892,3612.05
569.392,3588.05
569.893,3596.95
570.394,3579.2
570.895,3569.2
571.395,3662.35
571.896,3640.1
572.397,3580.1
572.897,3572.85
573.397,3532.05
573.898,3546.6
574.398,3531.4
574.898,3501.25
575.398,3470.6
575.898,3528.7
576.398,3594.55
576.898,3661.2
577.398,3504.95
577.898,3395.45
578.398,3394.4
578.897,3385.55
579.397,3414.45
579.896,3384.9
580.396,3396.2
580.895,3391.95
581.395,3400.45
581.894,3415.45
582.393,3375.8
582.892,3340.9
583.391,3376.0
583.89,3360.65
584.389,3346.5
584.888,3319.7
585.387,3315.0
585.886,3291.5
586.384,3277.45
586.883,3336.25
587.381,3436.4
587.88,3364.25
588.378,3283.4
588.876,3234.05
589.375,3226.9
589.873,3214.75
590.371,3208.3
590.869,3215.2
591.367,3202.25
591.865,3217.1
592.363,3179.7
592.86,3195.45
593.358,3166.75
593.856,3168.6
594.353,3159.55
594.851,3148.3
595.348,3177.3
595.845,3166.4
596.342,3146.5
596.84,3167.9
597.337,3183.15
597.834,3160.7
598.331,3129.4
598.828,3179.85
599.324,3152.25
599.821,3119.1
600.318,3157.25
600.814,3131.65
601.311,3123.9
601.807,3113.5
602.304,3115.2
602.8,3117.35
603.296,3125.8
603.792,3122.85
604.288,3120.55
604.784,3117.35
605.28,3110.6
605.776,3078.6
606.272,3095.85
606.767,3074.7
607.263,3085.5
607.759,3054.0
608.254,3071.7
608.749,3040.25
609.245,3073.0
609.74,3041.55
610.235,3059.7
610.73,3065.6
611.225,3037.1
611.72,3072.1
612.215,3045.6
612.71,3023.55
613.204,3036.5
613.699,3007.55
614.194,3034.7
614.688,2993.05
615.182,3013.25
615.677,3021.4
616.171,3021.0
616.665,2992.6
617.159,2979.95
617.653,3013.1
618.147,2974.1
618.641,2979.1
619.135,2964.85
619.628,2987.5
620.122,2965.65
620.615,2954.05
621.109,2931.95
621.602,2943.05
622.095,2950.95
622.589,2944.2
623.082,2978.55
623.575,2920.45
624.068,2932.8
624.561,2925.05
625.053,2898.7
625.546,2897.3
626.039,2886.6
626.531,2869.75
627.024,2943.0
627.516,2973.35
628.008,3037.95
628.501,3173.2
628.993,3135.0
629.485,3148.55
629.977,3126.6
630.469,3256.95
630.96,3874.7
631.452,3724.85
631.944,3247.75
632.435,3110.05
632.927,3206.35
633.418,3314.1
633.91,3112.5
634.401,2890.8
634.892,2848.75
635.383,2814.35
635.874,2776.5
636.365,2769.6
636.856,2755.6
637.346,2756.95
637.837,2743.9
638.327,2738.75
638.818,2707.7
639.308,2707.9
639.799,2693.05
640.289,2722.55
640.779,2701.0
641.269,2701.15
641.759,2698.8
642.249,2688.45
642.738,2660.7
643.228,2664.0
643.718,2643.75
644.207,2664.6
644.697,2654.75
645.186,2642.6
645.675,2653.75
646.164,2637.6
646.653,2620.25
647.142,2605.4
647.631,2599.25
648.12,2599.0
648.609,2570.05
649.098,2554.3
649.586,2576.6
650.075,2568.85
650.563,2549.8
651.051,2534.0
651.539,2524.4
652.027,2521.2
652.515,2537.95
653.003,2500.0
653.491,2485.65
653.979,2480.35
654.467,2490.45
654.954,2475.65
655.442,2455.2
655.929,2442.95
656.416,2441.2
656.904,2432.1
657.391,2437.4
657.878,2442.6
658.365,2413.1
658.851,2414.75
659.338,2395.55
659.825,2398.8
660.311,2384.75
660.798,2370.25
661.041,2371.65