File: spectra/VLFR_07-PET_bio_Raman_d6062487.csv
nm,Intensity
791.75,7909.45
792.846,7802.4
793.942,7706.15
795.037,7640.25
796.133,7603.55
797.228,7608.2
798.324,7501.55
799.419,7531.9
800.514,7541.1
801.61,7510.3
802.705,7492.65
803.8,7414.85
804.894,7335.15
805.989,7333.15
807.084,7327.55
808.178,7244.2
809.273,7211.6
810.367,7206.25
811.461,7080.5
812.556,7154.8
813.65,7020.25
814.744,7033.0
815.837,6890.8
816.931,6899.05
818.025,6777.45
819.118,6866.45
820.212,6752.25
821.305,6756.5
822.398,6743.6
823.491,6618.5
824.585,6633.55
825.677,6644.85
826.77,6642.95
827.863,6520.3
828.956,6457.45
830.048,6456.05
831.14,6405.6
832.233,6361.3
833.325,6306.15
834.417,6301.65
835.509,6200.4
836.601,6252.5
837.692,6295.7
838.784,6207.85
839.876,6219.0
840.967,6243.7
842.058,6197.3
843.149,6142.15
844.24,6077.95
845.331,6022.35
846.422,5980.8
847.513,5965.25
848.604,5926.15
849.694,5920.85
850.784,5898.0
851.875,5871.8
852.965,5873.85
854.055,5841.25
855.145,5808.75
856.235,5802.6
857.324,5782.6
858.414,5809.05
859.503,5793.35
860.593,5824.2
861.682,5697.85
862.771,5699.95
863.86,5711.9
864.949,5722.25
866.038,5643.3
867.126,5598.4
868.215,5583.9
869.303,5605.3
870.391,5636.35
871.479,5659.85
872.567,5688.05
873.655,5644.8
874.743,5576.45
875.831,5520.3
876.918,5497.35
878.006,5469.75
879.093,5437.3
880.18,5401.45
881.267,5397.6
882.354,5434.7
883.441,5377.2
884.527,5346.5
885.614,5296.75
886.7,5292.45
887.786,5258.45
888.872,5207.6
889.958,5227.25
891.044,5195.7
892.13,5139.7
893.216,5138.65
894.301,5084.9
895.386,5062.65
896.472,5060.7
897.557,5178.25
898.642,5209.6
899.726,5090.8
900.811,4929.75
901.896,4889.25
902.98,4911.9
904.064,4904.85
905.148,4881.45
906.232,4910.2
907.316,4984.55
908.4,4953.9
909.484,4847.4
910.567,4744.95
911.65,4738.95
912.734,4686.25
913.817,4638.6
914.9,4619.55
915.982,4630.95
917.065,4613.95
918.147,4583.85
919.23,4572.6
920.312,4553.8
921.394,4535.9
922.476,4501.45
923.558,4481.65
924.639,4468.65
925.721,4455.8
926.802,4412.75
927.884,4410.95
928.965,4373.45
930.046,4368.15
931.126,4336.1
932.207,4315.8
933.288,4290.1
934.368,4298.4
935.448,4280.35
936.528,4235.45
937.608,4234.2
938.688,4225.4
939.767,4209.75
940.847,4199.7
941.926,4187.35
943.005,4163.8
944.084,4162.8
945.163,4148.85
946.242,4133.5
947.321,4132.6
948.399,4106.0
949.477,4102.6
950.556,4092.35
951.634,4078.1
952.711,4064.3
953.789,4059.65
954.867,4052.5
955.944,4047.55
957.021,4033.55
958.098,4028.0
959.175,4008.35
960.252,4009.95
961.328,4003.6
962.405,3997.6
963.481,3981.0
964.557,3979.75
965.633,3977.5
966.709,3967.4
967.785,3962.25
968.86,3954.25
969.936,3948.75
971.011,3948.0
972.086,3930.35
973.161,3926.85
974.235,3923.45
975.31,3915.6
976.384,3912.15
977.459,3900.5
978.533,3904.35
979.607,3898.15
980.68,3891.8
981.754,3885.3
982.827,3881.9
983.901,3877.75
984.974,3870.45
986.047,3871.6
987.119,3871.1
988.192,3869.3
989.264,3859.95
990.337,3852.8
991.409,3849.15
992.481,3846.15
993.553,3843.3
994.624,3835.9
995.696,3835.95
996.767,3833.75
997.838,3823.95
998.909,3826.8
999.98,3823.95
1001.05,3820.3
1002.12,3815.8
1003.19,3817.15
1004.26,3808.95
1005.33,3811.1
1006.4,3806.15
1007.47,3802.0
1008.54,3798.75
1009.61,3796.9
1010.68,3793.45
1011.75,3792.95
1012.82,3790.8
1013.88,3789.75
1014.95,3788.05
1016.02,3786.4
1017.09,3784.6
1018.16,3782.1
1019.22,3780.25
1020.29,3779.5
1021.36,3780.1
1022.43,3781.35
1023.49,3780.65
1024.56,3777.75
1025.63,3773.15
1026.69,3771.7
1027.76,3769.15
1028.83,3766.05
1029.89,3764.05
1030.96,3763.4
1032.02,3762.3
1033.09,3763.85
1034.15,3763.95
1035.22,3762.65
1036.28,3762.1
1037.35,3760.15
1038.41,3758.7
1039.48,3757.95
1040.54,3754.95
1041.6,3753.85
1042.67,3752.1
1043.73,3751.6
1044.79,3751.75
1045.86,3752.6
1046.92,3751.65
1047.98,3750.9
1049.05,3750.35
1050.11,3750.65
1051.17,3748.2
1052.23,3751.05
1053.29,3748.95
1054.36,3749.1
1055.42,3749.1
1056.48,3747.3
1057.54,3748.3
1058.6,3747.25
1059.66,3747.7
1060.72,3747.6
1061.78,3747.35
1062.84,3745.2
1063.9,3746.4
1064.96,3745.5
1066.02,3745.05
1067.08,3745.2
1067.88,3743.85