File: spectra/VLFR_07-PET_bio_Raman_889bb726.csv
nm,Intensity
791.75,9528.4
792.846,9146.65
793.942,8957.0
795.037,8855.6
796.133,8811.6
797.228,8805.35
798.324,8868.5
799.419,8806.95
800.514,8752.15
801.61,8711.75
802.705,8663.9
803.8,8643.1
804.894,8538.0
805.989,8585.9
807.084,8515.4
808.178,8528.7
809.273,8375.7
810.367,8325.45
811.461,8395.5
812.556,8243.0
813.65,8176.6
814.744,8052.75
815.837,8031.1
816.931,7900.15
818.025,7896.5
819.118,7742.55
820.212,7903.8
821.305,7804.2
822.398,7674.75
823.491,7583.55
824.585,7539.05
825.677,7639.45
826.77,7386.95
827.863,7354.85
828.956,7368.7
830.048,7267.0
831.14,7262.9
832.233,7178.95
833.325,7116.75
834.417,7073.9
835.509,7086.1
836.601,7033.45
837.692,7026.7
838.784,6994.75
839.876,7007.15
840.967,7114.1
842.058,7009.3
843.149,6917.15
844.24,6788.85
845.331,6720.3
846.422,6667.25
847.513,6650.35
848.604,6581.55
849.694,6611.0
850.784,6555.85
851.875,6550.7
852.965,6551.45
854.055,6520.05
855.145,6410.55
856.235,6341.55
857.324,6342.05
858.414,6392.4
859.503,6460.8
860.593,6375.4
861.682,6259.35
862.771,6269.85
863.86,6247.45
864.949,6212.75
866.038,6113.4
867.126,6093.25
868.215,6043.45
869.303,6078.65
870.391,6057.55
871.479,6159.35
872.567,6172.85
873.655,6176.75
874.743,6010.5
875.831,5977.5
876.918,5943.85
878.006,5904.95
879.093,5824.4
880.18,5810.3
881.267,5838.2
882.354,5807.85
883.441,5726.05
884.527,5733.7
885.614,5737.9
886.7,5665.35
887.786,5561.4
888.872,5627.85
889.958,5580.45
891.044,5538.4
892.13,5537.65
893.216,5479.8
894.301,5406.4
895.386,5416.9
896.472,5374.0
897.557,5493.2
898.642,5689.35
899.726,5400.0
900.811,5262.5
901.896,5199.1
902.98,5192.0
904.064,5158.3
905.148,5230.8
906.232,5229.8
907.316,5357.2
908.4,5281.35
909.484,5128.45
910.567,5026.75
911.65,4972.65
912.734,4945.7
913.817,4881.3
914.9,4873.25
915.982,4847.55
917.065,4838.6
918.147,4814.15
919.23,4762.9
920.312,4755.1
921.394,4729.9
922.476,4705.3
923.558,4682.75
924.639,4636.85
925.721,4623.0
926.802,4588.85
927.884,4567.8
928.965,4525.5
930.046,4493.65
931.126,4476.7
932.207,4441.0
933.288,4448.6
934.368,4388.6
935.448,4396.8
936.528,4350.15
937.608,4339.7
938.688,4344.45
939.767,4313.75
940.847,4306.4
941.926,4265.05
943.005,4278.6
944.084,4245.6
945.163,4229.5
946.242,4188.25
947.321,4221.55
948.399,4169.85
949.477,4178.45
950.556,4169.65
951.634,4145.3
952.711,4141.05
953.789,4112.3
954.867,4115.85
955.944,4088.25
957.021,4081.45
958.098,4077.3
959.175,4059.8
960.252,4036.15
961.328,4046.8
962.405,4034.25
963.481,4010.6
964.557,4018.1
965.633,4009.45
966.709,3998.35
967.785,3994.55
968.86,3984.75
969.936,3976.3
971.011,3966.4
972.086,3961.5
973.161,3955.35
974.235,3946.1
975.31,3936.75
976.384,3923.75
977.459,3922.25
978.533,3922.1
979.607,3912.95
980.68,3904.0
981.754,3903.8
982.827,3899.7
983.901,3898.9
984.974,3887.85
986.047,3881.05
987.119,3878.3
988.192,3872.5
989.264,3867.85
990.337,3864.7
991.409,3863.7
992.481,3855.7
993.553,3845.8
994.624,3846.55
995.696,3843.2
996.767,3836.8
997.838,3837.05
998.909,3836.3
999.98,3829.3
1001.05,3820.8
1002.12,3821.9
1003.19,3820.9
1004.26,3816.45
1005.33,3813.25
1006.4,3810.15
1007.47,3805.0
1008.54,3805.1
1009.61,3795.5
1010.68,3799.05
1011.75,3796.0
1012.82,3790.65
1013.88,3793.6
1014.95,3788.65
1016.02,3786.75
1017.09,3784.0
1018.16,3781.5
1019.22,3784.35
1020.29,3782.45
1021.36,3780.9
1022.43,3778.8
1023.49,3778.45
1024.56,3773.65
1025.63,3775.3
1026.69,3768.55
1027.76,3766.2
1028.83,3761.8
1029.89,3762.15
1030.96,3761.2
1032.02,3760.95
1033.09,3759.9
1034.15,3759.2
1035.22,3760.1
1036.28,3759.3
1037.35,3757.1
1038.41,3752.1
1039.48,3752.1
1040.54,3752.75
1041.6,3749.9
1042.67,3749.3
1043.73,3748.25
1044.79,3746.7
1045.86,3746.5
1046.92,3745.4
1047.98,3745.6
1049.05,3746.85
1050.11,3744.3
1051.17,3744.8
1052.23,3744.15
1053.29,3744.55
1054.36,3743.75
1055.42,3743.5
1056.48,3743.4
1057.54,3741.0
1058.6,3742.55
1059.66,3741.35
1060.72,3741.8
1061.78,3742.5
1062.84,3740.75
1063.9,3740.15
1064.96,3740.3
1066.02,3739.45
1067.08,3740.05
1067.88,3740.05