File: spectra/VLFR_08-PLA_bio_Raman_8c1a37a0.csv
nm,Intensity
526.495,829.7
527.042,828.933
527.589,829.1
528.136,829.233
528.682,830.0
529.229,829.467
529.775,829.6
530.321,829.5
530.867,829.567
531.413,829.433
531.959,835.267
532.505,829.933
533.051,828.933
533.596,831.267
534.141,1064.43
534.687,1035.77
535.232,1000.3
535.777,985.833
536.321,979.133
536.866,979.667
537.41,970.933
537.955,969.633
538.499,963.867
539.043,960.6
539.587,959.667
540.131,957.9
540.675,970.133
541.219,969.167
541.762,964.633
542.305,960.6
542.849,966.7
543.392,982.0
543.935,990.367
544.478,974.767
545.02,969.6
545.563,970.233
546.106,968.733
546.648,968.833
547.19,972.367
547.732,975.1
548.274,974.267
548.816,973.967
549.358,979.5
549.9,982.433
550.441,982.733
550.983,983.067
551.524,989.333
552.065,989.0
552.606,991.167
553.147,994.9
553.688,993.967
554.229,998.9
554.769,996.4
555.31,987.967
555.85,988.9
556.391,993.967
556.931,995.7
557.471,1010.97
558.011,1096.7
558.551,1023.0
559.09,1008.3
559.63,1008.37
560.169,1008.1
560.709,1007.17
561.248,1002.73
561.787,1007.43
562.326,1006.57
562.865,1018.3
563.404,1041.17
563.943,1028.0
564.481,1021.2
565.02,1037.37
565.558,1032.93
566.096,1059.77
566.634,1030.5
567.172,1022.0
567.71,1024.67
568.248,1026.77
568.786,1031.4
569.324,1034.17
569.861,1030.67
570.399,1036.57
570.936,1035.77
571.473,1049.83
572.01,1051.83
572.547,1049.63
573.084,1050.8
573.621,1050.67
574.158,1048.97
574.694,1059.37
575.231,1042.73
575.767,1044.57
576.303,1061.93
576.84,1107.53
577.376,1067.9
577.912,1053.6
578.448,1050.3
578.984,1050.83
579.519,1054.37
580.055,1051.17
580.59,1051.13
581.126,1052.87
581.661,1052.1
582.196,1057.13
582.731,1055.07
583.267,1058.13
583.801,1058.7
584.336,1059.9
584.871,1055.67
585.406,1059.33
585.94,1058.3
586.475,1071.13
587.009,1095.13
587.543,1112.67
588.078,1080.33
588.612,1062.4
589.146,1060.3
589.68,1060.5
590.214,1063.43
590.747,1064.1
591.281,1064.1
591.815,1060.77
592.348,1062.6
592.881,1059.97
593.415,1064.03
593.948,1063.57
594.481,1063.53
595.014,1068.33
595.547,1070.0
596.08,1073.5
596.613,1070.5
597.146,1069.63
597.678,1070.0
598.211,1075.1
598.743,1075.1
599.276,1074.1
599.808,1073.43
600.34,1075.4
600.872,1070.6
601.404,1076.4
601.936,1075.97
602.468,1075.27
603.0,1077.93
603.532,1075.1
604.064,1078.83
604.595,1079.53
605.127,1073.27
605.658,1074.0
606.189,1069.47
606.721,1071.5
607.252,1072.07
607.783,1072.87
608.314,1080.37
608.845,1078.2
609.376,1080.17
609.907,1083.07
610.438,1078.0
610.968,1080.4
611.499,1079.83
612.029,1081.53
612.56,1084.8
613.09,1083.87
613.621,1087.7
614.151,1088.83
614.681,1093.33
615.211,1093.37
615.741,1092.53
616.271,1087.5
616.801,1094.3
617.331,1096.9
617.861,1091.83
618.39,1095.9
618.92,1095.13
619.45,1094.43
619.979,1092.2
620.509,1095.4
621.038,1093.23
621.567,1090.93
622.096,1100.4
622.626,1102.93
623.155,1107.77
623.684,1108.7
624.213,1102.8
624.742,1102.1
625.271,1096.0
625.799,1096.6
626.328,1099.97
626.857,1101.43
627.386,1101.07
627.914,1110.8
628.443,1160.7
628.971,1148.83
629.5,1150.6
630.028,1154.6
630.556,1204.53
631.084,1477.4
631.613,1295.07
632.141,1197.8
632.669,1177.4
633.197,1245.2
633.725,1218.6
634.253,1143.3
634.781,1110.73
635.308,1101.23
635.836,1098.8
636.364,1093.97
636.891,1088.6
637.419,1094.1
637.947,1090.7
638.474,1088.53
639.002,1090.6
639.529,1090.17
640.056,1086.2
640.584,1087.17
641.111,1085.27
641.638,1088.83
642.165,1088.3
642.692,1080.97
643.219,1081.1
643.746,1079.37
644.273,1075.37
644.8,1070.9
645.327,1073.43
645.854,1074.13
646.381,1069.53
646.908,1067.73
647.434,1071.63
647.961,1067.17
648.488,1070.03
649.014,1064.13
649.541,1065.7
650.067,1062.13
650.594,1062.17
651.12,1059.6
651.646,1062.53
652.173,1061.63
652.699,1062.07
653.225,1063.23
653.752,1059.3
654.278,1060.73
654.804,1056.53
655.33,1055.03
655.856,1053.57
656.382,1054.2
656.908,1055.9
657.434,1050.63
657.96,1055.97
658.486,1055.3
659.012,1053.1
659.538,1049.37
660.064,1053.07
660.589,1049.9
661.115,1048.97
661.641,1044.63
662.166,1046.93
662.692,1044.53
663.086,1043.77