File: spectra/VLFR_06-PET_bio_Raman_db1deb89.csv
nm,Intensity
526.493,828.6
527.039,827.6
527.586,828.8
528.133,830.3
528.679,828.8
529.225,827.9
529.771,828.3
530.317,828.5
530.863,828.5
531.409,828.3
531.955,830.8
532.5,830.4
533.046,828.8
533.591,839.3
534.136,1997.9
534.681,1673.2
535.226,1363.0
535.771,1185.5
536.315,1072.4
536.86,1023.0
537.404,1008.5
537.948,1001.4
538.493,1006.7
539.037,1001.9
539.58,1016.3
540.124,1024.8
540.668,986.0
541.211,985.7
541.755,976.5
542.298,979.6
542.841,979.7
543.384,981.0
543.927,991.8
544.47,988.3
545.013,993.9
545.555,994.8
546.098,996.7
546.64,1003.5
547.182,1003.3
547.724,1010.5
548.266,1010.2
548.808,1012.9
549.35,1017.6
549.892,1021.1
550.433,1035.9
550.974,1044.3
551.516,1033.9
552.057,1045.5
552.598,1045.4
553.139,1070.6
553.68,1052.2
554.22,1053.8
554.761,1063.3
555.301,1073.6
555.842,1127.7
556.382,1128.3
556.922,1136.2
557.462,1268.7
558.002,1165.5
558.542,1162.5
559.082,1128.7
559.621,1105.7
560.161,1098.8
560.7,1107.0
561.239,1116.4
561.778,1114.4
562.317,1139.2
562.856,1152.4
563.395,1161.4
563.934,1146.2
564.472,1165.0
565.011,1201.8
565.549,1268.9
566.088,1275.7
566.626,1192.7
567.164,1176.4
567.702,1261.5
568.24,1192.0
568.777,1194.1
569.315,1202.7
569.853,1224.9
570.39,1275.7
570.927,1392.9
571.465,1507.0
572.002,1358.9
572.539,1270.0
573.076,1247.6
573.612,1247.7
574.149,1289.3
574.686,1264.4
575.222,1292.6
575.759,1279.3
576.295,1298.4
576.831,1326.3
577.367,1297.6
577.903,1289.3
578.439,1291.6
578.975,1299.3
579.511,1301.2
580.046,1307.9
580.582,1321.4
581.117,1337.2
581.653,1417.6
582.188,2515.7
582.723,1399.4
583.258,1347.5
583.793,1359.2
584.328,1367.7
584.863,1376.2
585.398,1481.7
585.932,1976.1
586.467,1754.6
587.001,1439.1
587.535,1405.4
588.07,1388.5
588.604,1391.0
589.138,1390.8
589.672,1396.8
590.206,1395.4
590.739,1407.1
591.273,1397.5
591.807,1408.2
592.34,1404.0
592.873,1403.4
593.407,1410.1
593.94,1417.7
594.473,1416.2
595.006,1425.7
595.539,1433.0
596.072,1437.4
596.605,1436.3
597.138,1442.2
597.67,1444.6
598.203,1454.4
598.735,1452.6
599.268,1457.4
599.8,1461.5
600.332,1449.7
600.865,1463.1
601.397,1448.9
601.929,1456.7
602.46,1463.7
602.992,1457.9
603.524,1469.3
604.056,1466.2
604.587,1462.6
605.119,1459.7
605.65,1444.7
606.182,1453.2
606.713,1464.4
607.244,1462.6
607.775,1461.9
608.306,1470.7
608.837,1473.7
609.368,1472.4
609.899,1472.9
610.43,1473.1
610.961,1472.4
611.491,1462.7
612.022,1485.2
612.552,1497.2
613.083,1510.2
613.613,1500.1
614.143,1517.9
614.673,1509.4
615.203,1511.2
615.734,1513.4
616.263,1518.0
616.793,1527.0
617.323,1531.7
617.853,1546.6
618.383,1563.7
618.912,1545.6
619.442,1543.1
619.971,1535.8
620.501,1539.3
621.03,1548.4
621.56,1549.2
622.089,1560.0
622.618,1567.0
623.147,1570.5
623.676,1590.9
624.205,1590.0
624.734,1601.3
625.263,1602.9
625.792,1610.1
626.321,1608.4
626.849,1616.8
627.378,1618.0
627.906,1619.8
628.435,1655.9
628.963,1688.5
629.492,1680.4
630.02,1680.2
630.548,1695.3
631.077,1758.9
631.605,1882.1
632.133,1901.1
632.661,1835.3
633.189,1791.2
633.717,1775.2
634.245,1749.2
634.773,1747.8
635.3,1772.9
635.828,1839.3
636.356,1961.9
636.883,1966.2
637.411,1832.5
637.938,1810.9
638.466,1815.7
638.993,1820.1
639.521,1834.1
640.048,1821.2
640.575,1845.3
641.103,1841.5
641.63,1845.5
642.157,1873.5
642.684,1865.5
643.211,1863.6
643.738,1856.1
644.265,1847.8
644.792,1863.3
645.319,1856.6
645.845,1873.2
646.372,1875.8
646.899,1893.5
647.425,1895.9
647.952,1899.4
648.479,1906.1
649.005,1899.4
649.532,1892.9
650.058,1907.4
650.585,1903.3
651.111,1904.4
651.637,1917.8
652.164,1919.8
652.69,1944.7
653.216,1926.4
653.742,1936.1
654.268,1936.4
654.794,1936.8
655.32,1943.5
655.846,1925.3
656.372,1938.8
656.898,1936.9
657.424,1948.3
657.95,1939.0
658.476,1948.4
659.002,1949.1
659.528,1949.1
660.053,1953.8
660.579,1940.2
661.105,1934.3
661.63,1940.8
662.156,1913.8
662.681,1935.8
663.076,1944.5