File: spectra/VLFR_06-PET_nobio_Raman_14f9a564.csv
nm,Intensity
526.486,830.9
527.033,829.7
527.579,831.4
528.126,829.4
528.672,829.6
529.219,830.0
529.765,831.3
530.311,829.8
530.857,829.1
531.403,829.7
531.948,832.4
532.494,831.5
533.039,830.4
533.585,839.5
534.13,2283.9
534.675,1900.6
535.22,1509.8
535.764,1265.7
536.309,1111.9
536.854,1059.2
537.398,1029.1
537.942,1023.8
538.486,1033.8
539.03,1026.6
539.574,1045.7
540.118,1056.2
540.662,1010.3
541.205,998.9
541.749,992.4
542.292,994.2
542.835,996.3
543.378,1000.1
543.921,1009.2
544.464,1009.6
545.006,1013.1
545.549,1015.9
546.091,1020.2
546.634,1020.3
547.176,1028.0
547.718,1029.8
548.26,1033.5
548.802,1038.8
549.343,1040.1
549.885,1039.3
550.426,1060.0
550.968,1083.2
551.509,1058.3
552.05,1061.4
552.591,1066.8
553.132,1096.8
553.673,1071.2
554.214,1076.8
554.754,1081.8
555.295,1096.1
555.835,1164.9
556.375,1166.1
556.915,1181.1
557.455,1336.2
557.995,1215.3
558.535,1207.4
559.075,1158.5
559.614,1130.6
560.154,1130.2
560.693,1136.9
561.232,1147.1
561.772,1148.1
562.311,1171.7
562.85,1188.8
563.388,1202.9
563.927,1184.5
564.466,1205.9
565.004,1256.9
565.543,1332.0
566.081,1343.8
566.619,1227.9
567.157,1214.8
567.695,1310.5
568.233,1237.2
568.771,1231.2
569.309,1242.2
569.846,1278.1
570.384,1329.4
570.921,1487.3
571.458,1622.6
571.995,1433.0
572.532,1322.6
573.069,1298.4
573.606,1288.8
574.143,1334.4
574.68,1312.1
575.216,1353.0
575.753,1324.4
576.289,1362.9
576.825,1378.8
577.361,1350.9
577.897,1338.4
578.433,1347.4
578.969,1351.1
579.505,1354.1
580.041,1372.7
580.576,1371.3
581.112,1396.6
581.647,1475.6
582.183,2828.6
582.718,1468.0
583.253,1417.5
583.788,1413.9
584.323,1427.4
584.858,1451.4
585.392,1550.2
585.927,2193.8
586.462,1923.2
586.996,1511.5
587.53,1466.8
588.065,1460.0
588.599,1465.5
589.133,1449.3
589.667,1465.2
590.201,1460.3
590.735,1462.4
591.268,1474.8
591.802,1476.4
592.335,1474.9
592.869,1468.0
593.402,1472.9
593.936,1485.3
594.469,1487.5
595.002,1495.1
595.535,1486.0
596.068,1508.8
596.601,1511.5
597.133,1506.6
597.666,1525.1
598.199,1522.4
598.731,1524.6
599.264,1526.9
599.796,1536.7
600.328,1533.7
600.86,1528.7
601.393,1527.1
601.925,1532.2
602.457,1542.7
602.988,1530.7
603.52,1545.3
604.052,1558.2
604.583,1542.7
605.115,1542.9
605.646,1536.9
606.178,1529.4
606.709,1535.4
607.24,1535.1
607.771,1543.6
608.302,1558.1
608.833,1547.9
609.364,1541.7
609.895,1558.3
610.426,1557.4
610.957,1556.6
611.487,1558.6
612.018,1557.8
612.548,1571.4
613.078,1590.9
613.609,1604.7
614.139,1597.4
614.669,1614.6
615.199,1605.1
615.729,1609.5
616.259,1607.2
616.789,1619.0
617.319,1618.1
617.849,1638.2
618.378,1647.2
618.908,1646.0
619.437,1635.9
619.967,1632.2
620.496,1640.1
621.025,1652.7
621.555,1636.7
622.084,1647.1
622.613,1669.1
623.142,1672.9
623.671,1679.2
624.2,1685.8
624.729,1704.0
625.258,1703.7
625.786,1704.5
626.315,1715.5
626.844,1721.9
627.372,1726.4
627.901,1727.3
628.429,1772.5
628.957,1811.5
629.486,1822.4
630.014,1816.6
630.542,1805.3
631.07,1891.7
631.598,2060.4
632.126,2054.4
632.654,1967.0
633.182,1940.2
633.71,1930.0
634.237,1892.1
634.765,1891.0
635.293,1912.7
635.82,1971.6
636.348,2128.8
636.875,2158.3
637.403,1981.1
637.93,1955.2
638.458,1949.7
638.985,1956.0
639.512,1967.8
640.039,1975.3
640.566,1987.9
641.093,1999.8
641.62,2001.3
642.147,2014.6
642.674,2037.2
643.201,2004.6
643.728,2012.9
644.255,2022.8
644.781,2015.9
645.308,2012.4
645.835,2028.7
646.361,2043.0
646.888,2055.7
647.414,2065.2
647.941,2070.6
648.467,2045.9
648.993,2059.0
649.52,2061.8
650.046,2061.6
650.572,2051.8
651.098,2081.2
651.625,2079.8
652.151,2086.6
652.677,2099.7
653.203,2098.5
653.729,2109.1
654.255,2100.7
654.78,2091.8
655.306,2100.0
655.832,2089.6
656.358,2105.5
656.884,2111.8
657.409,2109.7
657.935,2105.0
658.461,2114.9
658.986,2109.6
659.512,2121.4
660.037,2129.9
660.563,2116.2
661.088,2106.0
661.614,2096.0
662.139,2078.3
662.664,2104.4
663.058,2093.9