File: spectra/VLFR_08-PLA_nobio_Raman_98fd9ee3.csv
nm,Intensity
526.5,826.5
527.047,826.5
527.594,827.0
528.14,827.5
528.687,827.4
529.233,826.0
529.779,826.1
530.325,826.9
530.871,828.8
531.417,827.6
531.962,832.6
532.508,827.4
533.053,827.1
533.599,827.4
534.144,843.9
534.689,843.8
535.234,843.1
535.778,839.7
536.323,840.7
536.867,840.1
537.412,841.0
537.956,840.6
538.5,839.6
539.044,839.5
539.588,841.6
540.132,839.8
540.675,842.3
541.219,843.6
541.762,843.0
542.305,844.9
542.848,846.1
543.391,843.8
543.934,843.5
544.477,844.0
545.02,844.9
545.562,845.7
546.105,844.2
546.647,845.8
547.189,844.3
547.731,843.6
548.273,843.8
548.815,842.8
549.356,843.1
549.898,843.4
550.439,843.4
550.981,843.2
551.522,844.1
552.063,843.5
552.604,842.4
553.145,844.0
553.686,841.4
554.226,842.6
554.767,842.4
555.307,844.2
555.848,846.3
556.388,843.0
556.928,842.6
557.468,843.5
558.008,845.1
558.547,844.5
559.087,846.0
559.626,845.6
560.166,846.4
560.705,846.4
561.244,846.8
561.783,844.9
562.322,846.3
562.861,845.6
563.4,848.1
563.939,850.1
564.477,851.5
565.015,855.5
565.554,854.3
566.092,856.0
566.63,850.9
567.168,846.3
567.706,846.9
568.244,848.4
568.781,848.1
569.319,847.8
569.857,848.7
570.394,849.5
570.931,849.5
571.468,851.6
572.005,850.6
572.542,848.4
573.079,850.5
573.616,852.2
574.153,853.2
574.689,852.0
575.226,852.3
575.762,851.5
576.298,850.1
576.834,851.3
577.371,850.5
577.907,850.9
578.442,846.4
578.978,848.0
579.514,849.9
580.049,850.6
580.585,849.5
581.12,850.2
581.656,849.7
582.191,850.3
582.726,849.3
583.261,850.4
583.796,848.9
584.331,851.3
584.865,850.0
585.4,849.3
585.935,850.4
586.469,848.4
587.004,850.3
587.538,852.7
588.072,850.3
588.606,850.2
589.14,848.6
589.674,848.9
590.208,847.5
590.742,849.2
591.275,847.9
591.809,851.6
592.342,850.0
592.876,849.2
593.409,851.6
593.942,850.9
594.476,849.6
595.009,848.7
595.542,851.7
596.075,850.1
596.607,850.0
597.14,851.5
597.673,851.0
598.205,853.4
598.738,848.7
599.27,851.5
599.803,849.4
600.335,849.5
600.867,849.2
601.399,850.2
601.931,850.0
602.463,851.1
602.995,847.8
603.527,850.0
604.058,848.7
604.59,850.5
605.122,850.2
605.653,851.1
606.184,850.7
606.716,850.2
607.247,848.6
607.778,848.4
608.309,850.0
608.84,850.9
609.371,850.9
609.902,848.6
610.433,849.5
610.964,849.7
611.494,851.0
612.025,849.7
612.556,849.1
613.086,849.7
613.616,851.3
614.147,851.3
614.677,850.6
615.207,850.4
615.737,852.4
616.267,851.3
616.797,851.8
617.327,852.5
617.857,852.0
618.387,851.8
618.917,849.7
619.446,850.7
619.976,850.2
620.505,849.4
621.035,851.5
621.564,851.3
622.093,851.7
622.623,851.3
623.152,850.6
623.681,851.4
624.21,850.8
624.739,851.1
625.268,850.9
625.797,854.3
626.326,854.7
626.855,853.4
627.383,853.8
627.912,860.4
628.441,859.7
628.969,866.5
629.498,863.5
630.026,860.9
630.554,858.3
631.083,862.3
631.611,857.0
632.139,855.7
632.667,854.5
633.195,855.5
633.724,849.8
634.252,850.6
634.779,849.0
635.307,847.7
635.835,847.0
636.363,850.0
636.891,850.2
637.418,849.6
637.946,850.8
638.474,850.7
639.001,848.1
639.529,849.8
640.056,849.1
640.583,847.0
641.111,848.7
641.638,850.9
642.165,850.3
642.692,849.1
643.22,849.1
643.747,848.2
644.274,848.6
644.801,851.6
645.328,850.0
645.854,851.4
646.381,849.6
646.908,852.6
647.435,850.2
647.962,849.3
648.488,848.7
649.015,850.4
649.542,848.1
650.068,850.3
650.595,848.4
651.121,849.4
651.648,848.5
652.174,845.9
652.7,847.4
653.227,847.7
653.753,846.4
654.279,847.0
654.805,847.8
655.331,845.7
655.858,847.1
656.384,845.9
656.91,846.7
657.436,846.2
657.962,847.5
658.488,846.4
659.013,846.8
659.539,845.5
660.065,845.1
660.591,845.8
661.117,845.6
661.642,843.9
662.168,847.0
662.694,843.3
663.088,845.1