File: spectra/VLFR_06-PET_nobio_Raman_4a7545f7.csv
nm,Intensity
526.5,829.3
527.047,828.6
527.594,829.2
528.14,829.6
528.687,828.8
529.233,829.3
529.779,830.1
530.325,828.4
530.871,828.7
531.417,829.8
531.962,833.0
532.508,829.0
533.053,826.7
533.599,830.4
534.144,1080.9
534.689,1032.1
535.234,962.1
535.778,930.8
536.323,912.5
536.867,902.0
537.412,901.3
537.956,900.4
538.5,900.6
539.044,903.2
539.588,908.1
540.132,907.7
540.675,905.3
541.219,901.1
541.762,905.9
542.305,903.8
542.848,906.2
543.391,910.6
543.934,911.6
544.477,911.8
545.02,915.9
545.562,915.5
546.105,917.0
546.647,922.7
547.189,923.1
547.731,925.1
548.273,929.1
548.815,927.5
549.356,933.4
549.898,934.8
550.439,939.3
550.981,945.6
551.522,941.1
552.063,943.4
552.604,946.5
553.145,955.0
553.686,950.9
554.226,952.2
554.767,952.4
555.307,962.3
555.848,969.0
556.388,973.0
556.928,979.7
557.468,1003.7
558.008,987.6
558.547,992.9
559.087,979.8
559.626,985.6
560.166,976.8
560.705,988.3
561.244,988.4
561.783,991.6
562.322,994.8
562.861,999.8
563.4,1003.6
563.939,1006.1
564.477,1004.8
565.015,1019.5
565.554,1035.1
566.092,1038.6
566.63,1024.9
567.168,1015.4
567.706,1046.5
568.244,1024.7
568.781,1030.8
569.319,1037.0
569.857,1041.4
570.394,1059.2
570.931,1082.3
571.468,1099.2
572.005,1078.8
572.542,1060.6
573.079,1058.8
573.616,1064.0
574.153,1070.3
574.689,1072.9
575.226,1077.9
575.762,1077.8
576.298,1086.6
576.834,1089.0
577.371,1087.2
577.907,1084.8
578.442,1089.5
578.978,1093.4
579.514,1095.4
580.049,1100.0
580.585,1102.2
581.12,1102.6
581.656,1123.2
582.191,1330.1
582.726,1123.0
583.261,1117.1
583.796,1120.1
584.331,1120.6
584.865,1130.8
585.4,1149.0
585.935,1243.8
586.469,1198.9
587.004,1144.4
587.538,1139.2
588.072,1145.3
588.606,1135.0
589.14,1137.5
589.674,1148.2
590.208,1142.0
590.742,1149.4
591.275,1150.3
591.809,1148.0
592.342,1146.2
592.876,1148.4
593.409,1151.1
593.942,1163.7
594.476,1157.6
595.009,1154.7
595.542,1157.3
596.075,1164.3
596.607,1158.1
597.14,1164.0
597.673,1164.6
598.205,1168.7
598.738,1180.5
599.27,1164.0
599.803,1171.1
600.335,1172.6
600.867,1167.7
601.399,1172.4
601.931,1173.3
602.463,1175.5
602.995,1180.4
603.527,1174.7
604.058,1179.7
604.59,1174.3
605.122,1174.5
605.653,1165.5
606.184,1171.3
606.716,1163.2
607.247,1171.8
607.778,1170.3
608.309,1171.0
608.84,1178.2
609.371,1172.6
609.902,1176.8
610.433,1176.7
610.964,1179.5
611.494,1168.0
612.025,1182.7
612.556,1190.0
613.086,1187.0
613.616,1195.5
614.147,1188.3
614.677,1186.1
615.207,1194.5
615.737,1194.7
616.267,1191.0
616.797,1191.4
617.327,1200.4
617.857,1203.1
618.387,1201.0
618.917,1203.8
619.446,1209.0
619.976,1206.1
620.505,1194.4
621.035,1205.3
621.564,1207.3
622.093,1205.5
622.623,1208.0
623.152,1215.9
623.681,1225.5
624.21,1217.9
624.739,1228.6
625.268,1228.0
625.797,1231.5
626.326,1233.6
626.855,1230.9
627.383,1227.5
627.912,1234.6
628.441,1247.5
628.969,1249.8
629.498,1258.8
630.026,1251.9
630.554,1261.0
631.083,1274.7
631.611,1292.9
632.139,1294.9
632.667,1283.8
633.195,1283.5
633.724,1287.5
634.252,1278.5
634.779,1280.3
635.307,1292.4
635.835,1304.6
636.363,1326.4
636.891,1336.1
637.418,1313.0
637.946,1308.2
638.474,1298.1
639.001,1303.1
639.529,1308.9
640.056,1303.2
640.583,1318.6
641.111,1320.9
641.638,1325.4
642.165,1322.7
642.692,1329.6
643.22,1323.3
643.747,1320.4
644.274,1322.2
644.801,1317.9
645.328,1319.5
645.854,1337.7
646.381,1328.0
646.908,1335.6
647.435,1332.1
647.962,1341.7
648.488,1339.3
649.015,1328.4
649.542,1333.5
650.068,1336.9
650.595,1333.6
651.121,1334.5
651.648,1333.4
652.174,1340.3
652.7,1334.1
653.227,1345.8
653.753,1340.6
654.279,1340.0
654.805,1339.0
655.331,1345.7
655.858,1329.6
656.384,1330.4
656.91,1340.5
657.436,1337.7
657.962,1334.6
658.488,1338.2
659.013,1341.1
659.539,1346.3
660.065,1346.3
660.591,1336.6
661.117,1340.1
661.642,1341.3
662.168,1326.7
662.694,1331.5
663.088,1320.5