File: spectra/VLFR_02-HDPE_nobio_Raman_146252b0.csv
nm,Intensity
526.486,829.0
527.033,829.4
527.579,828.1
528.126,828.8
528.672,829.3
529.219,829.7
529.765,828.9
530.311,830.0
530.857,827.6
531.403,829.9
531.948,832.2
532.494,830.9
533.039,830.4
533.585,829.0
534.13,861.4
534.675,859.9
535.22,853.9
535.764,850.7
536.309,847.8
536.854,845.9
537.398,844.0
537.942,845.4
538.486,845.5
539.03,846.4
539.574,844.4
540.118,844.8
540.662,842.3
541.205,843.0
541.749,842.8
542.292,842.7
542.835,841.4
543.378,844.5
543.921,843.6
544.464,844.3
545.006,842.6
545.549,843.0
546.091,842.9
546.634,843.6
547.176,843.7
547.718,843.9
548.26,843.8
548.802,844.0
549.343,842.0
549.885,845.2
550.426,845.6
550.968,844.3
551.509,845.3
552.05,846.6
552.591,842.9
553.132,845.1
553.673,846.9
554.214,844.4
554.754,846.3
555.295,847.1
555.835,846.0
556.375,845.9
556.915,848.0
557.455,849.6
557.995,849.4
558.535,850.1
559.075,851.7
559.614,849.1
560.154,849.4
560.693,849.7
561.232,848.4
561.772,847.2
562.311,851.1
562.85,851.7
563.388,851.3
563.927,886.1
564.466,862.3
565.004,861.4
565.543,859.0
566.081,920.5
566.619,862.6
567.157,853.0
567.695,855.4
568.233,851.3
568.771,854.7
569.309,853.8
569.846,854.6
570.384,855.4
570.921,859.6
571.458,903.9
571.995,868.3
572.532,859.7
573.069,853.6
573.606,856.1
574.143,860.3
574.68,855.7
575.216,858.0
575.753,903.4
576.289,899.0
576.825,885.1
577.361,872.5
577.897,859.4
578.433,855.7
578.969,855.4
579.505,855.5
580.041,859.6
580.576,858.3
581.112,855.2
581.647,856.1
582.183,858.3
582.718,858.1
583.253,859.2
583.788,857.0
584.323,855.4
584.858,858.2
585.392,859.5
585.927,858.7
586.462,856.9
586.996,855.2
587.53,858.5
588.065,858.3
588.599,860.1
589.133,860.6
589.667,860.9
590.201,861.5
590.735,859.3
591.268,857.2
591.802,859.9
592.335,860.1
592.869,861.0
593.402,856.8
593.936,859.7
594.469,858.6
595.002,858.5
595.535,859.0
596.068,859.6
596.601,859.5
597.133,858.5
597.666,863.7
598.199,859.8
598.731,862.1
599.264,862.7
599.796,864.3
600.328,865.1
600.86,861.2
601.393,863.7
601.925,862.2
602.457,862.5
602.988,863.1
603.52,862.6
604.052,862.9
604.583,860.2
605.115,860.6
605.646,861.5
606.178,859.1
606.709,860.4
607.24,861.4
607.771,860.2
608.302,860.5
608.833,860.0
609.364,858.1
609.895,856.8
610.426,859.8
610.957,861.3
611.487,862.0
612.018,859.7
612.548,860.7
613.078,860.6
613.609,860.0
614.139,861.6
614.669,860.9
615.199,858.6
615.729,857.9
616.259,859.5
616.789,858.1
617.319,861.6
617.849,863.5
618.378,862.0
618.908,865.1
619.437,862.6
619.967,864.5
620.496,864.5
621.025,867.9
621.555,870.2
622.084,876.2
622.613,876.6
623.142,868.6
623.671,865.4
624.2,864.0
624.729,864.5
625.258,866.8
625.786,867.5
626.315,876.3
626.844,956.6
627.372,1157.4
627.901,1027.6
628.429,1078.2
628.957,1060.5
629.486,1019.4
630.014,971.0
630.542,961.2
631.07,912.1
631.598,880.3
632.126,872.4
632.654,868.5
633.182,867.5
633.71,863.7
634.237,864.1
634.765,864.7
635.293,862.5
635.82,860.9
636.348,860.4
636.875,863.7
637.403,859.6
637.93,858.9
638.458,859.7
638.985,860.0
639.512,857.9
640.039,857.6
640.566,858.8
641.093,860.1
641.62,856.8
642.147,854.2
642.674,857.3
643.201,856.8
643.728,855.5
644.255,854.7
644.781,855.5
645.308,855.7
645.835,853.4
646.361,855.3
646.888,853.1
647.414,851.9
647.941,853.5
648.467,852.6
648.993,855.9
649.52,852.2
650.046,852.8
650.572,852.0
651.098,854.3
651.625,854.2
652.151,852.9
652.677,854.3
653.203,852.0
653.729,849.8
654.255,852.5
654.78,852.1
655.306,851.8
655.832,852.3
656.358,851.7
656.884,853.7
657.409,852.1
657.935,851.8
658.461,851.7
658.986,850.1
659.512,850.2
660.037,852.4
660.563,850.1
661.088,850.7
661.614,849.1
662.139,849.7
662.664,850.1
663.058,849.5