File: spectra/VLFR_01-LDPE_bio_Raman_4f5d9147.csv
nm,Intensity
526.495,829.9
527.042,829.8
527.589,828.3
528.136,831.0
528.682,829.1
529.229,829.9
529.775,828.3
530.321,829.2
530.867,829.7
531.413,827.8
531.959,832.6
532.505,831.2
533.051,829.5
533.596,828.5
534.141,903.1
534.687,892.4
535.232,882.7
535.777,872.4
536.321,864.0
536.866,865.0
537.41,864.6
537.955,864.4
538.499,859.7
539.043,859.1
539.587,855.4
540.131,855.2
540.675,853.2
541.219,855.1
541.762,854.4
542.305,853.4
542.849,849.6
543.392,851.3
543.935,849.2
544.478,849.8
545.02,851.0
545.563,849.5
546.106,851.2
546.648,851.1
547.19,849.7
547.732,850.3
548.274,849.0
548.816,849.4
549.358,849.1
549.9,848.6
550.441,847.9
550.983,848.2
551.524,849.4
552.065,849.7
552.606,846.8
553.147,849.4
553.688,850.3
554.229,850.5
554.769,851.1
555.31,851.9
555.85,855.0
556.391,854.7
556.931,859.0
557.471,858.5
558.011,859.1
558.551,863.4
559.09,860.4
559.63,861.8
560.169,857.3
560.709,858.6
561.248,860.4
561.787,861.5
562.326,866.3
562.865,867.9
563.404,872.5
563.943,957.5
564.481,894.6
565.02,886.9
565.558,883.8
566.096,1050.7
566.634,889.9
567.172,876.4
567.71,877.2
568.248,871.8
568.786,874.7
569.324,875.5
569.861,876.7
570.399,882.3
570.936,888.2
571.473,1035.9
572.01,913.1
572.547,890.9
573.084,889.7
573.621,891.9
574.158,899.0
574.694,898.3
575.231,905.8
575.767,990.1
576.303,1017.5
576.84,983.0
577.376,953.1
577.912,935.3
578.448,937.1
578.984,942.8
579.519,953.3
580.055,963.1
580.59,958.6
581.126,968.4
581.661,972.5
582.196,977.0
582.731,976.7
583.267,983.8
583.801,978.3
584.336,978.6
584.871,975.5
585.406,973.4
585.94,970.7
586.475,971.0
587.009,970.3
587.543,967.2
588.078,969.3
588.612,966.3
589.146,969.8
589.68,969.5
590.214,968.7
590.747,974.4
591.281,973.3
591.815,973.7
592.348,978.0
592.881,979.5
593.415,979.9
593.948,977.9
594.481,982.3
595.014,982.4
595.547,987.6
596.08,979.1
596.613,982.1
597.146,981.3
597.678,979.6
598.211,982.8
598.743,981.9
599.276,980.5
599.808,985.2
600.34,982.9
600.872,974.0
601.404,973.4
601.936,971.0
602.468,971.3
603.0,970.4
603.532,965.8
604.064,964.2
604.595,958.0
605.127,953.9
605.658,946.5
606.189,944.7
606.721,943.0
607.252,942.2
607.783,936.8
608.314,937.9
608.845,932.4
609.376,928.6
609.907,930.6
610.438,927.9
610.968,928.1
611.499,930.2
612.029,922.4
612.56,920.1
613.09,922.3
613.621,920.6
614.151,916.9
614.681,915.9
615.211,915.7
615.741,912.6
616.271,911.9
616.801,914.2
617.331,915.7
617.861,912.5
618.39,915.3
618.92,916.0
619.45,917.9
619.979,914.5
620.509,916.2
621.038,916.5
621.567,928.4
622.096,942.1
622.626,945.1
623.155,922.7
623.684,916.8
624.213,917.0
624.742,912.8
625.271,917.9
625.799,928.5
626.328,949.6
626.857,1135.4
627.386,1516.8
627.914,1252.8
628.443,1384.0
628.971,1344.0
629.5,1243.8
630.028,1144.8
630.556,1126.0
631.084,1013.7
631.613,955.6
632.141,937.4
632.669,927.8
633.197,928.8
633.725,924.7
634.253,921.8
634.781,919.1
635.308,917.9
635.836,914.6
636.364,916.0
636.891,917.7
637.419,910.6
637.947,911.2
638.474,912.1
639.002,909.9
639.529,913.7
640.056,910.0
640.584,909.0
641.111,908.1
641.638,910.8
642.165,908.1
642.692,911.7
643.219,911.7
643.746,910.8
644.273,906.9
644.8,910.0
645.327,906.7
645.854,910.1
646.381,907.5
646.908,908.1
647.434,905.6
647.961,908.1
648.488,908.8
649.014,909.3
649.541,907.7
650.067,907.4
650.594,906.7
651.12,903.9
651.646,903.7
652.173,907.4
652.699,904.7
653.225,901.9
653.752,902.5
654.278,901.0
654.804,902.0
655.33,898.6
655.856,895.2
656.382,894.7
656.908,895.4
657.434,895.5
657.96,894.7
658.486,893.3
659.012,890.9
659.538,892.4
660.064,892.9
660.589,892.1
661.115,890.2
661.641,883.9
662.166,879.2
662.692,881.7
663.086,884.0