File: spectra/VLFR_01-LDPE_bio_Raman_46e5b816.csv
nm,Intensity
528.626,1868.1
529.132,1868.8
529.637,1867.2
530.143,1866.9
530.648,1869.2
531.153,1868.8
531.658,1910.9
532.164,4755.6
532.669,1870.2
533.174,1870.2
533.679,1973.5
534.184,2313.9
534.689,2288.3
535.194,2271.7
535.699,2228.6
536.203,2187.2
536.708,2206.8
537.213,2175.2
537.717,2199.5
538.222,2171.9
538.726,2176.9
539.231,2158.0
539.735,2148.6
540.239,2150.9
540.744,2149.3
541.248,2146.6
541.752,2153.3
542.256,2159.8
542.76,2148.0
543.264,2132.6
543.768,2156.3
544.272,2138.9
544.776,2142.7
545.28,2146.2
545.784,2157.8
546.287,2142.9
546.791,2163.1
547.294,2153.4
547.798,2156.9
548.301,2171.5
548.805,2148.6
549.308,2161.5
549.811,2160.4
550.315,2166.4
550.818,2160.7
551.321,2166.4
551.824,2191.9
552.327,2177.1
552.83,2175.8
553.333,2192.3
553.835,2206.5
554.338,2220.8
554.841,2219.3
555.343,2238.4
555.846,2245.3
556.349,2249.9
556.851,2267.0
557.353,2287.7
557.856,2304.5
558.358,2336.9
558.86,2321.2
559.362,2321.5
559.864,2335.8
560.366,2332.7
560.868,2378.5
561.37,2393.2
561.872,2403.4
562.374,2452.3
562.876,2478.7
563.377,2514.7
563.879,2817.5
564.38,2710.7
564.882,2665.0
565.383,2681.1
565.885,2852.4
566.386,2887.6
566.887,2764.1
567.388,2781.1
567.889,2799.0
568.391,2814.0
568.892,2881.3
569.392,2988.8
569.893,3016.6
570.394,3088.9
570.895,3190.8
571.395,3879.1
571.896,3686.3
572.397,3658.6
572.897,3671.1
573.397,3825.0
573.898,3959.8
574.398,4133.2
574.898,4330.1
575.398,4733.6
575.898,5198.7
576.398,5783.9
576.898,5982.3
577.398,6024.8
577.898,6280.6
578.398,6622.1
578.897,7114.8
579.397,7520.7
579.896,7992.5
580.396,8512.7
580.895,9052.2
581.395,9535.8
581.894,10120.6
582.393,10135.8
582.892,10642.3
583.391,11285.6
583.89,11634.2
584.389,11990.7
584.888,12272.3
585.387,12911.2
585.886,13147.0
586.384,13636.6
586.883,14376.4
587.381,15127.9
587.88,15490.3
588.378,16120.3
588.876,16551.7
589.375,16901.5
589.873,17898.4
590.371,18053.9
590.869,19155.7
591.367,19663.7
591.865,19639.5
592.363,20201.9
592.86,20482.4
593.358,20954.7
593.856,20515.6
594.353,21027.2
594.851,21199.3
595.348,22156.5
595.845,22531.1
596.342,22742.2
596.84,23237.1
597.337,23502.6
597.834,23268.7
598.331,24258.1
598.828,25548.5
599.324,25026.6
599.821,25759.7
600.318,25994.1
600.814,25860.4
601.311,25387.1
601.807,25842.2
602.304,25475.2
602.8,25274.4
603.296,24807.7
603.792,23738.9
604.288,22596.5
604.784,21856.6
605.28,21599.5
605.776,20701.1
606.272,20034.2
606.767,18839.1
607.263,18603.2
607.759,18084.8
608.254,17196.4
608.749,16669.6
609.245,15911.4
609.74,15577.9
610.235,15542.4
610.73,15321.5
611.225,14618.9
611.72,14276.4
612.215,14033.4
612.71,13957.1
613.204,13718.0
613.699,13126.1
614.194,13044.7
614.688,12969.9
615.182,12254.4
615.677,12200.4
616.171,12063.8
616.665,11780.2
617.159,11476.4
617.653,11222.1
618.147,11203.7
618.641,10859.9
619.135,10908.0
619.628,10478.8
620.122,10723.3
620.615,10731.7
621.109,10238.5
621.602,10431.6
622.095,10251.8
622.589,10353.7
623.082,10280.9
623.575,10294.8
624.068,9885.7
624.561,9874.5
625.053,9883.1
625.546,9853.9
626.039,10003.7
626.531,10284.7
627.024,13352.9
627.516,13369.3
628.008,12445.2
628.501,14523.3
628.993,12705.8
629.485,12249.0
629.977,11910.6
630.469,11764.2
630.96,10933.8
631.452,10590.2
631.944,10250.6
632.435,10230.9
632.927,10329.3
633.418,10405.2
633.91,10418.0
634.401,10692.6
634.892,10685.6
635.383,10630.8
635.874,10462.9
636.365,11005.7
636.856,10884.6
637.346,11144.8
637.837,11051.9
638.327,11121.5
638.818,11179.5
639.308,11278.0
639.799,11485.7
640.289,11569.5
640.779,11501.5
641.269,11410.0
641.759,11292.0
642.249,11640.7
642.738,12025.6
643.228,11946.6
643.718,11709.9
644.207,11959.8
644.697,12062.5
645.186,11895.8
645.675,12135.2
646.164,11964.5
646.653,11872.0
647.142,11737.2
647.631,11748.7
648.12,11940.4
648.609,11650.0
649.098,12074.7
649.586,11832.8
650.075,11469.7
650.563,11379.2
651.051,11879.6
651.539,11370.7
652.027,11393.8
652.515,11193.9
653.003,11219.5
653.491,11141.9
653.979,10870.2
654.467,10734.1
654.954,10962.7
655.442,10669.0
655.929,10612.7
656.416,10344.3
656.904,10338.1
657.391,10070.2
657.878,9937.7
658.365,9254.1
658.851,9208.8
659.338,8482.3
659.825,8572.9
660.311,8463.8
660.798,8061.9
661.041,8088.2