File: spectra/VLFR_02-HDPE_bio_Raman_722c0e1c.csv
nm,Intensity
526.495,828.8
527.042,828.6
527.589,830.3
528.136,828.4
528.682,828.8
529.229,828.0
529.775,830.2
530.321,829.7
530.867,828.6
531.413,828.4
531.959,833.5
532.505,829.2
533.051,828.7
533.596,829.8
534.141,903.7
534.687,896.6
535.232,884.5
535.777,871.1
536.321,865.0
536.866,862.0
537.41,856.9
537.955,858.3
538.499,855.9
539.043,852.4
539.587,849.1
540.131,848.5
540.675,849.2
541.219,845.4
541.762,846.2
542.305,846.2
542.849,845.2
543.392,845.9
543.935,847.8
544.478,848.5
545.02,845.8
545.563,845.4
546.106,845.2
546.648,846.1
547.19,847.2
547.732,848.9
548.274,848.6
548.816,846.4
549.358,849.8
549.9,846.7
550.441,847.7
550.983,847.8
551.524,849.6
552.065,848.3
552.606,847.8
553.147,847.5
553.688,850.0
554.229,849.7
554.769,849.3
555.31,850.4
555.85,850.9
556.391,849.9
556.931,853.2
557.471,852.4
558.011,850.9
558.551,856.1
559.09,851.8
559.63,851.4
560.169,852.1
560.709,851.9
561.248,851.4
561.787,853.7
562.326,854.0
562.865,856.6
563.404,858.2
563.943,910.7
564.481,874.2
565.02,866.4
565.558,862.9
566.096,926.8
566.634,865.1
567.172,860.0
567.71,865.0
568.248,856.5
568.786,858.7
569.324,858.2
569.861,857.5
570.399,861.5
570.936,867.6
571.473,960.5
572.01,879.9
572.547,865.1
573.084,861.4
573.621,863.8
574.158,867.2
574.694,861.4
575.231,866.2
575.767,897.5
576.303,985.6
576.84,925.7
577.376,904.0
577.912,874.6
578.448,870.1
578.984,872.6
579.519,869.2
580.055,872.0
580.59,874.0
581.126,873.3
581.661,877.1
582.196,882.6
582.731,880.8
583.267,885.4
583.801,891.6
584.336,895.9
584.871,899.7
585.406,908.4
585.94,912.5
586.475,917.9
587.009,930.2
587.543,935.5
588.078,951.6
588.612,958.7
589.146,967.1
589.68,967.4
590.214,980.4
590.747,985.1
591.281,993.3
591.815,994.1
592.348,993.6
592.881,996.2
593.415,993.2
593.948,993.2
594.481,985.0
595.014,988.5
595.547,987.8
596.08,979.6
596.613,977.1
597.146,976.0
597.678,975.2
598.211,976.6
598.743,972.8
599.276,977.9
599.808,975.6
600.34,969.3
600.872,968.2
601.404,963.8
601.936,968.7
602.468,961.9
603.0,960.8
603.532,959.8
604.064,959.3
604.595,952.8
605.127,950.3
605.658,944.4
606.189,939.5
606.721,943.1
607.252,930.0
607.783,932.2
608.314,931.1
608.845,929.4
609.376,922.3
609.907,921.5
610.438,925.2
610.968,917.8
611.499,918.0
612.029,918.8
612.56,917.1
613.09,916.1
613.621,915.7
614.151,911.5
614.681,909.8
615.211,912.0
615.741,908.4
616.271,908.9
616.801,910.2
617.331,910.7
617.861,910.3
618.39,911.4
618.92,908.9
619.45,912.9
619.979,910.1
620.509,910.0
621.038,909.0
621.567,921.7
622.096,939.1
622.626,937.9
623.155,910.8
623.684,904.6
624.213,903.8
624.742,904.0
625.271,908.6
625.799,912.2
626.328,938.8
626.857,1150.4
627.386,1513.8
627.914,1245.9
628.443,1454.4
628.971,1276.1
629.5,1182.7
630.028,1092.5
630.556,1071.0
631.084,968.9
631.613,921.6
632.141,912.7
632.669,908.1
633.197,906.8
633.725,899.6
634.253,905.7
634.781,903.4
635.308,904.5
635.836,900.7
636.364,901.1
636.891,910.1
637.419,907.1
637.947,904.0
638.474,904.8
639.002,910.3
639.529,912.7
640.056,914.6
640.584,913.4
641.111,918.8
641.638,921.5
642.165,923.4
642.692,922.4
643.219,926.5
643.746,922.0
644.273,923.8
644.8,924.4
645.327,924.4
645.854,926.4
646.381,922.5
646.908,924.4
647.434,930.3
647.961,924.1
648.488,925.3
649.014,922.9
649.541,921.0
650.067,923.1
650.594,923.3
651.12,916.3
651.646,918.5
652.173,918.4
652.699,907.9
653.225,911.2
653.752,910.3
654.278,907.7
654.804,906.4
655.33,906.7
655.856,902.1
656.382,900.5
656.908,898.5
657.434,893.9
657.96,898.5
658.486,892.9
659.012,893.6
659.538,890.5
660.064,891.0
660.589,888.1
661.115,885.0
661.641,885.8
662.166,883.0
662.692,881.5
663.086,878.5