File: spectra/VLFR_07-PET_bio_Raman_63b2abb0.csv
nm,Intensity
791.377,13468.4
792.477,12108.4
793.576,11379.7
794.676,11025.1
795.775,10777.4
796.874,10573.4
797.973,10713.1
799.072,10621.0
800.171,10580.3
801.27,10615.2
802.368,10529.9
803.467,10382.3
804.565,10208.4
805.664,10096.7
806.762,9912.68
807.86,9973.26
808.958,9803.84
810.056,9703.92
811.153,9624.94
812.251,9561.52
813.349,9416.64
814.446,9355.96
815.543,9328.84
816.64,9232.68
817.737,9075.88
818.834,9018.78
819.931,8916.68
821.028,8802.1
822.125,8799.98
823.221,8680.3
824.317,8642.4
825.414,8707.6
826.51,8714.48
827.606,8349.18
828.702,8383.32
829.797,8372.52
830.893,8389.28
831.988,8043.36
833.084,8128.8
834.179,7983.3
835.274,7928.68
836.369,7856.06
837.464,8039.4
838.559,8011.66
839.654,7903.48
840.748,8018.22
841.843,8168.9
842.937,7807.82
844.031,7719.22
845.125,7546.6
846.219,7429.14
847.313,7343.82
848.407,7233.84
849.5,7170.5
850.593,7226.72
851.687,7196.94
852.78,7085.16
853.873,7102.12
854.966,7075.7
856.059,6967.68
857.151,6910.86
858.244,7042.6
859.336,7100.86
860.428,7120.44
861.52,6915.82
862.612,6742.32
863.704,6749.52
864.796,6713.46
865.888,6682.64
866.979,6585.88
868.07,6510.94
869.162,6536.44
870.253,6586.84
871.344,6694.68
872.434,6815.6
873.525,6971.82
874.615,6708.6
875.706,6486.5
876.796,6388.5
877.886,6309.74
878.976,6222.86
880.066,6219.58
881.156,6220.76
882.245,6196.8
883.335,6157.56
884.424,6157.66
885.513,6087.92
886.602,6068.22
887.691,5996.06
888.78,5940.7
889.868,5893.54
890.957,5910.22
892.045,5862.74
893.133,5800.78
894.221,5739.66
895.309,5730.36
896.397,5697.34
897.484,5890.1
898.571,6546.36
899.659,6173.28
900.746,5658.48
901.833,5478.26
902.92,5469.36
904.006,5472.32
905.093,5413.56
906.179,5564.04
907.266,5875.96
908.352,5997.82
909.438,5632.7
910.523,5341.28
911.609,5203.56
912.695,5188.64
913.78,5136.26
914.865,5059.02
915.95,5081.18
917.035,5018.24
918.12,4972.16
919.204,4973.12
920.289,4930.98
921.373,4898.2
922.457,4859.66
923.541,4825.78
924.625,4826.88
925.709,4777.5
926.792,4756.6
927.876,4724.8
928.959,4662.12
930.042,4684.5
931.125,4614.6
932.208,4617.78
933.29,4595.36
934.373,4573.46
935.455,4520.68
936.537,4522.94
937.619,4496.4
938.701,4470.36
939.782,4451.44
940.864,4421.46
941.945,4412.84
943.026,4382.8
944.107,4368.62
945.188,4347.62
946.269,4325.46
947.349,4315.66
948.43,4298.84
949.51,4281.98
950.59,4281.28
951.67,4249.6
952.75,4233.64
953.829,4216.5
954.909,4204.96
955.988,4194.68
957.067,4176.04
958.146,4166.66
959.224,4160.28
960.303,4138.28
961.381,4128.66
962.459,4120.04
963.537,4101.18
964.615,4096.86
965.693,4091.64
966.771,4076.96
967.848,4066.56
968.925,4073.2
970.002,4045.9
971.079,4032.68
972.156,4023.48
973.232,4030.88
974.309,4019.84
975.385,4004.14
976.461,3995.7
977.537,3988.36
978.612,3980.2
979.688,3977.06
980.763,3979.14
981.838,3967.38
982.913,3960.96
983.988,3946.88
985.063,3947.78
986.137,3939.28
987.211,3945.44
988.285,3930.96
989.359,3928.66
990.433,3920.16
991.506,3910.64
992.58,3902.84
993.653,3902.02
994.726,3902.22
995.799,3891.34
996.872,3891.14
997.944,3884.36
999.016,3877.26
1000.09,3878.42
1001.16,3872.46
1002.23,3873.08
1003.3,3865.2
1004.38,3862.64
1005.45,3860.42
1006.52,3854.0
1007.59,3851.28
1008.66,3850.08
1009.73,3848.94
1010.8,3841.9
1011.87,3843.06
1012.94,3840.66
1014.01,3838.78
1015.08,3835.76
1016.15,3836.98
1017.22,3830.52
1018.29,3830.4
1019.36,3828.2
1020.42,3827.68
1021.49,3831.72
1022.56,3836.76
1023.63,3833.6
1024.7,3829.06
1025.76,3823.16
1026.83,3816.86
1027.9,3816.02
1028.97,3812.3
1030.03,3807.84
1031.1,3807.38
1032.17,3805.42
1033.23,3806.72
1034.3,3809.74
1035.36,3810.58
1036.43,3808.64
1037.5,3805.58
1038.56,3799.94
1039.63,3797.58
1040.69,3794.88
1041.76,3793.9
1042.82,3792.5
1043.89,3791.94
1044.95,3791.6
1046.01,3789.52
1047.08,3790.6
1048.14,3789.74
1049.2,3789.2
1050.27,3789.16
1051.33,3789.36
1052.39,3787.38
1053.46,3787.74
1054.52,3787.12
1055.58,3786.9
1056.64,3786.6
1057.7,3786.82
1058.77,3786.04
1059.83,3786.06
1060.89,3784.58
1061.95,3784.7
1063.01,3786.48
1064.07,3785.96
1065.13,3785.34
1066.19,3784.22
1067.25,3784.04
1068.05,3783.36