File: spectra/VLFR_02-HDPE_bio_Raman_c41e6d9c.csv
nm,Intensity
528.629,1849.35
529.134,1849.75
529.639,1850.2
530.145,1849.95
530.65,1851.2
531.155,1851.85
531.66,1872.15
532.165,2680.15
532.67,1851.5
533.175,1850.15
533.68,1856.2
534.185,1871.45
534.69,1874.25
535.195,1876.55
535.699,1875.15
536.204,1873.35
536.709,1874.85
537.213,1876.5
537.718,1877.05
538.222,1879.15
538.727,1880.65
539.231,1879.05
539.735,1881.75
540.239,1883.45
540.744,1881.55
541.248,1885.8
541.752,1883.9
542.256,1885.15
542.76,1879.9
543.264,1882.75
543.768,1879.7
544.271,1879.75
544.775,1881.55
545.279,1882.4
545.783,1882.3
546.286,1879.75
546.79,1882.55
547.293,1879.45
547.797,1880.05
548.3,1883.75
548.803,1883.75
549.306,1885.65
549.81,1884.0
550.313,1886.25
550.816,1885.1
551.319,1887.2
551.822,1885.9
552.325,1885.6
552.828,1888.9
553.33,1890.25
553.833,1890.05
554.336,1890.05
554.838,1887.2
555.341,1888.05
555.843,1893.75
556.346,1887.9
556.848,1891.95
557.35,1892.25
557.853,1888.05
558.355,1894.6
558.857,1895.95
559.359,1895.35
559.861,1895.35
560.363,1896.25
560.865,1895.25
561.367,1893.25
561.869,1896.35
562.37,1895.45
562.872,1900.15
563.374,1899.0
563.875,1899.35
564.376,1895.45
564.878,1899.6
565.379,1897.45
565.881,1900.75
566.382,1903.5
566.883,1898.4
567.384,1899.4
567.885,1901.8
568.386,1902.35
568.887,1904.7
569.388,1900.9
569.888,1902.25
570.389,1901.3
570.89,1903.5
571.39,1908.65
571.891,1903.1
572.391,1905.25
572.892,1902.35
573.392,1902.85
573.892,1909.7
574.393,1901.8
574.893,1902.9
575.393,1906.8
575.893,1911.5
576.393,1908.15
576.893,1909.4
577.392,1904.35
577.892,1907.95
578.392,1907.45
578.891,1905.15
579.391,1908.85
579.89,1908.5
580.39,1907.0
580.889,1908.3
581.388,1905.55
581.888,1907.65
582.387,1906.3
582.886,1906.75
583.385,1912.3
583.884,1907.9
584.383,1908.0
584.881,1906.65
585.38,1904.55
585.879,1906.3
586.377,1909.1
586.876,1905.6
587.374,1909.7
587.873,1907.35
588.371,1909.45
588.869,1909.3
589.368,1910.1
589.866,1906.4
590.364,1910.25
590.862,1910.3
591.36,1904.9
591.857,1908.85
592.355,1910.85
592.853,1909.15
593.35,1910.75
593.848,1912.4
594.345,1907.55
594.843,1908.8
595.34,1905.35
595.837,1917.15
596.335,1907.9
596.832,1912.0
597.329,1911.0
597.826,1912.85
598.323,1907.9
598.819,1910.25
599.316,1907.05
599.813,1915.45
600.309,1908.95
600.806,1911.3
601.302,1909.9
601.799,1915.35
602.295,1918.55
602.791,1913.45
603.288,1911.05
603.784,1913.35
604.28,1909.1
604.776,1908.1
605.272,1906.7
605.767,1907.5
606.263,1909.05
606.759,1911.55
607.254,1911.4
607.75,1907.15
608.245,1909.9
608.74,1909.45
609.236,1908.35
609.731,1914.25
610.226,1907.85
610.721,1913.65
611.216,1906.15
611.711,1909.15
612.206,1907.4
612.7,1912.2
613.195,1907.3
613.69,1907.15
614.184,1906.3
614.679,1909.6
615.173,1910.45
615.667,1904.9
616.161,1910.55
616.656,1904.0
617.15,1909.35
617.644,1905.3
618.137,1903.9
618.631,1906.6
619.125,1904.8
619.619,1909.7
620.112,1901.95
620.606,1905.7
621.099,1905.6
621.592,1906.85
622.086,1903.4
622.579,1907.15
623.072,1906.45
623.565,1908.95
624.058,1908.05
624.551,1904.7
625.043,1901.55
625.536,1903.15
626.029,1904.45
626.521,1905.4
627.014,1928.7
627.506,1919.75
627.998,1913.4
628.49,1926.6
628.983,1917.9
629.475,1909.25
629.966,1910.25
630.458,1907.0
630.95,1902.65
631.442,1897.1
631.933,1899.4
632.425,1898.5
632.916,1898.35
633.408,1904.0
633.899,1898.6
634.39,1896.8
634.881,1898.1
635.372,1901.9
635.863,1897.65
636.354,1895.2
636.845,1893.8
637.336,1894.45
637.826,1897.45
638.317,1894.45
638.807,1892.85
639.298,1894.7
639.788,1892.6
640.278,1894.2
640.768,1892.15
641.258,1894.3
641.748,1893.85
642.238,1893.55
642.728,1888.8
643.217,1889.15
643.707,1890.15
644.197,1889.65
644.686,1889.85
645.175,1891.35
645.664,1887.5
646.154,1893.05
646.643,1888.15
647.132,1892.4
647.621,1888.1
648.109,1888.8
648.598,1889.2
649.087,1886.05
649.575,1889.65
650.064,1886.45
650.552,1885.2
651.04,1883.75
651.528,1889.15
652.017,1887.2
652.505,1886.25
652.992,1886.85
653.48,1886.3
653.968,1886.0
654.456,1883.5
654.943,1884.65
655.431,1884.2
655.918,1881.5
656.405,1884.8
656.893,1879.35
657.38,1878.4
657.867,1882.8
658.354,1879.15
658.84,1878.95
659.327,1877.15
659.814,1878.4
660.3,1878.65
660.787,1875.25
661.03,1875.85