File: spectra/VLFR_07-PET_nobio_Raman_e5af63c6.csv
nm,Intensity
791.377,12236.8
792.477,10981.9
793.576,10255.7
794.676,9942.24
795.775,9703.78
796.874,9614.3
797.973,9549.74
799.072,9624.42
800.171,9560.18
801.27,9503.66
802.368,9450.78
803.467,9236.0
804.565,9080.22
805.664,9060.42
806.762,9082.08
807.86,8933.46
808.958,8865.42
810.056,8772.7
811.153,8656.78
812.251,8624.9
813.349,8445.88
814.446,8321.58
815.543,8330.98
816.64,8370.34
817.737,8108.6
818.834,8063.78
819.931,8010.84
821.028,7870.6
822.125,7874.36
823.221,7853.32
824.317,7763.34
825.414,7878.7
826.51,7749.14
827.606,7601.32
828.702,7446.7
829.797,7535.04
830.893,7600.78
831.988,7405.96
833.084,7318.04
834.179,7299.4
835.274,7243.94
836.369,7292.0
837.464,7275.28
838.559,7268.4
839.654,7217.68
840.748,7395.22
841.843,7624.72
842.937,7148.14
844.031,7039.82
845.125,6899.96
846.219,6742.52
847.313,6724.76
848.407,6689.3
849.5,6568.86
850.593,6553.2
851.687,6659.12
852.78,6518.04
853.873,6522.6
854.966,6484.08
856.059,6407.84
857.151,6342.32
858.244,6381.44
859.336,6568.58
860.428,6568.9
861.52,6310.02
862.612,6214.52
863.704,6231.04
864.796,6241.78
865.888,6123.74
866.979,6024.2
868.07,6005.74
869.162,6055.9
870.253,6024.84
871.344,6181.08
872.434,6419.26
873.525,6410.96
874.615,6151.82
875.706,5955.58
876.796,5847.54
877.886,5803.84
878.976,5833.72
880.066,5764.6
881.156,5726.74
882.245,5761.28
883.335,5696.88
884.424,5664.2
885.513,5723.24
886.602,5618.74
887.691,5604.64
888.78,5455.3
889.868,5511.88
890.957,5490.3
892.045,5483.8
893.133,5436.36
894.221,5383.02
895.309,5332.88
896.397,5401.12
897.484,5618.6
898.571,6112.8
899.659,5698.04
900.746,5226.46
901.833,5203.18
902.92,5133.36
904.006,5137.14
905.093,5087.86
906.179,5256.88
907.266,5619.74
908.352,5589.04
909.438,5280.88
910.523,4988.08
911.609,4918.78
912.695,4870.52
913.78,4838.58
914.865,4816.42
915.95,4774.8
917.035,4775.12
918.12,4743.5
919.204,4713.66
920.289,4670.4
921.373,4649.0
922.457,4608.96
923.541,4603.56
924.625,4583.84
925.709,4566.7
926.792,4511.86
927.876,4513.4
928.959,4455.58
930.042,4470.02
931.125,4406.98
932.208,4399.24
933.29,4401.72
934.373,4369.9
935.455,4361.74
936.537,4329.1
937.619,4308.04
938.701,4286.92
939.782,4266.68
940.864,4253.72
941.945,4255.58
943.026,4224.6
944.107,4211.36
945.188,4182.96
946.269,4185.44
947.349,4168.24
948.43,4151.02
949.51,4142.34
950.59,4135.42
951.67,4108.94
952.75,4096.96
953.829,4084.12
954.909,4082.04
955.988,4067.6
957.067,4070.76
958.146,4051.96
959.224,4032.14
960.303,4026.46
961.381,4018.36
962.459,3997.76
963.537,4004.2
964.615,3981.44
965.693,3986.32
966.771,3980.46
967.848,3969.52
968.925,3970.92
970.002,3954.06
971.079,3943.14
972.156,3945.24
973.232,3931.66
974.309,3927.72
975.385,3924.8
976.461,3910.52
977.537,3907.66
978.612,3906.36
979.688,3904.7
980.763,3890.82
981.838,3886.76
982.913,3888.92
983.988,3876.2
985.063,3875.92
986.137,3871.62
987.211,3869.44
988.285,3858.64
989.359,3858.0
990.433,3848.8
991.506,3848.72
992.58,3844.4
993.653,3834.9
994.726,3828.72
995.799,3832.74
996.872,3828.4
997.944,3823.02
999.016,3824.8
1000.09,3816.88
1001.16,3813.82
1002.23,3812.06
1003.3,3809.14
1004.38,3807.56
1005.45,3800.88
1006.52,3800.74
1007.59,3798.58
1008.66,3797.48
1009.73,3791.44
1010.8,3788.84
1011.87,3787.72
1012.94,3786.84
1014.01,3784.56
1015.08,3784.38
1016.15,3783.22
1017.22,3781.72
1018.29,3779.04
1019.36,3775.4
1020.42,3777.62
1021.49,3780.3
1022.56,3786.56
1023.63,3785.28
1024.7,3779.74
1025.76,3773.1
1026.83,3769.3
1027.9,3765.24
1028.97,3761.72
1030.03,3759.72
1031.1,3758.28
1032.17,3758.34
1033.23,3756.88
1034.3,3762.02
1035.36,3763.28
1036.43,3763.16
1037.5,3756.06
1038.56,3751.06
1039.63,3750.1
1040.69,3748.04
1041.76,3747.38
1042.82,3746.66
1043.89,3746.7
1044.95,3745.28
1046.01,3743.7
1047.08,3743.48
1048.14,3743.32
1049.2,3741.6
1050.27,3742.14
1051.33,3742.66
1052.39,3741.44
1053.46,3740.66
1054.52,3740.82
1055.58,3741.52
1056.64,3740.1
1057.7,3741.52
1058.77,3740.24
1059.83,3739.28
1060.89,3739.5
1061.95,3738.84
1063.01,3739.68
1064.07,3739.36
1065.13,3739.1
1066.19,3739.36
1067.25,3738.04
1068.05,3738.16