File: spectra/VLFR_07-PET_bio_Raman_687cd977.csv
nm,Intensity
791.75,6508.35
792.846,6339.55
793.942,6328.8
795.037,6229.65
796.133,6180.9
797.228,6238.05
798.324,6226.3
799.419,6267.35
800.514,6179.25
801.61,6200.2
802.705,6147.6
803.8,6126.1
804.894,6142.25
805.989,6086.65
807.084,6034.4
808.178,6001.1
809.273,5970.6
810.367,5937.8
811.461,5961.35
812.556,5883.7
813.65,5856.7
814.744,5834.65
815.837,5794.15
816.931,5726.1
818.025,5720.25
819.118,5717.9
820.212,5725.45
821.305,5671.05
822.398,5620.0
823.491,5586.1
824.585,5578.35
825.677,5621.9
826.77,5508.95
827.863,5489.1
828.956,5445.0
830.048,5473.15
831.14,5448.55
832.233,5400.35
833.325,5366.55
834.417,5354.45
835.509,5311.05
836.601,5324.7
837.692,5321.8
838.784,5284.9
839.876,5222.45
840.967,5279.8
842.058,5286.2
843.149,5199.9
844.24,5213.5
845.331,5148.15
846.422,5115.7
847.513,5123.1
848.604,5068.25
849.694,5062.05
850.784,5041.25
851.875,5081.05
852.965,5012.2
854.055,5006.4
855.145,4968.9
856.235,5029.5
857.324,5007.5
858.414,4983.2
859.503,5018.15
860.593,4995.55
861.682,4949.75
862.771,4948.55
863.86,4935.9
864.949,4907.2
866.038,4905.35
867.126,4866.35
868.215,4869.2
869.303,4884.5
870.391,4890.35
871.479,4903.05
872.567,4945.15
873.655,4894.15
874.743,4881.25
875.831,4806.45
876.918,4843.2
878.006,4791.25
879.093,4774.3
880.18,4745.9
881.267,4770.95
882.354,4738.8
883.441,4696.6
884.527,4718.0
885.614,4709.55
886.7,4681.55
887.786,4676.2
888.872,4648.55
889.958,4632.4
891.044,4640.45
892.13,4593.85
893.216,4591.15
894.301,4560.0
895.386,4548.85
896.472,4554.6
897.557,4593.45
898.642,4662.45
899.726,4589.3
900.811,4488.6
901.896,4455.6
902.98,4473.75
904.064,4441.05
905.148,4426.65
906.232,4477.4
907.316,4506.1
908.4,4508.6
909.484,4437.4
910.567,4376.05
911.65,4356.45
912.734,4332.0
913.817,4306.5
914.9,4295.95
915.982,4260.6
917.065,4278.8
918.147,4248.2
919.23,4254.6
920.312,4223.05
921.394,4227.15
922.476,4221.75
923.558,4190.3
924.639,4190.2
925.721,4171.05
926.802,4169.75
927.884,4148.1
928.965,4125.45
930.046,4118.6
931.126,4119.6
932.207,4097.1
933.288,4095.05
934.368,4074.3
935.448,4051.95
936.528,4057.4
937.608,4045.55
938.688,4043.8
939.767,4033.05
940.847,4020.95
941.926,4016.45
943.005,3999.35
944.084,3996.75
945.163,3981.35
946.242,3986.5
947.321,3975.9
948.399,3971.3
949.477,3962.65
950.556,3950.2
951.634,3945.7
952.711,3938.5
953.789,3937.9
954.867,3926.9
955.944,3922.85
957.021,3925.3
958.098,3911.35
959.175,3901.8
960.252,3898.45
961.328,3891.15
962.405,3892.75
963.481,3889.55
964.557,3883.7
965.633,3876.45
966.709,3875.75
967.785,3868.25
968.86,3867.75
969.936,3855.75
971.011,3854.25
972.086,3856.2
973.161,3849.85
974.235,3844.0
975.31,3846.85
976.384,3837.1
977.459,3840.55
978.533,3833.0
979.607,3830.05
980.68,3825.1
981.754,3824.8
982.827,3824.2
983.901,3817.35
984.974,3815.8
986.047,3818.0
987.119,3813.2
988.192,3812.1
989.264,3807.8
990.337,3801.75
991.409,3804.35
992.481,3797.0
993.553,3799.4
994.624,3793.3
995.696,3792.05
996.767,3788.15
997.838,3788.05
998.909,3790.45
999.98,3786.85
1001.05,3780.75
1002.12,3782.65
1003.19,3777.8
1004.26,3776.6
1005.33,3775.5
1006.4,3774.25
1007.47,3772.1
1008.54,3768.65
1009.61,3767.65
1010.68,3770.0
1011.75,3767.5
1012.82,3764.4
1013.88,3764.7
1014.95,3762.4
1016.02,3761.95
1017.09,3761.15
1018.16,3759.85
1019.22,3758.45
1020.29,3759.4
1021.36,3760.0
1022.43,3762.85
1023.49,3759.35
1024.56,3756.45
1025.63,3754.9
1026.69,3753.55
1027.76,3753.55
1028.83,3750.4
1029.89,3748.9
1030.96,3749.35
1032.02,3748.85
1033.09,3749.55
1034.15,3749.0
1035.22,3749.8
1036.28,3748.9
1037.35,3747.0
1038.41,3744.4
1039.48,3745.5
1040.54,3744.2
1041.6,3743.6
1042.67,3742.25
1043.73,3742.85
1044.79,3741.35
1045.86,3742.0
1046.92,3741.65
1047.98,3740.55
1049.05,3740.45
1050.11,3740.9
1051.17,3739.85
1052.23,3739.2
1053.29,3740.75
1054.36,3739.0
1055.42,3740.65
1056.48,3739.2
1057.54,3738.6
1058.6,3739.5
1059.66,3738.55
1060.72,3738.95
1061.78,3738.75
1062.84,3738.6
1063.9,3738.3
1064.96,3737.75
1066.02,3738.35
1067.08,3738.25
1067.88,3737.9