File: spectra/VLFR_02-HDPE_bio_Raman_e0a1680f.csv
nm,Intensity
528.65,1856.05
529.155,1856.8
529.66,1854.75
530.165,1856.75
530.67,1856.55
531.175,1857.9
531.68,1879.05
532.185,2611.55
532.69,1857.25
533.194,1857.05
533.699,1914.3
534.204,2073.4
534.708,2083.55
535.213,2089.7
535.717,2075.95
536.222,2077.3
536.726,2088.05
537.231,2083.15
537.735,2106.0
538.239,2100.05
538.743,2108.6
539.247,2118.0
539.751,2109.35
540.255,2095.3
540.759,2115.4
541.263,2119.25
541.767,2127.0
542.271,2126.05
542.775,2133.0
543.279,2138.05
543.782,2133.15
544.286,2141.1
544.789,2143.65
545.293,2142.5
545.796,2153.4
546.3,2145.7
546.803,2154.85
547.306,2156.7
547.81,2169.95
548.313,2168.0
548.816,2182.1
549.319,2185.7
549.822,2185.05
550.325,2198.6
550.828,2202.4
551.331,2208.0
551.834,2209.0
552.337,2216.2
552.839,2216.4
553.342,2231.65
553.844,2224.05
554.347,2226.3
554.849,2243.8
555.352,2246.75
555.854,2256.35
556.357,2258.4
556.859,2269.55
557.361,2257.4
557.863,2274.25
558.365,2282.4
558.867,2306.85
559.369,2298.8
559.871,2300.85
560.373,2321.85
560.875,2324.55
561.377,2341.8
561.878,2336.45
562.38,2353.15
562.881,2363.5
563.383,2376.8
563.884,2481.35
564.386,2438.8
564.887,2414.6
565.388,2420.15
565.89,2505.3
566.391,2526.55
566.892,2432.2
567.393,2438.0
567.894,2444.25
568.395,2450.65
568.896,2476.85
569.396,2472.35
569.897,2493.85
570.398,2505.5
570.898,2524.65
571.399,2770.95
571.9,2612.1
572.4,2578.6
572.9,2563.1
573.401,2595.75
573.901,2633.05
574.401,2623.35
574.901,2639.3
575.401,2765.9
575.901,2820.35
576.401,2955.3
576.901,2918.45
577.401,2877.95
577.901,2839.15
578.4,2848.0
578.9,2934.45
579.399,2959.8
579.899,3024.3
580.398,3077.7
580.898,3156.05
581.397,3183.65
581.896,3241.65
582.395,3307.65
582.895,3337.0
583.394,3453.7
583.893,3495.45
584.391,3546.0
584.89,3580.95
585.389,3647.0
585.888,3725.3
586.386,3775.2
586.885,3811.65
587.384,3884.5
587.882,4007.1
588.38,4059.95
588.879,4105.9
589.377,4146.3
589.875,4244.15
590.373,4359.15
590.871,4416.5
591.369,4541.05
591.867,4577.1
592.365,4662.6
592.863,4689.7
593.361,4790.75
593.858,4775.85
594.356,4812.55
594.853,4941.2
595.351,5036.15
595.848,5131.15
596.345,5195.5
596.843,5276.3
597.34,5390.5
597.837,5353.6
598.334,5399.45
598.831,5539.9
599.328,5575.7
599.824,5610.7
600.321,5652.05
600.818,5730.15
601.314,5638.1
601.811,5750.7
602.307,5724.7
602.804,5601.0
603.3,5640.25
603.796,5561.35
604.293,5536.5
604.789,5495.4
605.285,5416.9
605.781,5362.3
606.277,5356.65
606.772,5181.45
607.268,5162.15
607.764,5065.95
608.259,5095.5
608.755,5041.25
609.25,4958.25
609.746,4873.05
610.241,4823.4
610.736,4727.5
611.231,4720.65
611.727,4656.45
612.222,4614.4
612.716,4546.9
613.211,4494.45
613.706,4465.7
614.201,4456.0
614.695,4359.3
615.19,4383.45
615.684,4343.8
616.179,4282.15
616.673,4281.9
617.168,4238.15
617.662,4177.7
618.156,4159.2
618.65,4122.15
619.144,4178.8
619.638,4131.0
620.131,4080.0
620.625,4097.0
621.119,4060.05
621.612,4030.05
622.106,4079.8
622.599,4078.25
623.093,3987.65
623.586,3922.4
624.079,3985.7
624.572,3947.95
625.065,3932.7
625.558,3899.9
626.051,3937.4
626.544,4075.15
627.037,5116.45
627.529,4970.9
628.022,4581.8
628.514,5220.95
629.007,4775.45
629.499,4526.45
629.991,4312.25
630.483,4264.85
630.976,4102.2
631.468,3959.4
631.959,3952.5
632.451,3931.3
632.943,3983.35
633.435,3950.4
633.926,3934.8
634.418,3932.8
634.909,3972.7
635.401,3926.6
635.892,3909.5
636.383,3955.9
636.874,3949.9
637.365,3981.5
637.856,4005.95
638.347,4039.4
638.838,4004.7
639.329,4057.2
639.819,4003.3
640.31,4045.0
640.8,3991.3
641.291,4125.05
641.781,4061.6
642.271,4092.35
642.761,4041.3
643.251,4050.05
643.741,4129.5
644.231,4072.25
644.721,4100.25
645.211,4097.65
645.7,4061.5
646.19,4097.05
646.679,4149.75
647.169,4160.7
647.658,4099.0
648.147,4085.35
648.636,4092.85
649.125,4054.95
649.614,4075.55
650.103,4041.05
650.592,4077.5
651.08,4123.05
651.569,4033.1
652.058,4074.15
652.546,4082.0
653.034,4047.85
653.523,3916.95
654.011,3976.85
654.499,3978.45
654.987,3874.35
655.475,3964.55
655.963,3911.2
656.45,3872.55
656.938,3777.75
657.425,3816.25
657.913,3752.3
658.4,3703.7
658.888,3746.4
659.375,3640.15
659.862,3577.25
660.349,3575.0
660.836,3518.85
661.079,3445.1