File: spectra/VLFR_01-LDPE_nobio_Raman_5489cf5d.csv
nm,Intensity
526.532,833.2
527.079,833.5
527.625,833.65
528.172,832.9
528.718,833.9
529.265,833.2
529.811,834.0
530.357,833.1
530.903,833.8
531.449,833.8
531.994,840.7
532.54,833.25
533.085,833.0
533.63,834.6
534.176,914.1
534.721,899.1
535.266,884.9
535.81,873.15
536.355,866.7
536.9,865.35
537.444,863.25
537.988,862.4
538.533,860.4
539.077,857.8
539.621,853.85
540.165,854.1
540.708,854.0
541.252,851.45
541.795,850.95
542.339,851.3
542.882,849.35
543.425,851.3
543.968,849.25
544.511,848.0
545.054,848.2
545.597,849.2
546.139,849.8
546.682,848.4
547.224,849.4
547.766,848.95
548.308,848.65
548.85,846.25
549.392,847.5
549.934,847.35
550.475,847.05
551.017,847.75
551.558,846.8
552.1,848.7
552.641,847.9
553.182,849.3
553.723,849.5
554.264,851.45
554.804,852.1
555.345,852.3
555.885,854.95
556.426,855.35
556.966,857.85
557.506,859.7
558.046,861.65
558.586,864.0
559.126,861.3
559.665,860.45
560.205,859.3
560.745,858.6
561.284,859.25
561.823,861.8
562.362,864.55
562.901,867.1
563.44,871.8
563.979,936.2
564.518,890.5
565.056,881.65
565.595,880.3
566.133,940.1
566.671,882.45
567.21,877.7
567.748,879.1
568.285,879.8
568.823,877.95
569.361,882.05
569.899,883.55
570.436,888.25
570.974,897.0
571.511,1018.65
572.048,926.8
572.585,909.0
573.122,907.6
573.659,913.7
574.196,919.65
574.733,916.1
575.269,928.4
575.806,970.9
576.342,1083.85
576.878,1037.35
577.414,1014.05
577.951,989.2
578.486,1001.65
579.022,1010.35
579.558,1023.65
580.094,1041.5
580.629,1056.45
581.165,1075.8
581.7,1087.4
582.236,1102.05
582.771,1118.85
583.306,1136.35
583.841,1150.6
584.376,1163.65
584.911,1177.8
585.445,1192.1
585.98,1207.5
586.514,1232.3
587.049,1252.35
587.583,1274.75
588.117,1296.1
588.651,1313.65
589.186,1339.1
589.72,1355.95
590.253,1371.95
590.787,1395.1
591.321,1412.8
591.854,1424.6
592.388,1426.2
592.921,1437.95
593.455,1444.9
593.988,1450.9
594.521,1462.5
595.054,1475.6
595.587,1487.15
596.12,1508.45
596.653,1530.9
597.186,1543.3
597.718,1564.7
598.251,1587.05
598.783,1610.75
599.316,1632.45
599.848,1640.6
600.38,1654.3
600.912,1639.7
601.444,1634.55
601.976,1638.5
602.508,1611.0
603.04,1600.4
603.572,1581.35
604.103,1551.7
604.635,1521.1
605.167,1479.85
605.698,1448.05
606.229,1424.7
606.761,1389.2
607.292,1371.7
607.823,1354.8
608.354,1331.35
608.885,1315.35
609.416,1298.2
609.947,1285.2
610.477,1270.7
611.008,1261.65
611.539,1252.7
612.069,1240.7
612.6,1238.55
613.13,1230.8
613.66,1216.95
614.19,1214.5
614.721,1200.95
615.251,1192.95
615.781,1180.3
616.311,1178.85
616.841,1169.0
617.37,1166.35
617.9,1163.0
618.43,1155.0
618.96,1150.4
619.489,1143.55
620.019,1145.1
620.548,1136.6
621.077,1144.1
621.607,1153.3
622.136,1179.1
622.665,1173.15
623.194,1140.9
623.723,1131.2
624.252,1127.45
624.781,1124.9
625.31,1129.5
625.839,1136.9
626.368,1169.8
626.896,1485.35
627.425,1910.65
627.953,1610.95
628.482,1939.3
629.01,1668.35
629.539,1546.3
630.067,1436.75
630.596,1401.95
631.124,1257.0
631.652,1189.45
632.18,1160.45
632.708,1149.85
633.236,1148.0
633.764,1145.95
634.292,1147.45
634.82,1150.2
635.348,1146.9
635.876,1150.6
636.403,1152.45
636.931,1154.8
637.459,1153.65
637.986,1159.95
638.514,1156.45
639.041,1166.5
639.568,1168.25
640.096,1173.25
640.623,1180.75
641.15,1186.35
641.678,1189.35
642.205,1190.55
642.732,1195.9
643.259,1188.5
643.786,1199.5
644.313,1194.65
644.84,1195.5
645.367,1195.6
645.894,1195.65
646.421,1197.45
646.948,1198.9
647.474,1198.6
648.001,1194.45
648.528,1196.4
649.054,1194.8
649.581,1192.65
650.108,1197.9
650.634,1197.15
651.161,1195.1
651.687,1195.25
652.214,1203.75
652.74,1203.4
653.266,1205.7
653.793,1206.25
654.319,1200.85
654.845,1201.15
655.371,1204.0
655.897,1195.05
656.424,1191.3
656.95,1187.7
657.476,1178.15
658.002,1175.2
658.528,1160.95
659.054,1153.3
659.58,1144.35
660.106,1132.05
660.631,1120.7
661.157,1110.25
661.683,1096.4
662.209,1087.6
662.735,1080.35
663.129,1071.85