File: spectra/VLFR_08-PLA_bio_Raman_57c41079.csv
nm,Intensity
528.626,1858.1
529.132,1861.0
529.637,1860.4
530.143,1859.9
530.648,1861.2
531.153,1866.0
531.658,1948.2
532.164,6405.5
532.669,1864.3
533.174,1865.8
533.679,2441.8
534.184,3782.1
534.689,3377.6
535.194,3105.7
535.699,2882.0
536.203,2764.7
536.708,2816.1
537.213,2660.5
537.717,2676.7
538.222,2530.9
538.726,2495.7
539.231,2468.3
539.735,2347.8
540.239,2444.7
540.744,2571.4
541.248,2585.1
541.752,2463.1
542.256,2422.4
542.76,2433.8
543.264,2674.6
543.768,2880.3
544.272,2652.0
544.776,2415.3
545.28,2351.3
545.784,2340.1
546.287,2311.5
546.791,2347.9
547.294,2353.7
547.798,2360.7
548.301,2362.2
548.805,2373.6
549.308,2386.5
549.811,2359.2
550.315,2379.7
550.818,2431.1
551.321,2454.1
551.824,2503.3
552.327,2503.6
552.83,2516.1
553.333,2455.2
553.835,2585.7
554.338,2544.3
554.841,2457.8
555.343,2384.2
555.846,2349.1
556.349,2366.5
556.851,2388.1
557.353,2636.4
557.856,3950.3
558.358,3473.7
558.86,2674.3
559.362,2583.5
559.864,2522.9
560.366,2438.7
560.868,2444.8
561.37,2424.5
561.872,2421.8
562.374,2461.4
562.876,2610.3
563.377,3081.3
563.879,2765.8
564.38,2582.2
564.882,2856.6
565.383,2881.5
565.885,3153.8
566.386,3043.5
566.887,2560.0
567.388,2513.7
567.889,2657.8
568.391,2593.4
568.892,2588.2
569.392,2557.4
569.893,2527.0
570.394,2545.4
570.895,2590.6
571.395,2821.4
571.896,2903.4
572.397,2731.5
572.897,2748.2
573.397,2780.5
573.898,2743.9
574.398,2860.0
574.898,2659.9
575.398,2553.5
575.898,2598.6
576.398,3224.7
576.898,3673.2
577.398,2803.7
577.898,2565.1
578.398,2537.5
578.897,2517.7
579.397,2541.6
579.896,2538.1
580.396,2514.9
580.895,2502.7
581.395,2525.6
581.894,2529.0
582.393,2509.8
582.892,2515.9
583.391,2553.1
583.89,2560.3
584.389,2555.7
584.888,2547.7
585.387,2546.9
585.886,2579.1
586.384,2713.6
586.883,3210.2
587.381,3516.1
587.88,3162.3
588.378,2624.7
588.876,2549.8
589.375,2562.9
589.873,2518.6
590.371,2526.2
590.869,2536.5
591.367,2549.4
591.865,2556.9
592.363,2531.4
592.86,2535.5
593.358,2525.3
593.856,2529.3
594.353,2520.1
594.851,2498.0
595.348,2541.5
595.845,2537.1
596.342,2551.5
596.84,2553.5
597.337,2553.2
597.834,2531.7
598.331,2536.1
598.828,2565.0
599.324,2563.7
599.821,2563.9
600.318,2561.6
600.814,2587.0
601.311,2549.3
601.807,2561.6
602.304,2570.6
602.8,2546.1
603.296,2575.1
603.792,2584.5
604.288,2581.7
604.784,2542.6
605.28,2589.5
605.776,2541.3
606.272,2607.7
606.767,2558.6
607.263,2602.6
607.759,2547.0
608.254,2600.8
608.749,2599.7
609.245,2562.4
609.74,2626.3
610.235,2602.5
610.73,2595.0
611.225,2585.1
611.72,2571.6
612.215,2562.5
612.71,2583.7
613.204,2585.0
613.699,2593.6
614.194,2591.2
614.688,2589.4
615.182,2588.8
615.677,2586.1
616.171,2591.7
616.665,2594.6
617.159,2620.0
617.653,2589.4
618.147,2583.9
618.641,2583.1
619.135,2611.5
619.628,2579.9
620.122,2605.2
620.615,2582.8
621.109,2596.8
621.602,2579.4
622.095,2600.6
622.589,2732.6
623.082,2772.5
623.575,2738.5
624.068,2674.8
624.561,2621.5
625.053,2582.8
625.546,2550.3
626.039,2598.6
626.531,2608.9
627.024,2600.6
627.516,2646.6
628.008,2985.1
628.501,3697.3
628.993,3410.1
629.485,3501.2
629.977,3527.3
630.469,4382.3
630.96,8768.4
631.452,6702.9
631.944,4541.3
632.435,4173.5
632.927,4999.0
633.418,5414.0
633.91,4313.2
634.401,3215.4
634.892,2786.8
635.383,2617.3
635.874,2543.2
636.365,2511.3
636.856,2505.4
637.346,2479.6
637.837,2469.2
638.327,2475.8
638.818,2444.1
639.308,2438.5
639.799,2452.2
640.289,2459.9
640.779,2456.4
641.269,2467.4
641.759,2443.3
642.249,2438.2
642.738,2433.2
643.228,2432.6
643.718,2415.3
644.207,2396.3
644.697,2362.1
645.186,2362.9
645.675,2385.5
646.164,2361.5
646.653,2349.5
647.142,2350.5
647.631,2315.0
648.12,2350.7
648.609,2305.4
649.098,2317.9
649.586,2303.2
650.075,2285.6
650.563,2308.3
651.051,2314.4
651.539,2289.0
652.027,2295.3
652.515,2255.2
653.003,2267.6
653.491,2247.1
653.979,2261.8
654.467,2267.3
654.954,2257.7
655.442,2244.9
655.929,2248.2
656.416,2250.1
656.904,2259.8
657.391,2237.0
657.878,2225.8
658.365,2217.8
658.851,2203.7
659.338,2202.9
659.825,2196.1
660.311,2189.9
660.798,2201.4
661.041,2200.0