File: spectra/VLFR_09-PET_bio_Raman_02ad0209.csv
nm,Intensity
528.65,1846.65
529.155,1846.2
529.66,1845.2
530.165,1843.4
530.67,1846.2
531.175,1845.5
531.68,1875.7
532.185,3478.7
532.69,1848.8
533.194,1858.85
533.699,3240.5
534.204,7269.55
534.708,7242.8
535.213,7083.4
535.717,6989.9
536.222,6821.4
536.726,6822.8
537.231,6936.1
537.735,7072.75
538.239,7080.1
538.743,7226.9
539.247,7591.25
539.751,7749.0
540.255,7887.0
540.759,7698.1
541.263,7813.3
541.767,8075.85
542.271,8245.5
542.775,8501.1
543.279,8584.55
543.782,8616.75
544.286,8600.45
544.789,8926.55
545.293,8942.6
545.796,9105.3
546.3,9152.25
546.803,9298.4
547.306,9306.55
547.81,9449.65
548.313,9503.8
548.816,9726.15
549.319,9731.1
549.822,9830.65
550.325,9938.55
550.828,10411.6
551.331,10090.7
551.834,10345.3
552.337,10570.7
552.839,10652.3
553.342,10514.3
553.844,10936.0
554.347,10859.0
554.849,10996.5
555.352,11364.5
555.854,11367.3
556.357,11487.7
556.859,11665.7
557.361,12219.7
557.863,12489.2
558.365,12036.0
558.867,12159.3
559.369,12287.1
559.871,12246.0
560.373,12204.2
560.875,12564.9
561.377,12657.2
561.878,12952.2
562.38,12909.7
562.881,13142.3
563.383,13084.2
563.884,13187.9
564.386,13350.2
564.887,13658.4
565.388,14027.3
565.89,14227.2
566.391,13832.0
566.892,13817.3
567.393,13945.1
567.894,14293.7
568.395,14157.2
568.896,14261.9
569.396,14089.4
569.897,14908.2
570.398,14938.2
570.898,15085.0
571.399,16619.9
571.9,15833.5
572.4,15453.3
572.9,15336.8
573.401,15343.6
573.901,15415.3
574.401,15256.3
574.901,15384.5
575.401,16170.3
575.901,15693.8
576.401,15990.9
576.901,16293.4
577.401,15742.0
577.901,16140.9
578.4,15719.0
578.9,15848.4
579.399,16040.0
579.899,16835.9
580.398,16703.5
580.898,16391.8
581.397,16999.6
581.896,19844.6
582.395,19334.7
582.895,16868.6
583.394,16769.4
583.893,17247.3
584.391,16972.6
584.89,17304.7
585.389,17462.8
585.888,20495.6
586.386,19558.3
586.885,17592.3
587.384,17745.9
587.882,17522.9
588.38,17487.8
588.879,17455.3
589.377,17511.5
589.875,17412.8
590.373,17557.2
590.871,17402.7
591.369,17696.9
591.867,18053.7
592.365,17764.5
592.863,18107.2
593.361,17851.3
593.858,17928.8
594.356,17576.6
594.853,17989.8
595.351,17998.1
595.848,18203.4
596.345,18622.7
596.843,18496.1
597.34,18299.8
597.837,18442.1
598.334,18425.3
598.831,18340.9
599.328,18514.1
599.824,18892.9
600.321,18701.4
600.818,18913.6
601.314,19207.5
601.811,18971.1
602.307,18749.8
602.804,18946.4
603.3,19345.8
603.796,19177.8
604.293,19308.9
604.789,19502.1
605.285,19166.2
605.781,19298.8
606.277,19397.3
606.772,19715.9
607.268,20064.5
607.764,19546.2
608.259,20008.7
608.755,20141.1
609.25,20135.8
609.746,20093.3
610.241,20581.6
610.736,20184.0
611.231,20945.4
611.727,20880.1
612.222,21132.7
612.716,20753.8
613.211,20783.8
613.706,21354.8
614.201,21451.8
614.695,21456.8
615.19,22000.6
615.684,22126.3
616.179,21483.4
616.673,21876.1
617.168,22044.9
617.662,22951.9
618.156,22749.7
618.65,23046.1
619.144,23288.0
619.638,22890.6
620.131,23139.8
620.625,23454.5
621.119,23084.8
621.612,23270.8
622.106,23458.7
622.599,23632.5
623.093,24409.2
623.586,23873.8
624.079,24498.2
624.572,24580.5
625.065,24692.0
625.558,24359.7
626.051,24626.4
626.544,25417.4
627.037,24824.6
627.529,26096.4
628.022,25579.3
628.514,26006.7
629.007,26244.7
629.499,26141.2
629.991,25822.4
630.483,25977.1
630.976,26440.1
631.468,27380.8
631.959,27499.1
632.451,26736.6
632.943,27629.7
633.435,27653.0
633.926,27000.2
634.418,27516.3
634.909,26865.3
635.401,27001.0
635.892,27550.8
636.383,28938.1
636.874,27782.2
637.365,27799.3
637.856,27148.6
638.347,28220.6
638.838,27983.8
639.329,27956.3
639.819,27598.1
640.31,27882.9
640.8,28005.7
641.291,27651.8
641.781,27589.7
642.271,27610.1
642.761,27719.7
643.251,27725.7
643.741,27792.8
644.231,28971.3
644.721,27217.1
645.211,28292.3
645.7,27686.2
646.19,28269.8
646.679,27555.9
647.169,26891.9
647.658,27428.7
648.147,27220.8
648.636,26344.8
649.125,27069.8
649.614,26487.7
650.103,26501.3
650.592,26552.4
651.08,26359.3
651.569,26208.2
652.058,26405.3
652.546,26533.7
653.034,25467.1
653.523,26058.7
654.011,25213.8
654.499,24429.3
654.987,25364.7
655.475,24892.8
655.963,25239.3
656.45,24424.5
656.938,24384.8
657.425,25491.3
657.913,23438.5
658.4,23587.7
658.888,22877.2
659.375,23183.2
659.862,23131.3
660.349,22730.3
660.836,21854.4
661.079,22585.8