File: spectra/VLFR_02-HDPE_bio_Raman_5509ec87.csv
nm,Intensity
528.635,1837.9
529.14,1836.3
529.645,1837.8
530.151,1836.8
530.656,1837.6
531.161,1841.2
531.666,1882.2
532.171,4449.7
532.676,1838.9
533.181,1839.6
533.686,1976.3
534.191,2309.2
534.696,2304.1
535.201,2277.8
535.705,2106.0
536.21,2059.1
536.715,2023.2
537.219,2023.3
537.724,2016.3
538.228,2003.9
538.733,1983.5
539.237,1972.6
539.741,1954.2
540.246,1950.7
540.75,1945.4
541.254,1941.3
541.758,1940.5
542.262,1943.3
542.766,1934.8
543.27,1933.1
543.774,1934.8
544.278,1937.3
544.781,1923.1
545.285,1925.3
545.789,1931.2
546.292,1927.9
546.796,1921.3
547.299,1926.8
547.803,1931.1
548.306,1928.3
548.809,1922.2
549.313,1924.2
549.816,1925.0
550.319,1923.5
550.822,1926.6
551.325,1929.9
551.828,1931.2
552.331,1928.8
552.834,1931.9
553.337,1952.9
553.839,1959.8
554.342,1957.1
554.845,1959.1
555.347,1969.7
555.85,1974.7
556.352,1976.2
556.854,1992.6
557.357,2018.5
557.859,2034.1
558.361,2029.7
558.863,2025.1
559.365,2013.2
559.867,2009.7
560.369,2002.6
560.871,2000.6
561.373,2000.3
561.875,2018.5
562.377,2038.0
562.878,2052.7
563.38,2096.5
563.881,2994.4
564.383,2310.4
564.884,2214.7
565.386,2169.7
565.887,2630.9
566.388,2688.3
566.889,2103.8
567.391,2252.8
567.892,2066.9
568.393,2064.7
568.893,2062.3
569.394,2068.3
569.895,2067.9
570.396,2123.2
570.897,2174.1
571.397,3530.0
571.898,2445.1
572.398,2169.3
572.899,2092.8
573.399,2094.9
573.899,2221.4
574.399,2085.4
574.9,2093.6
575.4,2810.1
575.9,2693.7
576.4,3421.6
576.899,2998.0
577.399,2557.6
577.899,2227.6
578.399,2187.7
578.898,2168.7
579.398,2190.2
579.897,2208.5
580.397,2209.3
580.896,2213.1
581.396,2219.7
581.895,2203.8
582.394,2185.8
582.893,2211.4
583.392,2195.0
583.891,2211.4
584.39,2202.7
584.889,2200.0
585.387,2184.6
585.886,2173.4
586.385,2182.2
586.883,2157.4
587.382,2149.4
587.88,2174.1
588.379,2142.3
588.877,2149.4
589.375,2143.3
589.873,2131.8
590.371,2121.9
590.869,2124.9
591.367,2122.8
591.865,2129.5
592.363,2121.6
592.86,2120.0
593.358,2123.4
593.856,2114.3
594.353,2115.5
594.851,2121.2
595.348,2114.9
595.845,2120.0
596.342,2126.0
596.84,2130.7
597.337,2135.7
597.834,2126.8
598.331,2143.1
598.827,2133.3
599.324,2149.2
599.821,2165.8
600.318,2145.3
600.814,2150.5
601.311,2143.1
601.807,2166.2
602.303,2173.3
602.8,2126.5
603.296,2123.1
603.792,2142.2
604.288,2139.0
604.784,2119.3
605.28,2097.2
605.776,2106.4
606.272,2086.8
606.767,2087.1
607.263,2081.9
607.758,2084.2
608.254,2076.8
608.749,2071.1
609.244,2072.9
609.74,2067.5
610.235,2072.7
610.73,2091.2
611.225,2090.3
611.72,2071.6
612.215,2056.7
612.709,2046.6
613.204,2045.3
613.699,2054.9
614.193,2047.2
614.688,2059.6
615.182,2054.4
615.676,2061.6
616.171,2085.8
616.665,2101.1
617.159,2137.9
617.653,2153.5
618.147,2169.2
618.641,2132.9
619.134,2164.8
619.628,2195.6
620.122,2184.8
620.615,2218.7
621.109,2283.6
621.602,2483.8
622.095,2718.0
622.588,2570.7
623.082,2291.9
623.575,2216.0
624.068,2201.6
624.56,2208.6
625.053,2243.9
625.546,2312.6
626.039,2493.3
626.531,3748.8
627.024,9323.9
627.516,8370.4
628.008,6761.0
628.501,11084.4
628.993,6674.9
629.485,5561.1
629.977,4649.2
630.469,4373.9
630.961,3175.5
631.452,2455.3
631.944,2285.8
632.436,2248.2
632.927,2198.8
633.418,2175.1
633.91,2157.1
634.401,2119.0
634.892,2112.8
635.383,2076.8
635.874,2071.8
636.365,2089.8
636.856,2054.7
637.347,2027.1
637.837,2016.2
638.328,2016.8
638.818,1997.7
639.309,1994.5
639.799,1995.6
640.289,1992.8
640.78,1987.3
641.27,1988.2
641.76,1980.6
642.249,1970.1
642.739,1978.5
643.229,1975.4
643.719,1971.2
644.208,1968.2
644.698,1972.4
645.187,1971.7
645.676,1968.8
646.165,1964.9
646.655,1961.3
647.144,1961.4
647.633,1955.1
648.121,1965.3
648.61,1958.7
649.099,1956.3
649.587,1962.4
650.076,1955.0
650.564,1960.0
651.053,1956.1
651.541,1951.3
652.029,1948.3
652.517,1949.3
653.005,1950.5
653.493,1952.6
653.981,1947.3
654.468,1946.5
654.956,1947.6
655.444,1944.9
655.931,1947.6
656.418,1938.5
656.906,1937.0
657.393,1939.7
657.88,1937.1
658.367,1930.4
658.854,1930.2
659.341,1931.2
659.827,1945.3
660.314,1936.8
660.8,1928.7
661.044,1930.8