File: spectra/VLFR_02-HDPE_nobio_Raman_8c85ae45.csv
nm,Intensity
526.547,832.3
527.094,833.0
527.641,833.9
528.188,832.7
528.734,832.9
529.281,833.6
529.827,830.6
530.373,832.3
530.92,831.8
531.466,833.4
532.011,840.3
532.557,834.1
533.103,831.7
533.648,833.0
534.193,888.9
534.738,881.5
535.283,875.3
535.828,870.1
536.373,867.1
536.917,867.4
537.462,864.1
538.006,866.5
538.55,863.2
539.094,863.7
539.638,861.1
540.182,860.4
540.726,859.1
541.269,860.2
541.812,860.5
542.356,857.7
542.899,861.8
543.442,860.5
543.985,861.4
544.527,861.5
545.07,859.9
545.612,861.1
546.155,863.7
546.697,859.3
547.239,861.3
547.781,859.7
548.323,860.4
548.865,859.8
549.406,860.4
549.948,861.9
550.489,862.5
551.03,859.9
551.572,861.9
552.113,865.0
552.654,864.0
553.194,863.3
553.735,864.0
554.276,864.1
554.816,867.8
555.356,866.3
555.896,867.2
556.437,866.3
556.977,866.9
557.516,867.7
558.056,870.9
558.596,871.1
559.135,871.9
559.675,870.7
560.214,871.4
560.753,875.9
561.292,876.0
561.831,876.7
562.37,878.0
562.909,880.7
563.448,884.1
563.986,928.8
564.525,893.2
565.063,892.0
565.601,893.5
566.139,971.7
566.677,890.1
567.215,895.8
567.753,899.7
568.291,895.1
568.828,898.5
569.366,904.5
569.903,905.3
570.441,912.3
570.978,915.7
571.515,1001.5
572.052,931.8
572.589,927.3
573.126,935.6
573.662,939.1
574.199,943.7
574.735,958.3
575.272,968.1
575.808,1008.6
576.344,1045.9
576.88,1034.8
577.416,1036.6
577.952,1041.6
578.488,1055.8
579.024,1077.9
579.559,1098.6
580.095,1113.9
580.63,1138.8
581.166,1159.3
581.701,1186.5
582.236,1200.3
582.771,1220.8
583.306,1239.0
583.841,1252.3
584.376,1275.8
584.911,1295.9
585.445,1309.9
585.98,1336.4
586.514,1353.3
587.048,1380.9
587.583,1405.0
588.117,1415.5
588.651,1443.1
589.185,1461.9
589.719,1489.6
590.253,1510.0
590.786,1529.1
591.32,1553.3
591.853,1556.3
592.387,1580.6
592.92,1575.6
593.454,1589.8
593.987,1584.2
594.52,1579.3
595.053,1596.8
595.586,1591.4
596.119,1603.4
596.651,1586.6
597.184,1603.4
597.717,1598.2
598.249,1609.5
598.782,1619.7
599.314,1623.9
599.846,1632.0
600.379,1619.6
600.911,1608.6
601.443,1610.1
601.975,1612.7
602.507,1604.1
603.038,1577.4
603.57,1563.7
604.102,1543.1
604.633,1516.3
605.165,1491.9
605.696,1466.3
606.228,1442.9
606.759,1424.0
607.29,1407.2
607.821,1389.9
608.352,1372.4
608.883,1360.8
609.414,1335.7
609.945,1327.1
610.476,1316.4
611.006,1303.2
611.537,1294.8
612.067,1290.9
612.598,1277.5
613.128,1264.5
613.659,1267.3
614.189,1255.4
614.719,1236.1
615.249,1235.0
615.779,1218.1
616.309,1208.2
616.839,1212.5
617.369,1202.1
617.899,1200.1
618.428,1181.2
618.958,1175.0
619.487,1163.7
620.017,1172.7
620.546,1165.0
621.076,1156.4
621.605,1157.3
622.134,1161.3
622.663,1158.4
623.193,1150.9
623.722,1148.2
624.251,1150.1
624.78,1143.0
625.308,1135.7
625.837,1151.8
626.366,1154.4
626.895,1266.5
627.423,1402.4
627.952,1292.7
628.48,1412.7
629.009,1357.6
629.537,1295.9
630.065,1271.4
630.594,1248.9
631.122,1191.1
631.65,1169.8
632.178,1169.3
632.706,1167.4
633.234,1162.0
633.762,1163.5
634.29,1166.5
634.818,1166.3
635.346,1175.3
635.873,1167.0
636.401,1180.6
636.929,1175.4
637.456,1175.7
637.984,1185.2
638.511,1177.6
639.039,1183.2
639.566,1183.9
640.093,1184.5
640.62,1197.7
641.148,1194.4
641.675,1194.6
642.202,1208.1
642.729,1206.3
643.256,1203.1
643.783,1192.5
644.31,1199.4
644.837,1204.6
645.364,1196.3
645.891,1197.7
646.417,1191.4
646.944,1204.2
647.471,1189.7
647.997,1182.4
648.524,1185.1
649.051,1185.8
649.577,1186.2
650.104,1176.7
650.63,1171.4
651.157,1165.5
651.683,1167.3
652.209,1162.0
652.736,1164.8
653.262,1165.7
653.788,1164.2
654.314,1156.7
654.84,1155.8
655.366,1154.8
655.893,1144.4
656.419,1144.1
656.945,1141.4
657.471,1134.3
657.997,1121.6
658.522,1123.9
659.048,1117.2
659.574,1108.2
660.1,1099.7
660.626,1088.2
661.152,1085.2
661.677,1069.3
662.203,1063.6
662.729,1062.2
663.123,1049.2