File: spectra/VLFR_06-PET_nobio_Raman_9fa2e992.csv
nm,Intensity
526.547,832.3
527.094,832.1
527.641,832.2
528.188,832.6
528.734,832.5
529.281,832.5
529.827,832.4
530.373,833.6
530.92,832.4
531.466,834.0
532.011,838.7
532.557,833.0
533.103,833.3
533.648,847.0
534.193,1704.2
534.738,1455.3
535.283,1236.6
535.828,1102.3
536.373,1020.5
536.917,994.0
537.462,989.7
538.006,979.6
538.55,985.4
539.094,986.8
539.638,997.2
540.182,999.8
540.726,973.5
541.269,968.5
541.812,972.5
542.356,970.6
542.899,971.6
543.442,979.3
543.985,982.2
544.527,982.8
545.07,987.4
545.612,992.2
546.155,994.2
546.697,996.0
547.239,994.3
547.781,999.0
548.323,997.0
548.865,1002.0
549.406,1009.1
549.948,1010.1
550.489,1032.6
551.03,1022.3
551.572,1019.4
552.113,1025.6
552.654,1038.0
553.194,1037.4
553.735,1040.1
554.276,1036.4
554.816,1049.7
555.356,1052.7
555.896,1088.7
556.437,1091.7
556.977,1102.5
557.516,1218.2
558.056,1125.0
558.596,1123.9
559.135,1094.4
559.675,1081.8
560.214,1079.9
560.753,1088.4
561.292,1094.2
561.831,1099.9
562.37,1107.2
562.909,1121.2
563.448,1134.3
563.986,1120.4
564.525,1135.8
565.063,1172.4
565.601,1223.6
566.139,1225.8
566.677,1153.5
567.215,1146.3
567.753,1206.2
568.291,1161.6
568.828,1165.0
569.366,1176.8
569.903,1191.8
570.441,1228.9
570.978,1326.1
571.515,1397.8
572.052,1289.9
572.589,1226.8
573.126,1214.7
573.662,1224.5
574.199,1245.1
574.735,1227.9
575.272,1266.3
575.808,1248.1
576.344,1270.7
576.88,1280.8
577.416,1261.8
577.952,1261.6
578.488,1266.8
579.024,1269.8
579.559,1266.1
580.095,1276.5
580.63,1283.8
581.166,1292.4
581.701,1384.4
582.236,2209.0
582.771,1341.9
583.306,1317.2
583.841,1318.8
584.376,1322.3
584.911,1340.5
585.445,1444.9
585.98,1829.3
586.514,1581.2
587.048,1375.3
587.583,1351.8
588.117,1350.3
588.651,1355.4
589.185,1347.1
589.719,1355.5
590.253,1367.8
590.786,1371.0
591.32,1360.4
591.853,1372.9
592.387,1368.9
592.92,1374.2
593.454,1368.6
593.987,1365.3
594.52,1379.5
595.053,1379.0
595.586,1387.8
596.119,1395.7
596.651,1401.8
597.184,1406.5
597.717,1397.3
598.249,1408.9
598.782,1409.8
599.314,1414.8
599.846,1411.3
600.379,1412.6
600.911,1417.9
601.443,1404.4
601.975,1426.8
602.507,1417.0
603.038,1418.6
603.57,1427.0
604.102,1429.5
604.633,1425.0
605.165,1416.9
605.696,1424.4
606.228,1424.6
606.759,1427.5
607.29,1417.9
607.821,1435.3
608.352,1435.4
608.883,1441.7
609.414,1438.3
609.945,1436.3
610.476,1436.8
611.006,1436.8
611.537,1436.8
612.067,1439.7
612.598,1459.0
613.128,1463.2
613.659,1461.8
614.189,1474.9
614.719,1458.3
615.249,1468.6
615.779,1471.5
616.309,1472.8
616.839,1479.2
617.369,1483.2
617.899,1488.5
618.428,1507.1
618.958,1497.8
619.487,1497.9
620.017,1500.4
620.546,1497.8
621.076,1497.3
621.605,1501.3
622.134,1509.2
622.663,1514.0
623.193,1529.5
623.722,1533.5
624.251,1537.3
624.78,1550.5
625.308,1545.7
625.837,1530.5
626.366,1549.7
626.895,1554.0
627.423,1555.7
627.952,1569.7
628.48,1583.7
629.009,1610.5
629.537,1626.6
630.065,1614.9
630.594,1634.8
631.122,1689.8
631.65,1789.5
632.178,1775.2
632.706,1708.3
633.234,1699.3
633.762,1693.7
634.29,1682.1
634.818,1672.9
635.346,1671.4
635.873,1748.6
636.401,1863.0
636.929,1832.0
637.456,1728.8
637.984,1712.6
638.511,1711.3
639.039,1713.3
639.566,1723.3
640.093,1725.3
640.62,1731.7
641.148,1721.8
641.675,1753.8
642.202,1770.4
642.729,1761.8
643.256,1749.7
643.783,1751.1
644.31,1741.0
644.837,1751.7
645.364,1756.2
645.891,1758.3
646.417,1768.7
646.944,1765.5
647.471,1775.5
647.997,1782.8
648.524,1766.5
649.051,1784.6
649.577,1770.6
650.104,1765.7
650.63,1776.0
651.157,1787.5
651.683,1791.5
652.209,1789.3
652.736,1788.0
653.262,1795.1
653.788,1798.6
654.314,1798.3
654.84,1783.2
655.366,1793.0
655.893,1796.9
656.419,1799.5
656.945,1797.5
657.471,1796.2
657.997,1804.1
658.522,1809.3
659.048,1801.1
659.574,1807.0
660.1,1809.7
660.626,1790.7
661.152,1791.6
661.677,1790.4
662.203,1777.4
662.729,1785.6
663.123,1770.8