File: spectra/VLFR_08-PLA_bio_Raman_3a4b153a.csv
nm,Intensity
526.547,833.1
527.095,832.3
527.642,832.8
528.189,833.1
528.736,832.25
529.283,832.2
529.829,832.4
530.376,832.7
530.922,832.05
531.468,833.65
532.014,834.45
532.56,832.35
533.106,831.35
533.651,832.9
534.196,886.5
534.742,875.7
535.287,870.85
535.832,867.9
536.376,865.85
536.921,865.5
537.465,862.3
538.01,862.1
538.554,861.8
539.098,859.2
539.642,858.4
540.186,857.8
540.729,864.85
541.273,862.8
541.816,861.2
542.36,861.2
542.903,860.45
543.446,866.15
543.988,871.75
544.531,861.8
545.074,860.25
545.616,859.55
546.158,859.8
546.701,860.25
547.243,861.65
547.785,860.9
548.326,861.95
548.868,862.35
549.41,864.0
549.951,864.45
550.492,864.05
551.034,864.3
551.575,864.2
552.116,865.35
552.656,867.4
553.197,867.3
553.738,866.05
554.278,866.6
554.819,864.15
555.359,864.05
555.899,865.35
556.439,864.55
556.979,866.7
557.519,869.5
558.058,899.25
558.598,872.25
559.137,868.4
559.677,867.6
560.216,864.6
560.755,866.2
561.294,866.9
561.833,867.05
562.371,881.2
562.91,869.95
563.449,876.75
563.987,872.45
564.525,868.2
565.064,876.15
565.602,873.2
566.14,883.3
566.678,875.6
567.216,869.0
567.753,870.3
568.291,870.95
568.828,871.65
569.366,873.15
569.903,870.7
570.44,873.3
570.977,872.1
571.514,877.0
572.051,875.0
572.588,874.55
573.125,875.0
573.661,876.95
574.198,875.8
574.734,879.75
575.271,872.7
575.807,874.85
576.343,878.15
576.879,890.4
577.415,878.8
577.951,875.8
578.486,874.95
579.022,874.7
579.557,875.95
580.093,872.05
580.628,873.7
581.164,875.85
581.699,872.6
582.234,875.05
582.769,876.6
583.304,874.45
583.838,876.35
584.373,874.45
584.908,875.9
585.442,875.1
585.977,875.5
586.511,877.7
587.045,885.65
587.58,892.95
588.114,879.0
588.648,875.65
589.182,875.2
589.715,876.3
590.249,873.8
590.783,872.75
591.316,875.6
591.85,873.85
592.383,874.65
592.917,875.5
593.45,874.05
593.983,873.4
594.516,873.2
595.049,874.2
595.582,874.0
596.115,874.25
596.648,873.1
597.18,874.3
597.713,874.5
598.245,874.95
598.778,876.35
599.31,872.2
599.842,875.25
600.375,873.15
600.907,872.7
601.439,872.85
601.971,873.75
602.503,873.85
603.034,872.05
603.566,874.9
604.098,873.75
604.629,872.05
605.161,872.4
605.692,871.4
606.224,871.45
606.755,871.15
607.286,871.1
607.817,870.55
608.348,873.45
608.879,872.95
609.41,870.95
609.941,872.3
610.472,870.3
611.002,872.05
611.533,870.3
612.063,871.8
612.594,871.75
613.124,871.1
613.655,871.3
614.185,872.45
614.715,871.4
615.245,871.15
615.775,872.0
616.305,871.4
616.835,871.6
617.365,871.6
617.895,871.75
618.425,872.25
618.954,871.65
619.484,871.05
620.013,868.8
620.543,871.1
621.072,870.75
621.602,870.55
622.131,870.8
622.66,871.75
623.189,874.35
623.718,872.3
624.247,871.1
624.776,869.4
625.305,870.6
625.834,869.2
626.363,870.65
626.891,870.7
627.42,869.05
627.949,872.25
628.477,885.75
629.006,882.65
629.534,882.2
630.062,884.35
630.591,900.1
631.119,981.2
631.647,924.45
632.175,894.15
632.703,888.75
633.231,909.6
633.759,899.45
634.287,879.95
634.815,871.4
635.343,870.65
635.871,868.55
636.398,865.9
636.926,867.0
637.454,865.25
637.981,865.75
638.509,865.1
639.036,864.25
639.564,864.85
640.091,865.9
640.618,866.1
641.146,866.8
641.673,864.15
642.2,864.2
642.727,863.25
643.254,864.7
643.781,862.35
644.308,862.6
644.835,862.2
645.362,864.1
645.889,862.4
646.416,862.3
646.942,861.05
647.469,862.05
647.996,862.0
648.522,860.95
649.049,863.25
649.576,861.6
650.102,862.55
650.629,860.75
651.155,860.4
651.682,860.85
652.208,860.3
652.734,860.15
653.261,860.45
653.787,861.6
654.313,857.95
654.839,858.25
655.365,858.45
655.892,859.75
656.418,858.95
656.944,860.25
657.47,860.3
657.996,857.9
658.522,858.85
659.048,856.9
659.574,857.65
660.099,858.45
660.625,858.2
661.151,856.65
661.677,857.7
662.203,855.85
662.728,856.05
663.123,858.2