File: spectra/VLFR_07-PET_nobio_Raman_4f191768.csv
nm,Intensity
791.377,12273.6
792.477,11023.3
793.576,10232.6
794.676,9835.18
795.775,9723.82
796.874,9649.42
797.973,9543.26
799.072,9563.98
800.171,9451.96
801.27,9327.86
802.368,9392.76
803.467,9215.76
804.565,8997.26
805.664,8871.38
806.762,8872.64
807.86,8689.14
808.958,8614.88
810.056,8646.64
811.153,8552.5
812.251,8456.04
813.349,8402.78
814.446,8345.3
815.543,8283.66
816.64,8138.82
817.737,8037.7
818.834,8156.02
819.931,8038.8
821.028,8017.9
822.125,7877.56
823.221,7806.3
824.317,7756.74
825.414,7763.02
826.51,7819.24
827.606,7613.64
828.702,7523.56
829.797,7446.72
830.893,7511.54
831.988,7302.36
833.084,7271.76
834.179,7241.28
835.274,7106.88
836.369,7194.24
837.464,7224.9
838.559,7213.92
839.654,7206.94
840.748,7219.48
841.843,7348.28
842.937,7052.38
844.031,6923.0
845.125,6809.54
846.219,6672.5
847.313,6669.48
848.407,6586.98
849.5,6619.92
850.593,6572.54
851.687,6551.6
852.78,6618.18
853.873,6474.26
854.966,6427.38
856.059,6405.92
857.151,6335.96
858.244,6436.72
859.336,6524.54
860.428,6560.66
861.52,6351.58
862.612,6297.84
863.704,6154.64
864.796,6236.7
865.888,6171.58
866.979,6031.76
868.07,6007.92
869.162,6036.78
870.253,6086.42
871.344,6231.56
872.434,6386.84
873.525,6399.3
874.615,6139.22
875.706,6012.22
876.796,5904.18
877.886,5848.62
878.976,5773.84
880.066,5768.84
881.156,5747.26
882.245,5680.3
883.335,5708.0
884.424,5621.48
885.513,5649.78
886.602,5592.56
887.691,5516.7
888.78,5513.3
889.868,5467.78
890.957,5474.76
892.045,5401.8
893.133,5376.4
894.221,5355.38
895.309,5272.02
896.397,5294.26
897.484,5420.92
898.571,5971.86
899.659,5591.72
900.746,5167.88
901.833,5062.18
902.92,5075.0
904.006,5074.26
905.093,5005.68
906.179,5104.9
907.266,5433.72
908.352,5464.02
909.438,5178.76
910.523,4947.78
911.609,4855.1
912.695,4795.0
913.78,4771.74
914.865,4725.76
915.95,4736.52
917.035,4704.26
918.12,4682.8
919.204,4654.78
920.289,4628.66
921.373,4598.84
922.457,4579.74
923.541,4549.94
924.625,4544.0
925.709,4494.44
926.792,4503.48
927.876,4471.86
928.959,4433.02
930.042,4406.14
931.125,4409.2
932.208,4367.84
933.29,4362.64
934.373,4316.5
935.455,4334.64
936.537,4305.88
937.619,4281.88
938.701,4261.44
939.782,4242.62
940.864,4242.52
941.945,4218.96
943.026,4205.26
944.107,4192.02
945.188,4179.54
946.269,4159.92
947.349,4142.64
948.43,4140.56
949.51,4131.42
950.59,4122.22
951.67,4090.2
952.75,4090.96
953.829,4071.4
954.909,4058.46
955.988,4048.86
957.067,4052.24
958.146,4036.54
959.224,4030.0
960.303,4023.28
961.381,3998.6
962.459,4005.64
963.537,3993.14
964.615,3983.36
965.693,3971.86
966.771,3967.08
967.848,3960.04
968.925,3956.94
970.002,3936.42
971.079,3939.5
972.156,3939.8
973.232,3923.46
974.309,3924.4
975.385,3906.1
976.461,3902.48
977.537,3893.8
978.612,3892.64
979.688,3889.12
980.763,3882.4
981.838,3875.36
982.913,3869.16
983.988,3867.86
985.063,3863.84
986.137,3863.6
987.211,3857.14
988.285,3851.14
989.359,3845.76
990.433,3839.7
991.506,3836.32
992.58,3832.06
993.653,3829.0
994.726,3821.36
995.799,3816.86
996.872,3815.1
997.944,3808.8
999.016,3812.8
1000.09,3804.88
1001.16,3800.7
1002.23,3796.28
1003.3,3796.56
1004.38,3790.48
1005.45,3789.78
1006.52,3785.18
1007.59,3784.22
1008.66,3782.7
1009.73,3775.3
1010.8,3776.72
1011.87,3773.66
1012.94,3773.28
1014.01,3770.7
1015.08,3769.24
1016.15,3769.04
1017.22,3767.44
1018.29,3764.1
1019.36,3761.46
1020.42,3763.22
1021.49,3767.46
1022.56,3769.2
1023.63,3767.3
1024.7,3762.86
1025.76,3758.88
1026.83,3752.62
1027.9,3751.74
1028.97,3747.56
1030.03,3746.1
1031.1,3743.06
1032.17,3744.28
1033.23,3744.0
1034.3,3748.78
1035.36,3749.68
1036.43,3747.2
1037.5,3741.5
1038.56,3739.22
1039.63,3736.38
1040.69,3735.34
1041.76,3734.66
1042.82,3733.52
1043.89,3732.32
1044.95,3730.94
1046.01,3730.08
1047.08,3730.56
1048.14,3730.28
1049.2,3729.6
1050.27,3729.48
1051.33,3729.1
1052.39,3727.82
1053.46,3727.28
1054.52,3727.08
1055.58,3727.74
1056.64,3727.16
1057.7,3726.76
1058.77,3726.74
1059.83,3727.06
1060.89,3726.8
1061.95,3726.78
1063.01,3726.44
1064.07,3726.36
1065.13,3725.62
1066.19,3724.94
1067.25,3724.88
1068.05,3724.22