File: spectra/VLFR_01-LDPE_bio_Raman_e8385e46.csv
nm,Intensity
528.65,1837.85
529.155,1837.25
529.66,1837.3
530.165,1837.2
530.67,1838.5
531.175,1839.25
531.68,1858.7
532.185,3752.55
532.69,1839.15
533.194,1839.05
533.699,1925.5
534.204,2231.05
534.708,2201.35
535.213,2178.85
535.717,2156.65
536.222,2136.5
536.726,2121.1
537.231,2126.25
537.735,2136.7
538.239,2127.6
538.743,2152.45
539.247,2166.4
539.751,2096.65
540.255,2087.15
540.759,2082.85
541.263,2083.35
541.767,2084.1
542.271,2094.6
542.775,2116.25
543.279,2107.3
543.782,2117.35
544.286,2147.4
544.789,2159.0
545.293,2132.7
545.796,2157.95
546.3,2148.7
546.803,2118.15
547.306,2097.7
547.81,2097.35
548.313,2099.3
548.816,2100.75
549.319,2105.8
549.822,2147.05
550.325,2153.8
550.828,2227.9
551.331,2184.95
551.834,2149.65
552.337,2111.35
552.839,2107.8
553.342,2107.4
553.844,2114.7
554.347,2121.85
554.849,2131.7
555.352,2124.2
555.854,2133.55
556.357,2137.95
556.859,2135.2
557.361,2154.35
557.863,2163.35
558.365,2183.7
558.867,2173.5
559.369,2158.9
559.871,2159.6
560.373,2157.5
560.875,2174.95
561.377,2196.3
561.878,2473.5
562.38,3350.0
562.881,2386.85
563.383,2252.45
563.884,2464.3
564.386,2359.9
564.887,2347.85
565.388,2310.55
565.89,2479.8
566.391,2483.55
566.892,2342.3
567.393,2336.6
567.894,2281.65
568.395,2281.65
568.896,2285.45
569.396,2286.35
569.897,2289.05
570.398,2322.8
570.898,2358.55
571.399,2719.7
571.9,2557.35
572.4,2423.8
572.9,2361.15
573.401,2336.5
573.901,2380.6
574.401,2323.0
574.901,2328.7
575.401,2450.8
575.901,2609.55
576.401,2917.05
576.901,2748.9
577.401,2518.85
577.901,2395.4
578.4,2361.8
578.9,2366.15
579.399,2353.4
579.899,2370.3
580.398,2369.55
580.898,2379.25
581.397,2394.1
581.896,2392.95
582.395,2404.6
582.895,2389.8
583.394,2395.95
583.893,2426.15
584.391,2414.35
584.89,2435.25
585.389,2447.5
585.888,2438.25
586.386,2456.6
586.885,2457.2
587.384,2500.3
587.882,2507.75
588.38,2524.0
588.879,2536.25
589.377,2528.5
589.875,2528.3
590.373,2556.5
590.871,2544.5
591.369,2582.35
591.867,2587.3
592.365,2600.95
592.863,2618.35
593.361,2630.5
593.858,2598.2
594.356,2633.75
594.853,2629.2
595.351,2652.75
595.848,2658.4
596.345,2677.3
596.843,2686.4
597.34,2724.35
597.837,2742.45
598.334,2735.9
598.831,2781.3
599.328,2777.7
599.824,2796.8
600.321,2811.85
600.818,2818.15
601.314,2818.5
601.811,2838.35
602.307,2832.25
602.804,2792.6
603.3,2795.05
603.796,2770.0
604.293,2741.6
604.789,2729.3
605.285,2690.45
605.781,2668.1
606.277,2667.25
606.772,2649.05
607.268,2640.95
607.764,2629.4
608.259,2598.95
608.755,2587.15
609.25,2555.95
609.746,2567.3
610.241,2594.75
610.736,2572.45
611.231,2557.15
611.727,2545.9
612.222,2527.25
612.716,2513.2
613.211,2513.65
613.706,2517.55
614.201,2521.4
614.695,2492.45
615.19,2499.5
615.684,2512.15
616.179,2488.3
616.673,2512.4
617.168,2506.15
617.662,2512.5
618.156,2522.45
618.65,2497.0
619.144,2519.0
619.638,2523.15
620.131,2541.05
620.625,2535.8
621.119,2564.35
621.612,2612.95
622.106,2726.0
622.599,2666.2
623.093,2562.85
623.586,2523.95
624.079,2500.35
624.572,2500.7
625.065,2518.4
625.558,2550.6
626.051,2625.05
626.544,3053.65
627.037,5889.65
627.529,5896.5
628.022,4849.1
628.514,6468.95
629.007,5299.9
629.499,4608.4
629.991,4183.4
630.483,4020.1
630.976,3299.75
631.468,2828.05
631.959,2643.6
632.451,2502.05
632.943,2496.6
633.435,2458.0
633.926,2439.65
634.418,2422.0
634.909,2404.65
635.401,2387.95
635.892,2397.5
636.383,2391.7
636.874,2374.25
637.365,2364.25
637.856,2362.6
638.347,2363.15
638.838,2371.55
639.329,2362.95
639.819,2344.65
640.31,2351.75
640.8,2372.65
641.291,2359.55
641.781,2361.8
642.271,2349.65
642.761,2364.55
643.251,2374.1
643.741,2355.4
644.231,2369.4
644.721,2347.15
645.211,2342.7
645.7,2350.3
646.19,2354.9
646.679,2338.15
647.169,2342.75
647.658,2351.0
648.147,2333.35
648.636,2335.9
649.125,2327.6
649.614,2351.25
650.103,2337.1
650.592,2356.85
651.08,2343.95
651.569,2333.65
652.058,2343.85
652.546,2324.5
653.034,2324.1
653.523,2329.85
654.011,2338.55
654.499,2325.15
654.987,2316.05
655.475,2335.55
655.963,2314.25
656.45,2311.45
656.938,2290.35
657.425,2270.6
657.913,2277.35
658.4,2238.45
658.888,2229.8
659.375,2206.55
659.862,2225.45
660.349,2205.3
660.836,2182.35
661.079,2183.15