File: spectra/VLFR_08-PLA_bio_Raman_cf36ae72.csv
nm,Intensity
526.495,828.5
527.042,829.3
527.589,829.3
528.136,829.5
528.682,828.2
529.229,830.0
529.775,828.3
530.321,829.0
530.867,829.8
531.413,831.0
531.959,829.5
532.505,830.2
533.051,829.4
533.596,829.5
534.141,980.1
534.687,957.1
535.232,932.7
535.777,919.2
536.321,916.3
536.866,914.8
537.41,909.9
537.955,913.4
538.499,903.6
539.043,903.9
539.587,900.8
540.131,900.2
540.675,907.5
541.219,904.5
541.762,904.3
542.305,899.8
542.849,900.4
543.392,916.2
543.935,926.1
544.478,911.0
545.02,911.4
545.563,904.9
546.106,899.6
546.648,902.9
547.19,902.4
547.732,904.9
548.274,899.5
548.816,907.9
549.358,912.1
549.9,905.7
550.441,912.9
550.983,910.4
551.524,915.0
552.065,911.7
552.606,915.1
553.147,914.2
553.688,913.9
554.229,919.2
554.769,913.7
555.31,911.3
555.85,907.2
556.391,908.6
556.931,912.7
557.471,921.2
558.011,988.8
558.551,933.0
559.09,925.1
559.63,916.1
560.169,917.5
560.709,916.4
561.248,910.2
561.787,910.6
562.326,915.2
562.865,920.3
563.404,942.9
563.943,928.9
564.481,923.9
565.02,937.5
565.558,934.7
566.096,953.0
566.634,933.8
567.172,923.1
567.71,925.9
568.248,924.8
568.786,930.5
569.324,930.4
569.861,926.6
570.399,926.3
570.936,933.2
571.473,941.2
572.01,940.2
572.547,937.6
573.084,939.9
573.621,940.0
574.158,939.6
574.694,946.1
575.231,933.2
575.767,936.0
576.303,942.1
576.84,981.6
577.376,951.1
577.912,937.9
578.448,937.0
578.984,936.6
579.519,934.3
580.055,932.2
580.59,934.1
581.126,935.1
581.661,935.6
582.196,938.5
582.731,935.5
583.267,936.7
583.801,937.4
584.336,941.7
584.871,940.8
585.406,939.6
585.94,939.9
586.475,948.9
587.009,970.1
587.543,986.8
588.078,958.3
588.612,941.3
589.146,939.9
589.68,939.3
590.214,935.0
590.747,937.2
591.281,938.8
591.815,938.0
592.348,942.8
592.881,940.0
593.415,935.9
593.948,938.0
594.481,934.0
595.014,938.7
595.547,939.6
596.08,935.1
596.613,937.8
597.146,938.4
597.678,938.5
598.211,939.4
598.743,943.1
599.276,943.1
599.808,941.2
600.34,937.6
600.872,936.5
601.404,940.2
601.936,935.9
602.468,940.0
603.0,937.6
603.532,939.5
604.064,938.8
604.595,934.6
605.127,934.6
605.658,934.1
606.189,934.8
606.721,934.6
607.252,933.5
607.783,935.3
608.314,934.0
608.845,932.3
609.376,938.9
609.907,935.0
610.438,939.8
610.968,934.8
611.499,936.6
612.029,939.4
612.56,933.8
613.09,938.1
613.621,936.2
614.151,940.1
614.681,938.4
615.211,937.6
615.741,936.9
616.271,937.8
616.801,936.3
617.331,936.0
617.861,941.1
618.39,936.1
618.92,938.4
619.45,937.3
619.979,936.3
620.509,933.4
621.038,933.1
621.567,938.1
622.096,938.7
622.626,942.4
623.155,944.7
623.684,941.0
624.213,937.6
624.742,940.2
625.271,937.9
625.799,933.1
626.328,935.7
626.857,936.6
627.386,938.1
627.914,942.3
628.443,986.7
628.971,968.6
629.5,978.0
630.028,978.2
630.556,1013.6
631.084,1252.6
631.613,1095.9
632.141,1015.5
632.669,1000.7
633.197,1058.9
633.725,1037.8
634.253,978.9
634.781,944.6
635.308,935.1
635.836,931.1
636.364,931.0
636.891,929.9
637.419,930.8
637.947,931.3
638.474,928.6
639.002,928.2
639.529,926.8
640.056,919.8
640.584,926.0
641.111,924.6
641.638,927.7
642.165,928.9
642.692,924.9
643.219,923.7
643.746,922.2
644.273,921.6
644.8,921.1
645.327,920.6
645.854,916.7
646.381,918.3
646.908,915.9
647.434,917.5
647.961,914.6
648.488,918.4
649.014,917.8
649.541,916.5
650.067,914.5
650.594,917.3
651.12,913.7
651.646,918.1
652.173,915.0
652.699,910.6
653.225,910.5
653.752,911.4
654.278,914.4
654.804,912.8
655.33,910.4
655.856,912.2
656.382,909.0
656.908,913.4
657.434,912.3
657.96,911.6
658.486,910.7
659.012,910.5
659.538,910.8
660.064,910.3
660.589,906.3
661.115,903.3
661.641,907.3
662.166,909.8
662.692,904.5
663.086,910.2