File: spectra/VLFR_01-LDPE_bio_Raman_95e2f300.csv
nm,Intensity
526.495,829.2
527.042,829.1
527.589,828.9
528.136,829.7
528.682,829.4
529.229,829.5
529.775,829.9
530.321,830.0
530.867,828.8
531.413,828.8
531.959,830.9
532.505,828.5
533.051,829.3
533.596,830.0
534.141,885.5
534.687,876.6
535.232,867.6
535.777,864.3
536.321,858.8
536.866,856.8
537.41,856.5
537.955,857.3
538.499,856.5
539.043,853.1
539.587,850.8
540.131,848.3
540.675,851.1
541.219,848.6
541.762,851.5
542.305,852.2
542.849,853.5
543.392,851.9
543.935,853.5
544.478,853.0
545.02,855.0
545.563,854.7
546.106,856.4
546.648,857.1
547.19,856.3
547.732,855.3
548.274,856.4
548.816,850.8
549.358,852.4
549.9,855.1
550.441,854.9
550.983,854.7
551.524,855.5
552.065,852.6
552.606,853.8
553.147,855.7
553.688,858.3
554.229,857.0
554.769,859.4
555.31,858.8
555.85,860.1
556.391,862.9
556.931,861.0
557.471,864.4
558.011,869.2
558.551,864.9
559.09,863.2
559.63,867.2
560.169,865.0
560.709,868.1
561.248,866.7
561.787,869.3
562.326,869.2
562.865,874.5
563.404,879.1
563.943,950.3
564.481,897.5
565.02,891.4
565.558,888.9
566.096,1019.8
566.634,897.6
567.172,886.4
567.71,888.3
568.248,886.1
568.786,887.7
569.324,892.7
569.861,893.1
570.399,897.3
570.936,908.7
571.473,1026.5
572.01,925.5
572.547,913.2
573.084,914.7
573.621,921.6
574.158,935.4
574.694,934.5
575.231,955.2
575.767,1026.5
576.303,1051.8
576.84,1043.1
577.376,1031.9
577.912,1021.7
578.448,1040.1
578.984,1059.8
579.519,1074.2
580.055,1102.8
580.59,1128.1
581.126,1153.6
581.661,1175.9
582.196,1190.8
582.731,1210.9
583.267,1221.9
583.801,1231.9
584.336,1239.9
584.871,1246.7
585.406,1242.2
585.94,1256.2
586.475,1257.8
587.009,1264.9
587.543,1259.4
588.078,1260.0
588.612,1266.3
589.146,1266.5
589.68,1274.8
590.214,1281.7
590.747,1290.4
591.281,1294.4
591.815,1298.9
592.348,1293.0
592.881,1294.8
593.415,1301.6
593.948,1298.3
594.481,1290.0
595.014,1289.5
595.547,1283.1
596.08,1293.3
596.613,1288.7
597.146,1287.7
597.678,1292.3
598.211,1294.8
598.743,1302.6
599.276,1302.9
599.808,1300.3
600.34,1300.2
600.872,1286.9
601.404,1299.7
601.936,1294.7
602.468,1298.5
603.0,1283.4
603.532,1280.6
604.064,1272.3
604.595,1262.4
605.127,1240.8
605.658,1230.3
606.189,1206.3
606.721,1203.6
607.252,1196.8
607.783,1181.7
608.314,1179.6
608.845,1171.9
609.376,1151.3
609.907,1143.5
610.438,1141.9
610.968,1132.1
611.499,1126.0
612.029,1116.8
612.56,1115.3
613.09,1111.7
613.621,1106.5
614.151,1094.0
614.681,1098.4
615.211,1081.5
615.741,1082.8
616.271,1076.3
616.801,1071.2
617.331,1072.2
617.861,1076.6
618.39,1069.9
618.92,1061.0
619.45,1062.7
619.979,1062.7
620.509,1055.9
621.038,1060.7
621.567,1066.5
622.096,1079.0
622.626,1078.0
623.155,1066.0
623.684,1059.6
624.213,1068.7
624.742,1058.6
625.271,1063.3
625.799,1073.5
626.328,1088.1
626.857,1241.6
627.386,1559.9
627.914,1350.8
628.443,1463.2
628.971,1416.4
629.5,1342.0
630.028,1265.4
630.556,1258.6
631.084,1165.2
631.613,1115.0
632.141,1109.1
632.669,1100.2
633.197,1106.6
633.725,1105.5
634.253,1098.5
634.781,1103.6
635.308,1103.4
635.836,1104.3
636.364,1095.6
636.891,1100.7
637.419,1101.2
637.947,1096.7
638.474,1102.0
639.002,1101.6
639.529,1102.3
640.056,1099.0
640.584,1100.2
641.111,1099.8
641.638,1092.4
642.165,1104.8
642.692,1100.0
643.219,1093.0
643.746,1097.8
644.273,1089.8
644.8,1095.7
645.327,1084.4
645.854,1090.3
646.381,1085.5
646.908,1084.3
647.434,1090.0
647.961,1081.4
648.488,1090.7
649.014,1079.9
649.541,1079.6
650.067,1070.1
650.594,1075.3
651.12,1071.4
651.646,1067.6
652.173,1062.0
652.699,1065.1
653.225,1068.1
653.752,1062.5
654.278,1060.5
654.804,1059.6
655.33,1058.8
655.856,1053.6
656.382,1049.5
656.908,1051.9
657.434,1045.8
657.96,1041.8
658.486,1046.0
659.012,1034.3
659.538,1032.1
660.064,1030.1
660.589,1021.9
661.115,1020.6
661.641,1004.7
662.166,1006.9
662.692,1002.1
663.086,999.6