File: spectra/VLFR_01-LDPE_nobio_Raman_a21ec54e.csv
nm,Intensity
526.5,829.7
527.047,827.2
527.594,830.1
528.14,829.1
528.687,828.5
529.233,827.8
529.779,828.3
530.325,828.9
530.871,827.9
531.417,828.8
531.962,834.9
532.508,830.3
533.053,829.4
533.599,828.8
534.144,933.9
534.689,921.9
535.234,908.1
535.778,892.9
536.323,878.9
536.867,873.2
537.412,867.1
537.956,862.4
538.5,862.5
539.044,858.7
539.588,859.3
540.132,856.0
540.675,853.8
541.219,854.8
541.762,853.9
542.305,854.5
542.848,853.3
543.391,853.6
543.934,853.2
544.477,852.6
545.02,853.9
545.562,853.9
546.105,853.1
546.647,856.3
547.189,854.0
547.731,856.0
548.273,854.6
548.815,854.7
549.356,855.0
549.898,853.1
550.439,855.5
550.981,855.1
551.522,854.5
552.063,854.9
552.604,856.2
553.145,858.6
553.686,857.6
554.226,859.4
554.767,860.4
555.307,856.4
555.848,859.1
556.388,856.7
556.928,862.2
557.468,861.0
558.008,861.6
558.547,859.7
559.087,860.9
559.626,863.6
560.166,861.2
560.705,864.6
561.244,863.9
561.783,862.8
562.322,865.9
562.861,865.1
563.4,867.1
563.939,873.0
564.477,869.0
565.015,866.6
565.554,863.0
566.092,871.7
566.63,865.4
567.168,866.7
567.706,864.2
568.244,865.4
568.781,871.0
569.319,870.5
569.857,870.3
570.394,873.5
570.931,873.2
571.468,884.6
572.005,876.3
572.542,877.1
573.079,872.1
573.616,872.8
574.153,874.4
574.689,873.6
575.226,874.5
575.762,879.3
576.298,895.0
576.834,890.4
577.371,882.9
577.907,876.2
578.442,873.1
578.978,876.1
579.514,876.8
580.049,875.6
580.585,875.4
581.12,881.7
581.656,881.4
582.191,886.5
582.726,885.9
583.261,894.6
583.796,895.8
584.331,897.3
584.865,893.3
585.4,893.2
585.935,897.1
586.469,896.4
587.004,899.2
587.538,905.5
588.072,905.3
588.606,913.3
589.14,913.9
589.674,918.8
590.208,919.3
590.742,929.4
591.275,927.6
591.809,930.5
592.342,934.7
592.876,934.7
593.409,938.8
593.942,939.7
594.476,952.2
595.009,953.9
595.542,961.7
596.075,965.9
596.607,976.0
597.14,980.4
597.673,981.1
598.205,992.2
598.738,1000.2
599.27,1005.6
599.803,1007.2
600.335,1013.0
600.867,1012.1
601.399,1013.2
601.931,1010.1
602.463,1011.1
602.995,1008.7
603.527,1004.3
604.058,998.3
604.59,1000.7
605.122,988.5
605.653,979.3
606.184,976.8
606.716,971.3
607.247,964.8
607.778,959.2
608.309,958.2
608.84,956.4
609.371,955.1
609.902,951.5
610.433,948.9
610.964,942.5
611.494,944.9
612.025,943.7
612.556,938.9
613.086,938.2
613.616,940.5
614.147,938.3
614.677,937.4
615.207,934.7
615.737,932.1
616.267,931.1
616.797,928.0
617.327,929.6
617.857,921.4
618.387,925.1
618.917,922.6
619.446,922.7
619.976,922.2
620.505,921.6
621.035,919.7
621.564,923.7
622.093,926.5
622.623,929.3
623.152,920.2
623.681,919.2
624.21,917.3
624.739,920.0
625.268,917.9
625.797,919.8
626.326,924.3
626.855,953.3
627.383,1015.2
627.912,984.8
628.441,1017.7
628.969,993.9
629.498,984.8
630.026,982.3
630.554,981.9
631.083,967.0
631.611,944.0
632.139,939.4
632.667,931.0
633.195,925.9
633.724,920.0
634.252,917.5
634.779,919.2
635.307,918.0
635.835,922.0
636.363,919.9
636.891,916.5
637.418,919.7
637.946,919.1
638.474,919.4
639.001,922.3
639.529,920.6
640.056,928.5
640.583,923.5
641.111,923.5
641.638,927.2
642.165,927.2
642.692,930.8
643.22,928.1
643.747,934.2
644.274,933.3
644.801,936.7
645.328,933.7
645.854,939.1
646.381,940.9
646.908,939.3
647.435,939.7
647.962,937.5
648.488,940.9
649.015,940.9
649.542,937.3
650.068,939.9
650.595,945.5
651.121,942.5
651.648,948.0
652.174,944.9
652.7,945.4
653.227,948.0
653.753,949.7
654.279,950.9
654.805,949.9
655.331,950.5
655.858,946.5
656.384,947.2
656.91,948.2
657.436,944.3
657.962,945.4
658.488,946.8
659.013,943.9
659.539,938.4
660.065,939.5
660.591,935.2
661.117,936.8
661.642,930.5
662.168,931.3
662.694,923.3
663.088,926.4