File: spectra/VLFR_06-PET_bio_Raman_e21d57f2.csv
nm,Intensity
526.549,832.95
527.096,832.2
527.643,831.25
528.19,831.75
528.737,832.0
529.283,831.3
529.83,832.15
530.376,832.2
530.922,832.25
531.468,831.6
532.014,844.35
532.559,832.75
533.105,831.85
533.65,832.95
534.196,852.15
534.741,848.7
535.286,846.15
535.83,846.3
536.375,845.3
536.92,846.15
537.464,846.45
538.008,846.35
538.553,846.3
539.097,846.2
539.641,845.8
540.184,848.45
540.728,847.45
541.271,847.1
541.815,847.0
542.358,846.7
542.901,845.25
543.444,845.5
543.987,847.5
544.53,846.25
545.072,847.5
545.615,845.9
546.157,846.5
546.699,845.3
547.242,847.35
547.784,846.8
548.325,845.8
548.867,846.2
549.409,847.05
549.95,847.15
550.492,847.0
551.033,848.35
551.574,848.15
552.115,846.05
552.656,846.75
553.197,847.5
553.737,847.05
554.278,847.4
554.818,848.5
555.358,847.8
555.899,847.05
556.439,847.5
556.979,848.2
557.518,849.1
558.058,848.0
558.598,845.85
559.137,848.55
559.677,848.6
560.216,848.95
560.755,847.8
561.294,849.25
561.833,848.65
562.372,849.2
562.91,851.1
563.449,848.95
563.987,849.6
564.526,850.15
565.064,850.6
565.602,851.6
566.14,851.45
566.678,851.05
567.216,851.85
567.754,851.2
568.291,850.3
568.829,850.55
569.366,851.2
569.904,852.45
570.441,852.3
570.978,853.3
571.515,852.25
572.052,853.25
572.589,853.2
573.125,852.35
573.662,853.65
574.199,852.95
574.735,852.7
575.271,854.05
575.807,852.45
576.344,853.75
576.88,855.2
577.415,853.95
577.951,853.4
578.487,853.35
579.023,853.9
579.558,855.8
580.094,854.9
580.629,856.15
581.164,856.25
581.699,855.3
582.234,859.5
582.769,854.9
583.304,856.15
583.839,857.05
584.374,857.35
584.908,855.5
585.443,859.8
585.977,859.9
586.511,858.3
587.046,857.55
587.58,855.8
588.114,856.15
588.648,856.4
589.182,856.95
589.716,855.9
590.249,857.25
590.783,858.35
591.316,856.35
591.85,855.9
592.383,856.9
592.917,857.35
593.45,857.8
593.983,856.5
594.516,857.4
595.049,856.8
595.582,857.1
596.115,858.55
596.647,856.65
597.18,858.1
597.712,856.95
598.245,859.45
598.777,856.9
599.31,858.9
599.842,858.9
600.374,858.35
600.906,858.75
601.438,858.75
601.97,858.05
602.502,857.7
603.034,858.25
603.565,859.55
604.097,859.3
604.628,858.05
605.16,858.65
605.691,856.3
606.223,856.3
606.754,856.7
607.285,857.95
607.816,857.2
608.347,859.6
608.878,857.65
609.409,855.85
609.94,857.95
610.47,859.0
611.001,858.35
611.532,858.15
612.062,859.8
612.593,858.35
613.123,858.1
613.653,857.85
614.184,858.2
614.714,860.0
615.244,859.25
615.774,858.25
616.304,858.3
616.834,857.6
617.364,860.6
617.894,860.35
618.423,861.2
618.953,859.7
619.482,860.4
620.012,860.4
620.541,859.85
621.071,860.25
621.6,860.8
622.13,860.7
622.659,859.1
623.188,859.7
623.717,905.15
624.246,862.5
624.775,862.25
625.304,859.25
625.833,861.4
626.362,862.55
626.89,860.25
627.419,860.45
627.948,861.95
628.476,861.95
629.005,861.95
629.533,862.05
630.061,861.5
630.59,860.6
631.118,862.5
631.646,862.5
632.175,863.9
632.703,862.0
633.231,862.15
633.759,862.1
634.287,861.35
634.815,862.25
635.342,861.15
635.87,863.25
636.398,864.55
636.926,863.7
637.453,862.5
637.981,861.85
638.509,863.95
639.036,862.55
639.563,861.55
640.091,862.95
640.618,864.45
641.146,863.45
641.673,863.75
642.2,863.25
642.727,863.05
643.254,863.4
643.781,861.9
644.309,862.05
644.836,863.9
645.362,864.6
645.889,863.8
646.416,861.95
646.943,865.6
647.47,862.95
647.997,863.55
648.523,861.75
649.05,864.45
649.577,863.9
650.103,863.75
650.63,862.85
651.156,864.1
651.683,861.45
652.209,862.9
652.735,863.15
653.262,864.8
653.788,862.9
654.314,861.35
654.841,861.75
655.367,862.45
655.893,860.85
656.419,861.75
656.945,862.5
657.471,862.45
657.997,860.9
658.523,862.7
659.049,861.8
659.575,860.15
660.101,863.05
660.627,861.0
661.153,860.05
661.679,860.55
662.205,859.6
662.731,859.5
663.125,860.7