File: spectra/VLFR_02-HDPE_nobio_Raman_5556c66d.csv
nm,Intensity
526.486,827.5
527.033,830.7
527.579,828.8
528.126,828.3
528.672,828.9
529.219,829.4
529.765,829.7
530.311,829.0
530.857,829.5
531.403,828.6
531.948,834.8
532.494,829.3
533.039,829.2
533.585,829.6
534.13,892.5
534.675,895.8
535.22,893.6
535.764,860.7
536.309,850.1
536.854,851.1
537.398,847.9
537.942,848.2
538.486,845.1
539.03,841.1
539.574,840.9
540.118,838.1
540.662,837.1
541.205,837.8
541.749,837.7
542.292,837.6
542.835,836.3
543.378,837.1
543.921,836.9
544.464,835.1
545.006,835.0
545.549,835.6
546.091,835.1
546.634,835.2
547.176,834.6
547.718,834.6
548.26,833.5
548.802,833.6
549.343,834.8
549.885,835.4
550.426,835.1
550.968,834.9
551.509,835.1
552.05,836.3
552.591,836.3
553.132,836.1
553.673,837.7
554.214,836.8
554.754,838.8
555.295,838.8
555.835,841.4
556.375,839.1
556.915,841.0
557.455,843.7
557.995,844.0
558.535,844.0
559.075,844.6
559.614,841.6
560.154,840.7
560.693,840.1
561.232,840.3
561.772,839.7
562.311,843.7
562.85,843.8
563.388,848.8
563.927,925.3
564.466,862.8
565.004,857.9
565.543,850.3
566.081,910.6
566.619,852.1
567.157,848.9
567.695,858.8
568.233,844.2
568.771,843.1
569.309,844.2
569.846,844.2
570.384,848.1
570.921,854.7
571.458,962.5
571.995,875.3
572.532,851.6
573.069,844.4
573.606,846.4
574.143,855.0
574.68,842.8
575.216,848.5
575.753,896.1
576.289,1014.4
576.825,938.1
577.361,913.8
577.897,856.8
578.433,850.6
578.969,848.1
579.505,847.6
580.041,849.8
580.576,846.9
581.112,846.9
581.647,846.5
582.183,848.6
582.718,847.9
583.253,848.2
583.788,847.0
584.323,848.0
584.858,848.4
585.392,848.1
585.927,848.7
586.462,849.8
586.996,849.8
587.53,850.4
588.065,851.1
588.599,853.3
589.133,854.4
589.667,853.4
590.201,854.5
590.735,856.2
591.268,857.2
591.802,858.7
592.335,857.7
592.869,858.7
593.402,860.1
593.936,859.8
594.469,861.2
595.002,861.5
595.535,862.2
596.068,863.1
596.601,864.5
597.133,865.0
597.666,868.1
598.199,869.6
598.731,869.6
599.264,870.7
599.796,870.1
600.328,871.1
600.86,873.2
601.393,870.9
601.925,873.8
602.457,876.3
602.988,870.4
603.52,868.9
604.052,870.6
604.583,869.9
605.115,867.7
605.646,865.8
606.178,865.9
606.709,864.2
607.24,865.3
607.771,862.2
608.302,862.2
608.833,866.5
609.364,861.7
609.895,861.8
610.426,862.6
610.957,862.9
611.487,859.8
612.018,862.1
612.548,859.9
613.078,860.4
613.609,859.9
614.139,862.2
614.669,861.5
615.199,863.1
615.729,863.9
616.259,865.8
616.789,866.7
617.319,876.9
617.849,879.1
618.378,876.1
618.908,876.4
619.437,879.4
619.967,878.9
620.496,882.4
621.025,886.9
621.555,907.6
622.084,950.4
622.613,948.4
623.142,896.2
623.671,883.8
624.2,875.7
624.729,880.5
625.258,886.1
625.786,898.0
626.315,937.8
626.844,1351.9
627.372,2093.5
627.901,1568.0
628.429,1921.0
628.957,1529.4
629.486,1358.0
630.014,1201.1
630.542,1170.3
631.07,1002.3
631.598,904.7
632.126,887.0
632.654,875.7
633.182,870.8
633.71,870.4
634.237,867.4
634.765,862.7
635.293,858.4
635.82,857.9
636.348,858.0
636.875,857.8
637.403,855.0
637.93,847.5
638.458,849.3
638.985,848.7
639.512,849.4
640.039,848.2
640.566,849.3
641.093,849.4
641.62,848.2
642.147,849.9
642.674,847.5
643.201,848.6
643.728,848.9
644.255,847.1
644.781,846.8
645.308,846.9
645.835,848.0
646.361,846.6
646.888,848.5
647.414,847.2
647.941,847.2
648.467,849.6
648.993,849.7
649.52,847.5
650.046,847.1
650.572,848.3
651.098,848.7
651.625,849.0
652.151,848.4
652.677,847.4
653.203,847.9
653.729,847.8
654.255,848.0
654.78,848.1
655.306,847.9
655.832,847.2
656.358,847.5
656.884,846.2
657.409,845.9
657.935,845.6
658.461,845.7
658.986,846.4
659.512,848.4
660.037,848.0
660.563,849.0
661.088,845.6
661.614,842.0
662.139,843.5
662.664,843.4
663.058,842.7