File: spectra/VLFR_02-HDPE_nobio_Raman_6ce42be9.csv
nm,Intensity
526.486,828.8
527.033,828.8
527.579,829.2
528.126,828.3
528.672,829.3
529.219,829.2
529.765,827.6
530.311,828.6
530.857,829.1
531.403,829.4
531.948,835.7
532.494,831.9
533.039,829.3
533.585,828.6
534.13,883.3
534.675,886.0
535.22,882.1
535.764,859.1
536.309,851.0
536.854,845.8
537.398,850.0
537.942,846.1
538.486,845.1
539.03,843.3
539.574,841.5
540.118,840.3
540.662,839.4
541.205,839.5
541.749,837.0
542.292,838.2
542.835,836.9
543.378,838.2
543.921,838.6
544.464,837.0
545.006,837.4
545.549,835.6
546.091,837.0
546.634,837.7
547.176,839.5
547.718,837.1
548.26,838.3
548.802,838.8
549.343,838.1
549.885,837.5
550.426,838.7
550.968,837.5
551.509,837.7
552.05,836.4
552.591,839.5
553.132,838.0
553.673,839.9
554.214,838.7
554.754,839.3
555.295,839.4
555.835,841.5
556.375,843.0
556.915,842.4
557.455,844.2
557.995,844.6
558.535,848.1
559.075,844.8
559.614,843.5
560.154,842.6
560.693,841.8
561.232,845.6
561.772,842.3
562.311,848.0
562.85,847.2
563.388,847.4
563.927,905.4
564.466,868.5
565.004,859.5
565.543,853.5
566.081,914.9
566.619,856.8
567.157,849.8
567.695,856.4
568.233,846.2
568.771,846.3
569.309,846.5
569.846,846.1
570.384,848.8
570.921,853.0
571.458,942.5
571.995,873.8
572.532,854.1
573.069,849.8
573.606,850.2
574.143,857.4
574.68,849.3
575.216,851.2
575.753,896.8
576.289,1000.7
576.825,925.7
577.361,910.1
577.897,861.3
578.433,852.4
578.969,851.4
579.505,852.7
580.041,850.7
580.576,853.0
581.112,852.5
581.647,853.0
582.183,851.7
582.718,852.8
583.253,853.6
583.788,854.9
584.323,856.1
584.858,857.5
585.392,860.7
585.927,864.0
586.462,864.3
586.996,870.5
587.53,869.8
588.065,874.4
588.599,874.4
589.133,877.6
589.667,883.2
590.201,886.0
590.735,889.6
591.268,894.3
591.802,896.7
592.335,896.7
592.869,902.0
593.402,902.6
593.936,901.2
594.469,904.7
595.002,913.9
595.535,912.6
596.068,912.6
596.601,913.7
597.133,920.8
597.666,919.0
598.199,921.8
598.731,925.7
599.264,926.8
599.796,923.7
600.328,923.5
600.86,930.2
601.393,931.4
601.925,928.2
602.457,929.3
602.988,928.0
603.52,927.6
604.052,923.5
604.583,920.1
605.115,924.1
605.646,915.5
606.178,912.4
606.709,907.2
607.24,904.9
607.771,903.5
608.302,903.4
608.833,901.7
609.364,900.1
609.895,897.6
610.426,900.3
610.957,899.3
611.487,897.9
612.018,894.0
612.548,893.6
613.078,894.0
613.609,896.4
614.139,892.8
614.669,891.5
615.199,891.6
615.729,889.8
616.259,892.5
616.789,893.2
617.319,902.1
617.849,899.4
618.378,899.3
618.908,895.6
619.437,896.1
619.967,899.1
620.496,896.2
621.025,900.9
621.555,919.1
622.084,947.5
622.613,948.9
623.142,910.6
623.671,899.8
624.2,894.6
624.729,895.8
625.258,900.5
625.786,910.3
626.315,939.5
626.844,1240.0
627.372,1829.0
627.901,1415.5
628.429,1693.2
628.957,1410.3
629.486,1277.2
630.014,1151.8
630.542,1121.7
631.07,995.3
631.598,912.8
632.126,897.0
632.654,887.5
633.182,887.5
633.71,881.4
634.237,879.9
634.765,876.3
635.293,874.3
635.82,878.0
636.348,876.2
636.875,877.3
637.403,873.6
637.93,869.8
638.458,868.2
638.985,873.4
639.512,872.0
640.039,873.5
640.566,872.7
641.093,873.3
641.62,874.4
642.147,876.5
642.674,873.4
643.201,876.3
643.728,872.2
644.255,877.3
644.781,879.1
645.308,876.8
645.835,877.3
646.361,878.7
646.888,880.0
647.414,881.3
647.941,883.1
648.467,880.7
648.993,879.6
649.52,879.9
650.046,881.0
650.572,880.3
651.098,880.5
651.625,882.0
652.151,880.5
652.677,886.2
653.203,881.2
653.729,879.7
654.255,880.8
654.78,881.1
655.306,880.9
655.832,881.7
656.358,878.4
656.884,876.3
657.409,877.8
657.935,874.5
658.461,875.3
658.986,877.0
659.512,874.0
660.037,876.8
660.563,872.8
661.088,871.5
661.614,867.5
662.139,868.3
662.664,867.2
663.058,867.1