File: spectra/VLFR_09-PET_bio_Raman_05321540.csv
nm,Intensity
526.547,832.75
527.095,832.8
527.642,833.3
528.189,833.25
528.736,832.95
529.283,832.7
529.829,832.25
530.376,832.7
530.922,831.85
531.468,832.5
532.014,836.4
532.56,833.15
533.106,832.65
533.651,843.65
534.196,1572.7
534.742,1505.15
535.287,1421.0
535.832,1402.25
536.376,1377.55
536.921,1367.2
537.465,1365.1
538.01,1370.05
538.554,1376.7
539.098,1380.85
539.642,1396.0
540.186,1410.3
540.729,1405.2
541.273,1414.2
541.816,1424.55
542.36,1431.95
542.903,1442.85
543.446,1457.05
543.988,1473.55
544.531,1487.15
545.074,1489.6
545.616,1501.3
546.158,1517.5
546.701,1544.35
547.243,1528.55
547.785,1533.2
548.326,1544.9
548.868,1561.85
549.41,1576.15
549.951,1581.0
550.492,1613.65
551.034,1599.1
551.575,1608.85
552.116,1615.2
552.656,1622.25
553.197,1634.85
553.738,1648.35
554.278,1653.2
554.819,1660.1
555.359,1665.55
555.899,1685.25
556.439,1693.5
556.979,1700.95
557.519,1809.7
558.058,1736.4
558.598,1708.1
559.137,1712.95
559.677,1717.8
560.216,1725.6
560.755,1733.6
561.294,1744.15
561.833,1748.7
562.371,1912.3
562.91,1773.5
563.449,1772.8
563.987,1794.3
564.525,1814.1
565.064,1873.65
565.602,1856.85
566.14,1851.45
566.678,1819.4
567.216,1811.45
567.753,1840.05
568.291,1838.05
568.828,1828.6
569.366,1847.95
569.903,1856.6
570.44,1880.05
570.977,1945.75
571.514,2039.1
572.051,1942.05
572.588,1903.65
573.125,1905.25
573.661,1914.35
574.198,1928.2
574.734,1933.95
575.271,1957.9
575.807,1946.2
576.343,1956.35
576.879,1981.35
577.415,1987.0
577.951,1980.85
578.486,1989.05
579.022,2000.35
579.557,2018.55
580.093,2018.65
580.628,2023.8
581.164,2050.9
581.699,2112.5
582.234,2777.3
582.769,2106.4
583.304,2094.35
583.838,2104.1
584.373,2096.8
584.908,2114.9
585.442,2178.4
585.977,2494.55
586.511,2346.35
587.045,2191.25
587.58,2178.7
588.114,2164.1
588.648,2166.15
589.182,2159.05
589.715,2169.55
590.249,2167.2
590.783,2172.9
591.316,2188.4
591.85,2201.75
592.383,2186.6
592.917,2179.85
593.45,2183.85
593.983,2185.75
594.516,2193.75
595.049,2202.5
595.582,2212.25
596.115,2208.35
596.648,2219.05
597.18,2222.95
597.713,2216.15
598.245,2235.25
598.778,2243.35
599.31,2253.1
599.842,2238.3
600.375,2231.55
600.907,2221.0
601.439,2233.5
601.971,2217.35
602.503,2220.5
603.034,2235.55
603.566,2243.7
604.098,2243.0
604.629,2220.65
605.161,2215.25
605.692,2212.55
606.224,2200.85
606.755,2203.0
607.286,2207.65
607.817,2223.9
608.348,2246.8
608.879,2239.7
609.41,2251.7
609.941,2264.15
610.472,2264.3
611.002,2273.8
611.533,2276.05
612.063,2307.3
612.594,2329.7
613.124,2365.4
613.655,2379.9
614.185,2385.8
614.715,2394.55
615.245,2403.0
615.775,2415.35
616.305,2423.45
616.835,2448.65
617.365,2481.5
617.895,2489.05
618.425,2518.2
618.954,2523.65
619.484,2527.85
620.013,2548.8
620.543,2558.35
621.072,2568.45
621.602,2597.2
622.131,2627.4
622.66,2637.0
623.189,2667.5
623.718,2685.0
624.247,2706.15
624.776,2741.05
625.305,2745.6
625.834,2770.4
626.363,2761.5
626.891,2802.0
627.42,2804.5
627.949,2821.6
628.477,2848.35
629.006,2864.05
629.534,2900.9
630.062,2917.05
630.591,2918.7
631.119,2963.9
631.647,3002.6
632.175,3004.1
632.703,2999.55
633.231,3016.8
633.759,3007.85
634.287,2999.2
634.815,3010.65
635.343,3029.75
635.871,3076.4
636.398,3180.15
636.926,3165.9
637.454,3100.5
637.981,3097.95
638.509,3095.45
639.036,3111.4
639.564,3107.1
640.091,3112.5
640.618,3114.45
641.146,3130.1
641.673,3134.9
642.2,3143.3
642.727,3118.3
643.254,3120.15
643.781,3096.5
644.308,3084.45
644.835,3084.45
645.362,3074.45
645.889,3072.65
646.416,3072.4
646.942,3091.1
647.469,3098.65
647.996,3077.8
648.522,3064.85
649.049,3068.75
649.576,3066.25
650.102,3065.25
650.629,3049.85
651.155,3039.2
651.682,3044.2
652.208,3046.5
652.734,3047.1
653.261,3029.95
653.787,3040.1
654.313,3026.0
654.839,3018.25
655.365,3005.7
655.892,3021.25
656.418,3002.85
656.944,3017.8
657.47,2990.15
657.996,2996.75
658.522,3013.25
659.048,3004.8
659.574,2999.95
660.099,3012.4
660.625,2984.2
661.151,2967.25
661.677,2947.8
662.203,2942.85
662.728,2956.9
663.123,2942.65