File: spectra/VLFR_02-HDPE_bio_Raman_e43b2d2b.csv
nm,Intensity
526.547,832.75
527.095,831.8
527.642,832.8
528.189,832.3
528.736,832.0
529.283,832.95
529.829,832.7
530.376,832.05
530.922,831.55
531.468,832.1
532.014,841.0
532.56,833.05
533.106,832.0
533.651,832.75
534.196,888.65
534.742,887.75
535.287,882.1
535.832,866.35
536.376,860.25
536.921,860.15
537.465,860.15
538.01,860.45
538.554,860.55
539.098,857.65
539.642,857.3
540.186,856.75
540.729,856.95
541.273,855.35
541.816,857.45
542.36,859.65
542.903,858.75
543.446,859.5
543.988,859.2
544.531,860.8
545.074,860.65
545.616,859.35
546.158,861.65
546.701,862.05
547.243,860.7
547.785,861.55
548.326,860.75
548.868,862.55
549.41,862.55
549.951,864.55
550.492,862.8
551.034,862.55
551.575,863.85
552.116,862.95
552.656,864.55
553.197,864.55
553.738,863.25
554.278,865.5
554.819,864.4
555.359,865.2
555.899,866.55
556.439,866.0
556.979,865.45
557.519,868.05
558.058,866.15
558.598,868.55
559.137,868.8
559.677,867.05
560.216,867.0
560.755,869.5
561.294,868.6
561.833,867.35
562.371,871.1
562.91,871.65
563.449,872.0
563.987,941.25
564.525,888.65
565.064,882.05
565.602,879.35
566.14,953.0
566.678,879.6
567.216,878.65
567.753,876.15
568.291,873.5
568.828,871.45
569.366,874.55
569.903,875.6
570.44,877.25
570.977,881.0
571.514,1003.25
572.051,893.1
572.588,880.25
573.125,878.75
573.661,880.7
574.198,885.1
574.734,881.1
575.271,883.45
575.807,913.15
576.343,1012.5
576.879,952.35
577.415,926.75
577.951,895.5
578.486,893.05
579.022,895.5
579.557,898.0
580.093,901.15
580.628,902.35
581.164,903.45
581.699,906.05
582.234,909.5
582.769,913.3
583.304,919.8
583.838,922.6
584.373,925.45
584.908,931.4
585.442,934.35
585.977,943.9
586.511,947.55
587.045,954.25
587.58,962.6
588.114,969.95
588.648,978.1
589.182,987.95
589.715,994.4
590.249,1003.2
590.783,1012.0
591.316,1020.75
591.85,1027.6
592.383,1032.4
592.917,1036.2
593.45,1042.6
593.983,1042.0
594.516,1045.5
595.049,1052.2
595.582,1048.4
596.115,1052.65
596.648,1049.75
597.18,1053.8
597.713,1052.9
598.245,1054.8
598.778,1055.05
599.31,1055.5
599.842,1056.7
600.375,1048.35
600.907,1053.15
601.439,1043.7
601.971,1051.15
602.503,1045.9
603.034,1039.55
603.566,1032.25
604.098,1033.0
604.629,1020.8
605.161,1015.95
605.692,1005.45
606.224,1002.95
606.755,992.45
607.286,984.75
607.817,985.65
608.348,977.0
608.879,977.9
609.41,970.65
609.941,968.9
610.472,966.85
611.002,962.05
611.533,959.15
612.063,956.1
612.594,957.7
613.124,954.1
613.655,952.9
614.185,950.25
614.715,951.5
615.245,946.9
615.775,946.2
616.305,943.35
616.835,941.75
617.365,947.15
617.895,945.6
618.425,945.7
618.954,941.0
619.484,943.3
620.013,942.5
620.543,940.8
621.072,944.95
621.602,957.2
622.131,985.35
622.66,977.5
623.189,944.0
623.718,935.2
624.247,935.7
624.776,935.1
625.305,939.15
625.834,946.15
626.363,979.0
626.891,1292.2
627.42,1694.95
627.949,1363.55
628.477,1731.1
629.006,1396.9
629.534,1280.2
630.062,1169.15
630.591,1142.35
631.119,1014.7
631.647,952.5
632.175,942.75
632.703,941.3
633.231,935.35
633.759,931.0
634.287,926.85
634.815,930.35
635.343,933.6
635.871,930.25
636.398,930.3
636.926,932.75
637.454,930.35
637.981,929.75
638.509,930.1
639.036,936.65
639.564,935.35
640.091,936.05
640.618,939.35
641.146,943.0
641.673,943.9
642.2,945.1
642.727,946.1
643.254,947.45
643.781,946.2
644.308,947.45
644.835,951.85
645.362,953.65
645.889,949.6
646.416,950.3
646.942,951.8
647.469,953.4
647.996,950.25
648.522,950.8
649.049,949.95
649.576,946.35
650.102,949.25
650.629,944.65
651.155,941.85
651.682,943.6
652.208,945.6
652.734,941.25
653.261,940.4
653.787,943.85
654.313,938.3
654.839,938.1
655.365,934.35
655.892,934.35
656.418,933.4
656.944,932.75
657.47,931.3
657.996,927.95
658.522,926.85
659.048,924.5
659.574,922.95
660.099,923.15
660.625,918.75
661.151,916.1
661.677,912.3
662.203,910.95
662.728,906.35
663.123,905.05