File: spectra/VLFR_01-LDPE_bio_Raman_57520014.csv
nm,Intensity
526.495,828.6
527.042,827.2
527.589,829.2
528.136,829.4
528.682,830.0
529.229,828.1
529.775,828.9
530.321,829.3
530.867,828.2
531.413,829.4
531.959,834.1
532.505,831.0
533.051,828.5
533.596,830.5
534.141,902.6
534.687,886.4
535.232,877.8
535.777,863.7
536.321,860.2
536.866,856.3
537.41,854.0
537.955,854.6
538.499,853.9
539.043,851.2
539.587,849.4
540.131,847.3
540.675,846.8
541.219,846.1
541.762,844.3
542.305,845.6
542.849,845.5
543.392,847.0
543.935,843.9
544.478,843.8
545.02,842.8
545.563,843.3
546.106,843.2
546.648,843.7
547.19,841.9
547.732,843.9
548.274,842.3
548.816,841.7
549.358,839.9
549.9,841.7
550.441,842.5
550.983,842.2
551.524,840.2
552.065,842.5
552.606,843.0
553.147,842.1
553.688,846.8
554.229,843.6
554.769,846.3
555.31,845.5
555.85,847.5
556.391,847.3
556.931,849.0
557.471,851.9
558.011,854.0
558.551,854.6
559.09,853.2
559.63,851.5
560.169,852.2
560.709,849.5
561.248,850.5
561.787,851.3
562.326,854.6
562.865,856.6
563.404,860.7
563.943,909.7
564.481,877.8
565.02,869.2
565.558,863.8
566.096,923.3
566.634,870.3
567.172,862.3
567.71,869.1
568.248,862.3
568.786,862.0
569.324,863.4
569.861,867.1
570.399,869.2
570.936,877.7
571.473,958.4
572.01,904.2
572.547,883.1
573.084,878.2
573.621,884.8
574.158,891.4
574.694,883.8
575.231,889.9
575.767,928.8
576.303,1031.5
576.84,985.4
577.376,954.1
577.912,924.8
578.448,926.0
578.984,930.0
579.519,931.6
580.055,943.8
580.59,943.6
581.126,946.1
581.661,953.9
582.196,962.8
582.731,961.4
583.267,965.6
583.801,971.3
584.336,966.1
584.871,973.3
585.406,974.9
585.94,976.8
586.475,978.1
587.009,987.2
587.543,987.7
588.078,988.8
588.612,989.7
589.146,993.3
589.68,994.8
590.214,995.4
590.747,1007.9
591.281,1004.5
591.815,1012.3
592.348,1007.3
592.881,1006.9
593.415,1006.4
593.948,1010.3
594.481,1013.7
595.014,1016.4
595.547,1019.3
596.08,1023.2
596.613,1030.7
597.146,1030.2
597.678,1035.8
598.211,1045.3
598.743,1044.1
599.276,1053.6
599.808,1053.0
600.34,1058.0
600.872,1056.9
601.404,1053.1
601.936,1053.4
602.468,1046.8
603.0,1041.4
603.532,1037.3
604.064,1032.4
604.595,1021.1
605.127,1011.8
605.658,999.3
606.189,996.5
606.721,986.4
607.252,981.8
607.783,976.1
608.314,974.2
608.845,971.2
609.376,964.1
609.907,958.7
610.438,958.7
610.968,952.2
611.499,948.7
612.029,947.5
612.56,949.8
613.09,947.6
613.621,941.3
614.151,943.8
614.681,935.8
615.211,933.8
615.741,934.3
616.271,933.6
616.801,934.0
617.331,936.2
617.861,940.0
618.39,938.0
618.92,935.6
619.45,935.4
619.979,939.2
620.509,936.2
621.038,939.7
621.567,949.1
622.096,973.4
622.626,972.0
623.155,950.2
623.684,936.3
624.213,938.9
624.742,933.1
625.271,942.0
625.799,950.5
626.328,975.0
626.857,1222.8
627.386,1671.0
627.914,1391.1
628.443,1600.3
628.971,1429.7
629.5,1325.9
630.028,1225.7
630.556,1195.9
631.084,1058.4
631.613,990.7
632.141,963.1
632.669,953.2
633.197,945.7
633.725,940.2
634.253,940.2
634.781,937.0
635.308,935.1
635.836,929.3
636.364,930.8
636.891,930.3
637.419,929.1
637.947,930.7
638.474,930.1
639.002,930.0
639.529,931.6
640.056,928.1
640.584,928.1
641.111,931.3
641.638,931.5
642.165,930.1
642.692,933.3
643.219,931.0
643.746,931.0
644.273,928.5
644.8,931.4
645.327,928.2
645.854,928.3
646.381,928.0
646.908,932.1
647.434,931.5
647.961,926.8
648.488,928.5
649.014,928.2
649.541,923.7
650.067,925.3
650.594,931.4
651.12,925.2
651.646,928.7
652.173,927.0
652.699,927.8
653.225,924.6
653.752,926.0
654.278,924.5
654.804,925.9
655.33,925.8
655.856,927.3
656.382,921.5
656.908,923.3
657.434,918.3
657.96,918.4
658.486,918.6
659.012,915.0
659.538,909.3
660.064,911.1
660.589,909.3
661.115,903.7
661.641,899.6
662.166,900.9
662.692,896.3
663.086,895.0