File: spectra/VLFR_06-PET_bio_Raman_1c48e8c0.csv
nm,Intensity
528.626,1862.9
529.132,1863.5
529.637,1864.25
530.143,1865.9
530.648,1864.45
531.153,1867.05
531.658,1908.65
532.164,4277.55
532.669,1869.0
533.174,1869.1
533.679,2533.85
534.184,4363.6
534.689,3778.7
535.194,3356.15
535.699,2980.05
536.203,2747.6
536.708,2668.65
537.213,2654.55
537.717,2642.85
538.222,2664.95
538.726,2671.9
539.231,2689.25
539.735,2770.3
540.239,2740.1
540.744,2681.2
541.248,2672.9
541.752,2665.55
542.256,2686.95
542.76,2712.6
543.264,2731.7
543.768,2717.9
544.272,2725.8
544.776,2744.3
545.28,2764.0
545.784,2775.95
546.287,2774.2
546.791,2774.35
547.294,2805.15
547.798,2811.45
548.301,2824.7
548.805,2861.45
549.308,2858.35
549.811,2861.7
550.315,2912.8
550.818,3126.3
551.321,2910.75
551.824,2952.8
552.327,2976.7
552.83,3106.35
553.333,2995.45
553.835,2976.2
554.338,3012.2
554.841,3023.45
555.343,3112.2
555.846,3207.9
556.349,3215.95
556.851,3258.35
557.353,3608.25
557.856,3439.5
558.358,3349.75
558.86,3269.2
559.362,3201.5
559.864,3175.8
560.366,3209.55
560.868,3208.2
561.37,3262.5
561.872,3277.2
562.374,3360.05
562.876,3368.75
563.377,3352.4
563.879,3314.8
564.38,3377.55
564.882,3523.55
565.383,3671.45
565.885,3767.95
566.386,3523.45
566.887,3449.75
567.388,3537.35
567.889,3639.6
568.391,3558.8
568.892,3548.75
569.392,3591.35
569.893,3667.9
570.394,3834.8
570.895,4205.0
571.395,4441.4
571.896,4062.85
572.397,3869.3
572.897,3799.1
573.397,3781.95
573.898,3807.15
574.398,3807.6
574.898,3830.65
575.398,3942.9
575.898,3914.15
576.398,3961.05
576.898,3976.45
577.398,3929.2
577.898,3901.5
578.398,3894.7
578.897,3889.15
579.397,3981.1
579.896,3973.05
580.396,4015.65
580.895,4142.9
581.395,4234.7
581.894,5630.0
582.393,5351.05
582.892,4079.9
583.391,4081.7
583.89,4038.45
584.389,4133.8
584.888,4167.35
585.387,4517.2
585.886,5619.35
586.384,5080.55
586.883,4263.25
587.381,4149.5
587.88,4133.0
588.378,4170.6
588.876,4104.0
589.375,4085.3
589.873,4104.55
590.371,4104.85
590.869,4146.85
591.367,4178.05
591.865,4230.25
592.363,4227.55
592.86,4215.35
593.358,4195.1
593.856,4203.85
594.353,4192.9
594.851,4187.45
595.348,4236.25
595.845,4259.1
596.342,4284.95
596.84,4258.55
597.337,4222.35
597.834,4239.85
598.331,4239.9
598.828,4263.15
599.324,4324.35
599.821,4260.75
600.318,4273.25
600.814,4304.75
601.311,4315.2
601.807,4322.75
602.304,4334.0
602.8,4316.35
603.296,4314.65
603.792,4345.2
604.288,4377.9
604.784,4348.25
605.28,4319.15
605.776,4406.4
606.272,4380.5
606.767,4428.5
607.263,4382.6
607.759,4407.0
608.254,4418.95
608.749,4455.5
609.245,4405.65
609.74,4407.3
610.235,4506.25
610.73,4463.5
611.225,4478.0
611.72,4512.6
612.215,4474.3
612.71,4478.5
613.204,4466.75
613.699,4509.75
614.194,4552.6
614.688,4519.35
615.182,4571.85
615.677,4566.15
616.171,4556.05
616.665,4542.75
617.159,4556.9
617.653,4571.0
618.147,4648.3
618.641,4605.45
619.135,4685.55
619.628,4651.05
620.122,4614.7
620.615,4621.9
621.109,4528.8
621.602,4653.8
622.095,4624.25
622.589,4637.1
623.082,4670.2
623.575,4719.2
624.068,4643.25
624.561,4762.85
625.053,4699.45
625.546,4727.25
626.039,4702.25
626.531,4704.3
627.024,4687.3
627.516,4763.75
628.008,4773.3
628.501,4752.5
628.993,4814.95
629.485,4848.0
629.977,4832.6
630.469,4844.1
630.96,4920.2
631.452,5143.3
631.944,5210.85
632.435,5099.35
632.927,5053.8
633.418,4993.55
633.91,4964.45
634.401,4897.75
634.892,4919.6
635.383,4919.7
635.874,5059.3
636.365,5381.55
636.856,5216.5
637.346,5023.4
637.837,4862.2
638.327,4958.5
638.818,4906.15
639.308,4919.6
639.799,4844.8
640.289,4839.75
640.779,4779.45
641.269,4944.0
641.759,4782.3
642.249,4891.7
642.738,4892.0
643.228,4812.65
643.718,4865.0
644.207,4842.45
644.697,4742.8
645.186,4855.0
645.675,4887.25
646.164,4811.55
646.653,4820.55
647.142,4807.25
647.631,4771.5
648.12,4763.95
648.609,4674.4
649.098,4704.2
649.586,4595.6
650.075,4636.85
650.563,4685.4
651.051,4580.15
651.539,4594.75
652.027,4596.55
652.515,4608.1
653.003,4545.3
653.491,4560.9
653.979,4468.65
654.467,4378.35
654.954,4414.2
655.442,4466.7
655.929,4409.3
656.416,4386.9
656.904,4369.5
657.391,4270.55
657.878,4299.45
658.365,4209.15
658.851,4273.05
659.338,4127.75
659.825,4135.65
660.311,4160.35
660.798,4134.75
661.041,4069.9