File: spectra/VLFR_01-LDPE_nobio_Raman_820522e5.csv
nm,Intensity
526.5,829.0
527.047,830.5
527.594,828.7
528.14,828.3
528.687,830.1
529.233,829.1
529.779,830.2
530.325,829.5
530.871,829.1
531.417,829.5
531.962,837.6
532.508,830.8
533.053,829.3
533.599,829.3
534.144,845.0
534.689,845.6
535.234,841.5
535.778,841.8
536.323,838.5
536.867,840.2
537.412,839.3
537.956,836.5
538.5,839.3
539.044,837.3
539.588,837.5
540.132,837.6
540.675,836.2
541.219,838.7
541.762,839.1
542.305,841.8
542.848,838.6
543.391,841.5
543.934,840.3
544.477,841.3
545.02,842.1
545.562,840.7
546.105,838.9
546.647,839.7
547.189,840.0
547.731,836.2
548.273,836.0
548.815,836.7
549.356,838.2
549.898,836.9
550.439,837.9
550.981,835.6
551.522,835.4
552.063,836.8
552.604,839.0
553.145,835.7
553.686,838.5
554.226,835.9
554.767,835.9
555.307,836.6
555.848,835.4
556.388,836.7
556.928,837.4
557.468,836.8
558.008,836.8
558.547,839.3
559.087,838.4
559.626,839.0
560.166,838.9
560.705,837.8
561.244,837.5
561.783,838.4
562.322,840.1
562.861,839.0
563.4,840.8
563.939,849.2
564.477,844.4
565.015,851.0
565.554,848.7
566.092,850.0
566.63,843.8
567.168,844.1
567.706,841.1
568.244,839.3
568.781,840.8
569.319,840.7
569.857,840.3
570.394,842.8
570.931,843.9
571.468,846.3
572.005,844.1
572.542,845.6
573.079,844.9
573.616,845.0
574.153,847.7
574.689,846.6
575.226,845.2
575.762,846.0
576.298,849.4
576.834,846.1
577.371,848.0
577.907,844.9
578.442,843.2
578.978,842.9
579.514,844.4
580.049,845.7
580.585,845.9
581.12,846.5
581.656,845.9
582.191,846.3
582.726,846.6
583.261,848.4
583.796,847.2
584.331,849.7
584.865,849.7
585.4,852.3
585.935,853.0
586.469,853.9
587.004,852.9
587.538,855.2
588.072,859.0
588.606,859.4
589.14,860.0
589.674,861.6
590.208,863.7
590.742,868.1
591.275,868.5
591.809,866.4
592.342,870.8
592.876,871.1
593.409,874.5
593.942,878.5
594.476,879.8
595.009,885.1
595.542,888.4
596.075,896.0
596.607,900.7
597.14,907.4
597.673,912.1
598.205,916.1
598.738,918.5
599.27,926.4
599.803,924.4
600.335,924.5
600.867,929.8
601.399,925.3
601.931,927.9
602.463,927.5
602.995,925.2
603.527,922.6
604.058,920.3
604.59,914.8
605.122,906.1
605.653,905.7
606.184,899.5
606.716,897.4
607.247,894.0
607.778,893.5
608.309,891.3
608.84,891.1
609.371,886.7
609.902,887.0
610.433,882.8
610.964,882.8
611.494,879.0
612.025,882.1
612.556,881.1
613.086,877.7
613.616,880.6
614.147,875.1
614.677,873.1
615.207,875.8
615.737,872.5
616.267,873.7
616.797,872.0
617.327,871.1
617.857,867.0
618.387,870.9
618.917,869.3
619.446,870.2
619.976,868.9
620.505,868.7
621.035,865.3
621.564,867.2
622.093,870.3
622.623,866.9
623.152,866.4
623.681,865.1
624.21,865.8
624.739,864.8
625.268,864.7
625.797,864.7
626.326,865.4
626.855,876.2
627.383,897.2
627.912,890.0
628.441,903.5
628.969,896.5
629.498,896.1
630.026,882.6
630.554,883.5
631.083,872.2
631.611,866.6
632.139,864.3
632.667,858.6
633.195,858.8
633.724,857.3
634.252,855.8
634.779,856.1
635.307,856.2
635.835,858.4
636.363,853.4
636.891,857.2
637.418,857.3
637.946,856.6
638.474,858.2
639.001,858.8
639.529,859.6
640.056,860.2
640.583,861.5
641.111,859.6
641.638,859.3
642.165,862.6
642.692,862.9
643.22,864.6
643.747,863.4
644.274,864.9
644.801,866.1
645.328,865.7
645.854,868.4
646.381,867.3
646.908,868.9
647.435,870.7
647.962,870.3
648.488,870.5
649.015,872.2
649.542,871.5
650.068,872.2
650.595,874.9
651.121,877.6
651.648,874.9
652.174,878.7
652.7,876.6
653.227,874.2
653.753,880.6
654.279,878.1
654.805,878.5
655.331,876.5
655.858,877.7
656.384,877.4
656.91,875.2
657.436,876.3
657.962,875.2
658.488,874.4
659.013,870.7
659.539,871.6
660.065,869.7
660.591,869.1
661.117,866.5
661.642,864.2
662.168,860.7
662.694,861.1
663.088,860.4