File: spectra/VLFR_02-HDPE_nobio_Raman_8bf85f21.csv
nm,Intensity
526.5,827.9
527.047,828.7
527.594,829.6
528.14,829.8
528.687,829.9
529.233,830.3
529.779,831.0
530.325,830.3
530.871,830.0
531.417,828.3
531.962,832.4
532.508,828.2
533.053,828.6
533.599,830.0
534.144,933.7
534.689,923.8
535.234,915.0
535.778,911.9
536.323,907.6
536.867,903.2
537.412,897.5
537.956,902.1
538.5,897.4
539.044,892.9
539.588,893.2
540.132,893.7
540.675,890.3
541.219,892.6
541.762,891.6
542.305,891.8
542.848,893.1
543.391,890.0
543.934,892.2
544.477,894.8
545.02,891.8
545.562,891.1
546.105,891.4
546.647,892.1
547.189,892.2
547.731,893.9
548.273,892.6
548.815,892.5
549.356,893.7
549.898,892.3
550.439,894.3
550.981,895.0
551.522,895.0
552.063,894.6
552.604,893.2
553.145,895.8
553.686,897.2
554.226,893.8
554.767,897.2
555.307,897.2
555.848,898.8
556.388,901.3
556.928,904.3
557.468,908.1
558.008,909.4
558.547,916.2
559.087,916.1
559.626,917.1
560.166,916.9
560.705,921.2
561.244,924.6
561.783,928.7
562.322,933.9
562.861,939.0
563.4,950.3
563.939,1010.2
564.477,967.5
565.015,974.7
565.554,977.4
566.092,1081.7
566.63,994.3
567.168,985.7
567.706,988.2
568.244,989.4
568.781,1007.5
569.319,1021.8
569.857,1029.3
570.394,1043.3
570.931,1057.2
571.468,1162.5
572.005,1096.7
572.542,1109.8
573.079,1120.7
573.616,1145.4
574.153,1181.8
574.689,1210.5
575.226,1245.1
575.762,1348.2
576.298,1391.2
576.834,1419.2
577.371,1477.2
577.907,1533.2
578.442,1603.9
578.978,1699.1
579.514,1782.4
580.049,1906.0
580.585,2002.1
581.12,2102.6
581.656,2191.2
582.191,2294.8
582.726,2400.5
583.261,2495.5
583.796,2572.8
584.331,2657.4
584.865,2704.6
585.4,2751.7
585.935,2801.0
586.469,2849.6
587.004,2875.3
587.538,2900.0
588.072,2913.8
588.606,2921.0
589.14,2918.9
589.674,2983.7
590.208,3019.8
590.742,3076.8
591.275,3086.5
591.809,3114.8
592.342,3110.7
592.876,3115.8
593.409,3124.8
593.942,3103.0
594.476,3100.5
595.009,3089.3
595.542,3077.9
596.075,3038.2
596.607,3035.7
597.14,3023.2
597.673,2992.3
598.205,2995.1
598.738,2957.9
599.27,2956.9
599.803,2911.4
600.335,2905.1
600.867,2866.7
601.399,2839.1
601.931,2789.0
602.463,2777.9
602.995,2751.7
603.527,2714.3
604.058,2661.0
604.59,2611.5
605.122,2538.6
605.653,2466.2
606.184,2417.0
606.716,2346.2
607.247,2305.3
607.778,2286.2
608.309,2242.8
608.84,2207.6
609.371,2167.6
609.902,2136.3
610.433,2097.6
610.964,2039.1
611.494,2029.6
612.025,2017.2
612.556,1985.6
613.086,1970.3
613.616,1958.0
614.147,1934.1
614.677,1899.0
615.207,1866.8
615.737,1842.5
616.267,1824.7
616.797,1823.4
617.327,1799.4
617.857,1784.8
618.387,1778.9
618.917,1751.7
619.446,1732.3
619.976,1740.0
620.505,1718.0
621.035,1711.8
621.564,1702.6
622.093,1718.8
622.623,1710.4
623.152,1707.4
623.681,1725.2
624.21,1729.7
624.739,1731.8
625.268,1743.8
625.797,1746.2
626.326,1782.1
626.855,1905.1
627.383,2140.7
627.912,2010.7
628.441,2097.2
628.969,2089.4
629.498,2071.2
630.026,2043.1
630.554,2051.2
631.083,2012.0
631.611,2013.3
632.139,1999.8
632.667,2023.9
633.195,2053.1
633.724,2065.2
634.252,2072.9
634.779,2088.8
635.307,2105.3
635.835,2126.8
636.363,2143.1
636.891,2145.2
637.418,2135.0
637.946,2129.9
638.474,2141.0
639.001,2137.1
639.529,2133.3
640.056,2110.1
640.583,2117.6
641.111,2115.0
641.638,2107.7
642.165,2099.6
642.692,2077.9
643.22,2074.9
643.747,2061.9
644.274,2049.7
644.801,2049.5
645.328,2036.3
645.854,2019.0
646.381,2015.1
646.908,1997.7
647.435,1992.3
647.962,1965.6
648.488,1945.3
649.015,1929.9
649.542,1899.4
650.068,1885.1
650.595,1863.5
651.121,1847.1
651.648,1835.5
652.174,1808.5
652.7,1803.5
653.227,1780.6
653.753,1778.8
654.279,1761.0
654.805,1725.1
655.331,1723.3
655.858,1697.7
656.384,1690.5
656.91,1686.2
657.436,1666.8
657.962,1636.3
658.488,1626.6
659.013,1613.3
659.539,1597.1
660.065,1566.5
660.591,1550.7
661.117,1522.5
661.642,1511.7
662.168,1494.6
662.694,1475.3
663.088,1461.0