File: spectra/VLFR_02-HDPE_bio_Raman_d1d42456.csv
nm,Intensity
528.626,1861.9
529.132,1861.7
529.637,1861.7
530.143,1865.2
530.648,1864.4
531.153,1866.4
531.658,1887.4
532.164,3217.0
532.669,1864.5
533.174,1863.8
533.679,1972.8
534.184,2299.2
534.689,2256.7
535.194,2221.2
535.699,2127.3
536.203,2096.5
536.708,2086.3
537.213,2076.8
537.717,2078.0
538.222,2070.7
538.726,2047.5
539.231,2034.8
539.735,2034.2
540.239,2027.2
540.744,2030.5
541.248,2017.8
541.752,2030.2
542.256,2020.9
542.76,2021.4
543.264,2024.3
543.768,2029.6
544.272,2030.9
544.776,2026.1
545.28,2019.8
545.784,2026.4
546.287,2030.0
546.791,2039.7
547.294,2030.8
547.798,2023.0
548.301,2033.6
548.805,2036.7
549.308,2019.9
549.811,2031.8
550.315,2031.4
550.818,2029.9
551.321,2032.8
551.824,2040.0
552.327,2042.2
552.83,2040.8
553.333,2067.2
553.835,2069.8
554.338,2072.3
554.841,2077.9
555.343,2087.6
555.846,2088.9
556.349,2092.0
556.851,2100.5
557.353,2122.2
557.856,2135.6
558.358,2137.5
558.86,2136.6
559.362,2128.5
559.864,2130.7
560.366,2114.1
560.868,2129.5
561.37,2139.5
561.872,2144.9
562.374,2182.8
562.876,2182.2
563.377,2198.0
563.879,2797.5
564.38,2413.8
564.882,2334.5
565.383,2267.4
565.885,2593.9
566.386,2686.5
566.887,2244.0
567.388,2351.4
567.889,2225.5
568.391,2208.2
568.892,2212.2
569.392,2247.2
569.893,2261.0
570.394,2301.7
570.895,2348.0
571.395,3314.1
571.896,2628.6
572.397,2420.0
572.897,2342.2
573.397,2362.9
573.898,2458.6
574.398,2390.9
574.898,2403.0
575.398,2842.0
575.898,2929.1
576.398,3582.4
576.898,3241.8
577.398,2873.4
577.898,2687.2
578.398,2686.6
578.897,2708.8
579.397,2757.9
579.896,2827.3
580.396,2884.5
580.895,2926.9
581.395,2990.4
581.894,3057.6
582.393,3108.6
582.892,3172.7
583.391,3255.7
583.89,3300.9
584.389,3383.1
584.888,3481.0
585.387,3511.4
585.886,3645.5
586.384,3703.7
586.883,3825.3
587.381,3893.9
587.88,4054.4
588.378,4198.9
588.876,4208.9
589.375,4357.7
589.873,4426.1
590.371,4537.7
590.869,4627.1
591.367,4743.3
591.865,4727.8
592.363,4878.5
592.86,4830.5
593.358,4876.5
593.856,4903.5
594.353,4894.3
594.851,4963.9
595.348,5042.9
595.845,5138.9
596.342,5166.2
596.84,5103.1
597.337,5167.1
597.834,5057.2
598.331,5167.1
598.828,5283.5
599.324,5310.6
599.821,5328.4
600.318,5360.6
600.814,5408.0
601.311,5384.4
601.807,5292.1
602.304,5243.0
602.8,5171.5
603.296,5139.6
603.792,5046.4
604.288,4942.7
604.784,4851.2
605.28,4778.5
605.776,4597.5
606.272,4595.8
606.767,4515.5
607.263,4353.0
607.759,4285.1
608.254,4247.2
608.749,4159.8
609.245,4045.9
609.74,4008.5
610.235,3988.1
610.73,3990.7
611.225,3913.2
611.72,3780.0
612.215,3840.5
612.71,3751.6
613.204,3683.7
613.699,3706.1
614.194,3589.2
614.688,3549.2
615.182,3539.6
615.677,3507.5
616.171,3441.1
616.665,3467.8
617.159,3397.5
617.653,3459.8
618.147,3437.6
618.641,3371.7
619.135,3390.0
619.628,3344.7
620.122,3356.2
620.615,3312.5
621.109,3339.1
621.602,3450.0
622.095,3636.6
622.589,3582.7
623.082,3278.8
623.575,3191.7
624.068,3152.9
624.561,3176.1
625.053,3186.4
625.546,3203.1
626.039,3355.7
626.531,4111.2
627.024,7879.3
627.516,7781.3
628.008,6397.6
628.501,11191.9
628.993,7452.3
629.485,6115.4
629.977,5306.7
630.469,4879.9
630.96,4027.2
631.452,3358.6
631.944,3129.1
632.435,3148.2
632.927,3071.8
633.418,3071.7
633.91,3088.2
634.401,3013.2
634.892,3023.0
635.383,3000.4
635.874,2994.5
636.365,3032.0
636.856,3011.4
637.346,2990.6
637.837,2995.9
638.327,3062.7
638.818,3025.3
639.308,2988.8
639.799,3013.7
640.289,3049.9
640.779,3017.0
641.269,2971.1
641.759,2991.0
642.249,3037.8
642.738,3041.3
643.228,3030.2
643.718,3028.8
644.207,3035.5
644.697,3063.2
645.186,3043.2
645.675,2976.8
646.164,2996.0
646.653,2990.3
647.142,3015.1
647.631,3004.7
648.12,2967.3
648.609,2973.0
649.098,2925.0
649.586,2949.4
650.075,2895.9
650.563,2908.1
651.051,2979.4
651.539,2938.1
652.027,2830.8
652.515,2861.5
653.003,2839.5
653.491,2867.2
653.979,2824.2
654.467,2811.0
654.954,2812.5
655.442,2784.8
655.929,2792.8
656.416,2717.4
656.904,2700.6
657.391,2716.9
657.878,2643.3
658.365,2665.2
658.851,2619.9
659.338,2553.2
659.825,2560.8
660.311,2567.2
660.798,2530.8
661.041,2526.9