File: spectra/VLFR_06-PET_nobio_Raman_f1068197.csv
nm,Intensity
526.5,831.2
527.047,829.5
527.594,829.2
528.14,830.7
528.687,830.7
529.233,828.9
529.779,828.5
530.325,828.0
530.871,829.7
531.417,829.8
531.962,833.0
532.508,828.8
533.053,830.2
533.599,838.8
534.144,1648.0
534.689,1426.1
535.234,1208.0
535.778,1075.2
536.323,1001.1
536.867,964.1
537.412,955.1
537.956,952.8
538.5,958.4
539.044,951.7
539.588,967.0
540.132,976.4
540.675,947.6
541.219,941.0
541.762,940.9
542.305,940.3
542.848,937.9
543.391,939.4
543.934,952.8
544.477,945.3
545.02,949.5
545.562,946.1
546.105,955.2
546.647,955.5
547.189,957.4
547.731,956.1
548.273,963.8
548.815,965.3
549.356,961.9
549.898,968.5
550.439,983.3
550.981,981.5
551.522,975.2
552.063,979.9
552.604,984.7
553.145,992.5
553.686,988.6
554.226,991.3
554.767,988.3
555.307,1003.1
555.848,1028.4
556.388,1040.0
556.928,1045.4
557.468,1145.3
558.008,1062.1
558.547,1063.8
559.087,1035.0
559.626,1018.6
560.166,1020.8
560.705,1021.8
561.244,1030.6
561.783,1032.0
562.322,1043.6
562.861,1063.4
563.4,1061.2
563.939,1058.7
564.477,1066.6
565.015,1096.0
565.554,1139.4
566.092,1139.7
566.63,1078.4
567.168,1068.7
567.706,1129.4
568.244,1084.7
568.781,1098.0
569.319,1088.7
569.857,1110.3
570.394,1146.7
570.931,1234.3
571.468,1303.3
572.005,1200.1
572.542,1130.8
573.079,1119.9
573.616,1128.9
574.153,1149.3
574.689,1137.6
575.226,1156.4
575.762,1144.9
576.298,1164.4
576.834,1180.6
577.371,1167.4
577.907,1156.0
578.442,1157.8
578.978,1156.2
579.514,1157.1
580.049,1167.7
580.585,1174.1
581.12,1189.2
581.656,1253.8
582.191,2049.4
582.726,1227.9
583.261,1196.2
583.796,1202.6
584.331,1204.8
584.865,1213.5
585.4,1284.1
585.935,1657.7
586.469,1468.2
587.004,1249.6
587.538,1227.4
588.072,1211.7
588.606,1227.9
589.14,1219.4
589.674,1214.3
590.208,1219.8
590.742,1224.0
591.275,1224.7
591.809,1224.7
592.342,1229.3
592.876,1223.9
593.409,1234.5
593.942,1237.2
594.476,1244.5
595.009,1236.1
595.542,1247.8
596.075,1250.1
596.607,1247.3
597.14,1250.8
597.673,1247.6
598.205,1260.9
598.738,1260.0
599.27,1256.7
599.803,1260.0
600.335,1258.9
600.867,1263.0
601.399,1263.4
601.931,1252.5
602.463,1256.5
602.995,1261.5
603.527,1264.6
604.058,1271.3
604.59,1258.2
605.122,1261.1
605.653,1250.7
606.184,1257.4
606.716,1249.9
607.247,1252.5
607.778,1262.7
608.309,1267.6
608.84,1268.4
609.371,1259.2
609.902,1267.9
610.433,1261.7
610.964,1265.0
611.494,1264.6
612.025,1271.4
612.556,1270.5
613.086,1276.4
613.616,1286.6
614.147,1289.3
614.677,1291.5
615.207,1283.5
615.737,1288.9
616.267,1295.6
616.797,1301.3
617.327,1294.6
617.857,1307.8
618.387,1318.2
618.917,1309.6
619.446,1304.7
619.976,1300.7
620.505,1302.1
621.035,1304.3
621.564,1314.4
622.093,1308.1
622.623,1313.6
623.152,1322.7
623.681,1318.7
624.21,1330.6
624.739,1333.1
625.268,1343.4
625.797,1340.4
626.326,1335.0
626.855,1345.3
627.383,1347.8
627.912,1362.4
628.441,1370.8
628.969,1392.8
629.498,1405.7
630.026,1395.2
630.554,1392.8
631.083,1446.9
631.611,1554.7
632.139,1530.2
632.667,1479.8
633.195,1469.3
633.724,1449.7
634.252,1433.8
634.779,1420.9
635.307,1433.9
635.835,1491.2
636.363,1594.7
636.891,1585.3
637.418,1478.5
637.946,1458.7
638.474,1467.1
639.001,1468.7
639.529,1471.4
640.056,1469.0
640.583,1463.0
641.111,1471.8
641.638,1483.7
642.165,1486.0
642.692,1490.9
643.22,1497.0
643.747,1474.3
644.274,1481.5
644.801,1481.0
645.328,1482.3
645.854,1487.8
646.381,1493.5
646.908,1499.3
647.435,1502.6
647.962,1510.3
648.488,1491.8
649.015,1504.1
649.542,1510.3
650.068,1503.2
650.595,1505.8
651.121,1503.5
651.648,1511.5
652.174,1513.6
652.7,1509.7
653.227,1520.3
653.753,1529.4
654.279,1530.8
654.805,1516.3
655.331,1526.7
655.858,1520.8
656.384,1518.7
656.91,1526.4
657.436,1535.2
657.962,1522.3
658.488,1522.8
659.013,1521.6
659.539,1524.3
660.065,1527.2
660.591,1523.9
661.117,1520.6
661.642,1514.2
662.168,1510.4
662.694,1517.7
663.088,1515.0