File: spectra/VLFR_08-PLA_bio_Raman_4de8b64a.csv
nm,Intensity
526.508,830.4
527.055,829.5
527.602,829.9
528.149,830.3
528.695,830.1
529.241,831.1
529.787,828.6
530.334,829.3
530.879,829.2
531.425,829.8
531.971,837.0
532.516,831.4
533.062,830.4
533.607,832.2
534.152,964.3
534.697,938.4
535.242,923.3
535.786,919.2
536.331,916.3
536.876,914.2
537.42,911.9
537.964,912.1
538.508,910.4
539.052,908.6
539.596,909.8
540.14,906.9
540.683,913.0
541.227,917.7
541.77,914.4
542.313,910.1
542.856,912.9
543.399,921.9
543.942,925.0
544.485,918.8
545.027,914.0
545.57,913.7
546.112,913.1
546.654,912.9
547.196,919.8
547.738,917.1
548.28,917.7
548.822,920.4
549.363,923.4
549.905,923.5
550.446,922.1
550.988,922.7
551.529,927.4
552.07,928.4
552.611,930.3
553.152,931.9
553.692,930.3
554.233,932.0
554.773,931.5
555.314,926.4
555.854,928.1
556.394,931.0
556.934,933.0
557.474,933.0
558.014,985.7
558.553,948.2
559.093,935.4
559.632,937.9
560.172,934.9
560.711,938.4
561.25,932.0
561.789,932.3
562.328,935.0
562.867,941.3
563.406,951.4
563.944,946.7
564.483,940.1
565.021,951.3
565.559,949.0
566.098,961.5
566.636,946.9
567.174,941.0
567.711,943.8
568.249,945.2
568.787,947.0
569.324,942.3
569.862,945.3
570.399,943.2
570.936,945.9
571.474,949.7
572.011,952.4
572.548,948.8
573.084,952.9
573.621,953.1
574.158,950.2
574.694,959.5
575.231,949.4
575.767,952.5
576.303,960.5
576.84,983.9
577.376,966.1
577.912,948.0
578.447,949.9
578.983,952.1
579.519,951.1
580.054,949.6
580.59,951.3
581.125,952.1
581.661,949.1
582.196,951.3
582.731,956.2
583.266,953.0
583.801,947.8
584.336,954.1
584.87,947.7
585.405,949.4
585.94,953.8
586.474,955.5
587.008,970.8
587.543,984.2
588.077,962.0
588.611,952.8
589.145,953.5
589.679,949.9
590.213,949.4
590.747,950.6
591.28,954.7
591.814,950.2
592.347,949.1
592.881,946.0
593.414,953.3
593.947,947.7
594.48,949.0
595.014,947.8
595.547,949.2
596.079,948.2
596.612,951.5
597.145,948.4
597.678,950.6
598.21,951.1
598.743,952.7
599.275,947.8
599.807,951.3
600.34,946.0
600.872,944.8
601.404,949.0
601.936,948.7
602.468,945.9
603.0,944.8
603.532,950.3
604.063,946.6
604.595,940.9
605.126,939.5
605.658,941.8
606.189,939.0
606.721,939.9
607.252,938.7
607.783,942.9
608.314,939.4
608.845,940.1
609.376,942.7
609.907,937.6
610.438,938.0
610.968,937.2
611.499,937.9
612.03,940.5
612.56,935.6
613.091,938.4
613.621,940.8
614.151,939.2
614.681,937.5
615.212,936.7
615.742,938.8
616.272,936.1
616.802,941.2
617.332,938.8
617.861,935.7
618.391,934.3
618.921,940.5
619.45,934.3
619.98,935.7
620.509,932.9
621.039,931.1
621.568,930.6
622.097,931.8
622.627,935.5
623.156,936.5
623.685,933.7
624.214,936.6
624.743,936.4
625.272,930.7
625.801,932.4
626.33,929.0
626.858,929.8
627.387,930.4
627.916,932.6
628.444,956.1
628.973,953.4
629.501,952.6
630.029,949.1
630.558,974.9
631.086,1104.4
631.614,1016.2
632.142,969.5
632.67,962.2
633.198,993.4
633.726,980.6
634.254,942.9
634.782,931.6
635.31,924.7
635.838,921.8
636.365,923.5
636.893,919.5
637.421,917.7
637.948,919.4
638.476,918.1
639.003,917.8
639.531,919.8
640.058,917.3
640.585,914.3
641.113,916.0
641.64,917.6
642.167,913.6
642.694,910.7
643.221,911.6
643.748,912.9
644.275,909.5
644.802,911.8
645.329,907.6
645.856,905.4
646.382,907.8
646.909,907.7
647.436,905.0
647.962,906.8
648.489,903.3
649.016,907.1
649.542,904.3
650.069,906.1
650.595,900.5
651.121,903.3
651.648,903.9
652.174,901.7
652.7,903.1
653.227,900.5
653.753,902.2
654.279,900.5
654.805,898.6
655.331,897.9
655.857,899.9
656.383,900.0
656.909,897.2
657.435,898.6
657.961,897.0
658.487,898.9
659.013,897.6
659.538,899.9
660.064,894.5
660.59,894.3
661.116,896.6
661.641,891.7
662.167,891.0
662.692,893.0
663.087,893.0