File: spectra/VLFR_02-HDPE_nobio_Raman_92d48177.csv
nm,Intensity
526.508,829.7
527.055,830.4
527.602,830.9
528.149,829.2
528.695,832.0
529.241,830.4
529.787,830.2
530.334,829.5
530.879,830.0
531.425,831.8
531.971,834.6
532.516,830.4
533.062,831.4
533.607,830.1
534.152,906.1
534.697,889.0
535.242,873.9
535.786,862.6
536.331,857.7
536.876,854.2
537.42,853.7
537.964,852.8
538.508,850.3
539.052,846.6
539.596,843.6
540.14,841.7
540.683,843.3
541.227,840.7
541.77,840.7
542.313,840.3
542.856,841.8
543.399,842.3
543.942,840.6
544.485,839.5
545.027,840.3
545.57,838.7
546.112,838.1
546.654,840.0
547.196,838.8
547.738,838.3
548.28,839.5
548.822,838.8
549.363,840.4
549.905,837.1
550.446,838.1
550.988,837.9
551.529,837.2
552.07,838.2
552.611,837.6
553.152,839.2
553.692,841.3
554.233,842.6
554.773,841.8
555.314,842.4
555.854,842.2
556.394,845.4
556.934,845.5
557.474,850.5
558.014,850.9
558.553,852.9
559.093,851.1
559.632,848.8
560.172,847.0
560.711,846.4
561.25,845.5
561.789,844.5
562.328,848.8
562.867,851.4
563.406,855.1
563.944,970.7
564.483,881.0
565.021,872.3
565.559,865.2
566.098,1077.1
566.636,872.6
567.174,856.2
567.711,854.0
568.249,849.4
568.787,851.4
569.324,850.2
569.862,850.8
570.399,856.0
570.936,862.4
571.474,1051.2
572.011,885.2
572.548,858.9
573.084,850.6
573.621,851.6
574.158,865.5
574.694,848.8
575.231,860.5
575.767,963.2
576.303,980.4
576.84,931.9
577.376,892.1
577.912,858.2
578.447,853.5
578.983,850.7
579.519,850.5
580.054,849.9
580.59,850.1
581.125,852.1
581.661,851.3
582.196,851.0
582.731,851.8
583.266,850.1
583.801,850.2
584.336,851.3
584.87,849.1
585.405,849.6
585.94,853.6
586.474,856.1
587.008,855.9
587.543,857.1
588.077,856.7
588.611,857.0
589.145,856.8
589.679,858.9
590.213,858.4
590.747,858.7
591.28,862.7
591.814,863.2
592.347,863.3
592.881,862.3
593.414,864.9
593.947,863.5
594.48,863.2
595.014,863.7
595.547,863.2
596.079,868.4
596.612,868.1
597.145,865.0
597.678,868.9
598.21,867.7
598.743,873.1
599.275,874.1
599.807,874.1
600.34,872.7
600.872,872.5
601.404,869.2
601.936,874.8
602.468,870.8
603.0,871.5
603.532,870.9
604.063,870.7
604.595,868.9
605.126,864.8
605.658,865.0
606.189,863.9
606.721,863.6
607.252,864.5
607.783,860.7
608.314,862.5
608.845,861.9
609.376,860.9
609.907,863.4
610.438,865.0
610.968,867.8
611.499,864.5
612.03,860.6
612.56,860.3
613.091,860.4
613.621,860.3
614.151,861.2
614.681,857.8
615.212,858.3
615.742,859.0
616.272,861.2
616.802,861.1
617.332,866.3
617.861,865.1
618.391,863.9
618.921,862.8
619.45,868.4
619.98,869.1
620.509,869.3
621.039,870.2
621.568,877.9
622.097,896.7
622.627,894.8
623.156,874.1
623.685,868.0
624.214,867.3
624.743,866.6
625.272,869.8
625.801,879.2
626.33,903.4
626.858,1106.3
627.387,1555.4
627.916,1254.9
628.444,1393.4
628.973,1348.1
629.501,1233.7
630.029,1125.6
630.558,1104.9
631.086,975.5
631.614,902.4
632.142,877.9
632.67,873.0
633.198,866.2
633.726,866.6
634.254,861.9
634.782,862.1
635.31,858.8
635.838,859.8
636.365,858.2
636.893,856.7
637.421,855.5
637.948,852.4
638.476,851.5
639.003,854.7
639.531,853.0
640.058,852.4
640.585,855.5
641.113,852.0
641.64,853.3
642.167,852.8
642.694,853.9
643.221,853.9
643.748,854.4
644.275,855.2
644.802,853.6
645.329,853.6
645.856,853.9
646.382,853.6
646.909,852.9
647.436,851.6
647.962,853.7
648.489,852.3
649.016,852.9
649.542,853.4
650.069,852.1
650.595,853.0
651.121,854.9
651.648,852.3
652.174,851.8
652.7,852.2
653.227,851.4
653.753,851.0
654.279,852.2
654.805,851.4
655.331,852.8
655.857,850.8
656.383,852.5
656.909,852.4
657.435,850.8
657.961,851.7
658.487,850.3
659.013,851.6
659.538,850.7
660.064,849.6
660.59,850.7
661.116,848.1
661.641,848.5
662.167,848.8
662.692,847.3
663.087,844.6