File: spectra/VLFR_02-HDPE_bio_Raman_81d1b44a.csv
nm,Intensity
526.508,828.4
527.055,831.7
527.602,829.3
528.149,830.4
528.695,829.8
529.241,829.5
529.787,829.0
530.334,830.0
530.879,830.4
531.425,830.5
531.971,834.6
532.516,830.9
533.062,828.7
533.607,830.5
534.152,885.2
534.697,883.2
535.242,878.0
535.786,857.1
536.331,851.6
536.876,849.3
537.42,847.4
537.964,846.1
538.508,848.7
539.052,845.4
539.596,844.6
540.14,840.6
540.683,841.5
541.227,839.9
541.77,840.0
542.313,841.7
542.856,840.1
543.399,841.0
543.942,841.4
544.485,840.6
545.027,840.7
545.57,841.0
546.112,842.6
546.654,843.9
547.196,844.8
547.738,845.8
548.28,843.9
548.822,844.8
549.363,845.7
549.905,847.2
550.446,847.4
550.988,847.8
551.529,847.4
552.07,848.1
552.611,845.4
553.152,848.4
553.692,849.7
554.233,849.5
554.773,848.0
555.314,847.9
555.854,849.7
556.394,849.8
556.934,848.5
557.474,847.8
558.014,851.1
558.553,850.7
559.093,850.2
559.632,848.9
560.172,848.7
560.711,848.2
561.25,849.6
561.789,849.6
562.328,852.1
562.867,852.3
563.406,853.9
563.944,910.3
564.483,867.9
565.021,862.7
565.559,855.5
566.098,910.8
566.636,858.4
567.174,854.0
567.711,857.6
568.249,849.0
568.787,850.5
569.324,850.1
569.862,848.6
570.399,855.0
570.936,857.8
571.474,950.4
572.011,878.9
572.548,858.0
573.084,852.8
573.621,854.8
574.158,857.6
574.694,852.0
575.231,855.4
575.767,891.4
576.303,995.7
576.84,930.3
577.376,911.8
577.912,869.0
578.447,861.0
578.983,861.4
579.519,862.1
580.054,863.4
580.59,864.0
581.125,864.4
581.661,864.4
582.196,866.8
582.731,865.8
583.266,864.7
583.801,863.9
584.336,865.1
584.87,866.8
585.405,865.7
585.94,869.5
586.474,873.0
587.008,872.8
587.543,871.1
588.077,875.7
588.611,875.8
589.145,881.4
589.679,883.4
590.213,883.8
590.747,884.1
591.28,885.8
591.814,891.0
592.347,893.2
592.881,893.1
593.414,895.5
593.947,900.7
594.48,898.5
595.014,902.2
595.547,901.1
596.079,905.7
596.612,905.9
597.145,910.4
597.678,911.1
598.21,914.0
598.743,919.8
599.275,921.3
599.807,921.2
600.34,923.4
600.872,919.8
601.404,923.4
601.936,921.1
602.468,920.7
603.0,923.3
603.532,915.9
604.063,918.9
604.595,918.0
605.126,910.6
605.658,909.0
606.189,904.2
606.721,903.9
607.252,899.3
607.783,901.2
608.314,897.9
608.845,900.1
609.376,893.9
609.907,892.6
610.438,891.8
610.968,893.5
611.499,888.4
612.03,891.0
612.56,891.7
613.091,888.5
613.621,889.7
614.151,889.2
614.681,887.7
615.212,886.6
615.742,885.6
616.272,884.0
616.802,889.8
617.332,893.0
617.861,892.4
618.391,892.8
618.921,895.1
619.45,895.1
619.98,900.6
620.509,892.8
621.039,900.9
621.568,913.6
622.097,947.5
622.627,942.0
623.156,904.3
623.685,894.9
624.214,890.3
624.743,892.7
625.272,898.2
625.801,904.0
626.33,941.4
626.858,1257.4
627.387,1804.6
627.916,1410.5
628.444,1689.1
628.973,1395.8
629.501,1274.4
630.029,1142.8
630.558,1121.0
631.086,982.3
631.614,911.7
632.142,899.6
632.67,892.1
633.198,884.6
633.726,883.1
634.254,880.7
634.782,879.6
635.31,877.1
635.838,875.6
636.365,877.7
636.893,873.2
637.421,870.8
637.948,868.1
638.476,868.0
639.003,864.7
639.531,864.7
640.058,868.4
640.585,869.1
641.113,866.8
641.64,870.4
642.167,870.0
642.694,872.3
643.221,869.9
643.748,870.4
644.275,868.0
644.802,869.3
645.329,871.1
645.856,869.2
646.382,870.8
646.909,870.9
647.436,872.1
647.962,873.4
648.489,872.5
649.016,868.6
649.542,870.6
650.069,871.4
650.595,870.0
651.121,870.6
651.648,872.8
652.174,869.7
652.7,872.4
653.227,872.4
653.753,874.7
654.279,873.0
654.805,870.6
655.331,872.4
655.857,871.5
656.383,869.3
656.909,869.6
657.435,869.8
657.961,872.4
658.487,866.9
659.013,867.7
659.538,868.6
660.064,868.0
660.59,870.0
661.116,865.8
661.641,863.0
662.167,866.7
662.692,865.5
663.087,863.7