File: spectra/VLFR_07-PET_nobio_Raman_b6fd04f1.csv
nm,Intensity
791.588,12796.9
792.685,11683.1
793.781,11029.9
794.878,10631.3
795.975,10632.2
797.071,10714.7
798.168,10617.0
799.264,10683.9
800.36,10510.6
801.456,10613.7
802.552,10495.5
803.648,10420.5
804.744,10228.4
805.84,10187.5
806.936,10014.7
808.031,9956.5
809.127,9831.9
810.222,9850.0
811.317,9662.0
812.412,9633.8
813.507,9541.2
814.602,9400.7
815.697,9373.6
816.792,9299.5
817.887,9119.9
818.981,9143.6
820.076,9131.2
821.17,8999.8
822.265,8942.1
823.359,8861.8
824.453,8932.8
825.547,9054.2
826.641,8780.3
827.735,8636.2
828.828,8658.1
829.922,8531.3
831.016,8616.7
832.109,8363.8
833.202,8378.8
834.295,8304.1
835.388,8260.7
836.481,8166.0
837.574,8305.2
838.667,8172.0
839.76,8137.4
840.852,8371.1
841.945,8219.6
843.037,8056.6
844.129,7884.2
845.221,7702.9
846.314,7536.1
847.405,7541.9
848.497,7443.5
849.589,7415.0
850.681,7321.4
851.772,7376.0
852.863,7277.2
853.955,7264.0
855.046,7210.9
856.137,7088.0
857.228,7071.5
858.318,7191.1
859.409,7282.9
860.5,7245.6
861.59,7097.8
862.681,6908.9
863.771,6934.0
864.861,6950.2
865.951,6818.7
867.041,6768.8
868.131,6685.2
869.22,6788.7
870.31,6737.9
871.399,6955.9
872.488,7041.5
873.578,7093.9
874.667,6791.6
875.756,6631.6
876.845,6594.2
877.933,6519.4
879.022,6452.9
880.11,6467.7
881.199,6391.3
882.287,6425.6
883.375,6351.3
884.463,6342.4
885.551,6335.2
886.639,6228.0
887.726,6162.8
888.814,6137.0
889.901,6117.3
890.988,6067.1
892.075,6056.6
893.162,5978.3
894.249,5973.7
895.336,5859.3
896.423,5885.0
897.509,6149.6
898.595,6622.3
899.682,6171.5
900.768,5701.8
901.854,5648.3
902.94,5643.0
904.025,5565.1
905.111,5599.0
906.196,5696.0
907.282,5988.0
908.367,5994.4
909.452,5683.8
910.537,5438.9
911.622,5275.5
912.706,5248.6
913.791,5190.3
914.875,5156.5
915.959,5144.3
917.044,5072.5
918.128,5063.8
919.211,5007.5
920.295,4978.8
921.379,4932.8
922.462,4920.1
923.546,4863.1
924.629,4853.0
925.712,4801.1
926.795,4761.7
927.877,4753.1
928.96,4709.5
930.043,4694.0
931.125,4661.7
932.207,4614.9
933.289,4596.9
934.371,4577.9
935.453,4561.9
936.535,4514.3
937.616,4483.1
938.697,4475.9
939.779,4466.2
940.86,4421.1
941.941,4404.1
943.022,4381.4
944.102,4361.4
945.183,4356.1
946.263,4333.3
947.343,4321.6
948.423,4301.8
949.503,4283.5
950.583,4262.2
951.663,4253.9
952.742,4240.7
953.822,4217.0
954.901,4201.8
955.98,4189.9
957.059,4176.2
958.137,4175.0
959.216,4146.0
960.294,4131.4
961.373,4132.3
962.451,4114.5
963.529,4102.2
964.607,4087.7
965.684,4081.0
966.762,4078.0
967.839,4056.8
968.917,4047.6
969.994,4039.5
971.071,4031.6
972.147,4031.4
973.224,4013.8
974.3,4008.5
975.377,3995.8
976.453,3982.8
977.529,3981.9
978.605,3967.2
979.68,3966.4
980.756,3956.1
981.831,3948.5
982.907,3949.0
983.982,3944.7
985.057,3933.3
986.131,3931.0
987.206,3926.3
988.28,3920.3
989.355,3910.8
990.429,3907.7
991.503,3895.1
992.576,3894.8
993.65,3889.1
994.723,3878.2
995.797,3882.9
996.87,3875.3
997.943,3869.3
999.016,3866.1
1000.09,3860.6
1001.16,3858.4
1002.23,3848.8
1003.31,3853.4
1004.38,3846.8
1005.45,3846.3
1006.52,3840.9
1007.59,3833.5
1008.66,3834.7
1009.73,3828.9
1010.81,3824.3
1011.88,3824.5
1012.95,3821.4
1014.02,3821.5
1015.09,3818.5
1016.16,3817.8
1017.23,3816.7
1018.3,3812.7
1019.37,3809.2
1020.44,3810.4
1021.51,3810.8
1022.58,3817.8
1023.64,3811.3
1024.71,3808.2
1025.78,3808.2
1026.85,3798.9
1027.92,3796.9
1028.99,3790.5
1030.05,3789.2
1031.12,3787.5
1032.19,3787.1
1033.26,3788.6
1034.32,3790.9
1035.39,3791.4
1036.46,3787.2
1037.52,3784.2
1038.59,3779.0
1039.66,3779.6
1040.72,3778.2
1041.79,3773.4
1042.86,3775.9
1043.92,3776.5
1044.99,3771.5
1046.05,3770.9
1047.12,3771.6
1048.18,3771.5
1049.25,3770.0
1050.31,3768.6
1051.37,3770.1
1052.44,3771.7
1053.5,3767.9
1054.57,3767.4
1055.63,3770.6
1056.69,3767.2
1057.76,3768.1
1058.82,3769.7
1059.88,3768.0
1060.95,3768.5
1062.01,3766.8
1063.07,3766.5
1064.13,3765.9
1065.19,3765.5
1066.26,3765.1
1067.32,3765.9
1068.11,3763.6