File: spectra/VLFR_07-PET_bio_Raman_303befb3.csv
nm,Intensity
791.75,3857.05
792.846,3855.8
793.942,3858.7
795.037,3859.65
796.133,3843.35
797.228,3845.85
798.324,3849.3
799.419,3849.05
800.514,3846.35
801.61,3849.25
802.705,3843.55
803.8,3842.05
804.894,3845.1
805.989,3848.25
807.084,3852.6
808.178,3845.0
809.273,3843.45
810.367,3843.6
811.461,3838.75
812.556,3832.65
813.65,3828.35
814.744,3822.7
815.837,3822.95
816.931,3820.25
818.025,3819.5
819.118,3821.55
820.212,3824.55
821.305,3829.3
822.398,3816.05
823.491,3816.7
824.585,3826.35
825.677,3824.2
826.77,3828.85
827.863,3812.5
828.956,3818.8
830.048,3817.5
831.14,3821.9
832.233,3818.0
833.325,3813.45
834.417,3820.35
835.509,3819.85
836.601,3821.95
837.692,3823.3
838.784,3818.1
839.876,3820.25
840.967,3823.0
842.058,3822.5
843.149,3821.4
844.24,3815.8
845.331,3820.1
846.422,3817.55
847.513,3815.75
848.604,3816.8
849.694,3815.3
850.784,3814.95
851.875,3815.95
852.965,3814.2
854.055,3806.15
855.145,3814.25
856.235,3811.9
857.324,3814.8
858.414,3816.15
859.503,3811.6
860.593,3812.65
861.682,3810.55
862.771,3812.25
863.86,3809.15
864.949,3812.85
866.038,3804.2
867.126,3806.55
868.215,3807.55
869.303,3806.4
870.391,3808.15
871.479,3810.35
872.567,3808.1
873.655,3807.1
874.743,3806.8
875.831,3800.25
876.918,3804.95
878.006,3801.45
879.093,3801.25
880.18,3802.05
881.267,3800.35
882.354,3799.95
883.441,3801.0
884.527,3800.75
885.614,3795.35
886.7,3795.95
887.786,3797.2
888.872,3797.9
889.958,3795.8
891.044,3795.5
892.13,3791.5
893.216,3787.4
894.301,3783.75
895.386,3781.8
896.472,3776.9
897.557,3777.5
898.642,3779.35
899.726,3775.55
900.811,3773.1
901.896,3774.2
902.98,3776.3
904.064,3780.75
905.148,3777.95
906.232,3773.4
907.316,3774.4
908.4,3769.9
909.484,3772.55
910.567,3768.35
911.65,3771.05
912.734,3767.0
913.817,3766.85
914.9,3762.9
915.982,3764.85
917.065,3764.4
918.147,3765.95
919.23,3767.35
920.312,3767.8
921.394,3766.05
922.476,3763.85
923.558,3761.9
924.639,3761.1
925.721,3762.45
926.802,3759.55
927.884,3757.25
928.965,3756.5
930.046,3754.65
931.126,3752.65
932.207,3752.5
933.288,3751.95
934.368,3752.1
935.448,3751.9
936.528,3751.25
937.608,3752.0
938.688,3750.45
939.767,3751.05
940.847,3750.4
941.926,3751.3
943.005,3748.6
944.084,3749.5
945.163,3748.95
946.242,3749.65
947.321,3748.05
948.399,3747.45
949.477,3747.55
950.556,3746.3
951.634,3747.4
952.711,3748.1
953.789,3748.0
954.867,3745.85
955.944,3748.4
957.021,3747.05
958.098,3746.75
959.175,3745.9
960.252,3745.55
961.328,3748.55
962.405,3745.05
963.481,3745.65
964.557,3746.8
965.633,3747.2
966.709,3747.2
967.785,3749.4
968.86,3748.1
969.936,3748.85
971.011,3748.3
972.086,3747.0
973.161,3746.75
974.235,3746.8
975.31,3746.2
976.384,3746.7
977.459,3746.25
978.533,3745.9
979.607,3746.3
980.68,3746.05
981.754,3746.8
982.827,3745.55
983.901,3746.25
984.974,3746.45
986.047,3746.0
987.119,3746.15
988.192,3745.05
989.264,3747.05
990.337,3747.55
991.409,3746.5
992.481,3744.15
993.553,3746.6
994.624,3746.9
995.696,3746.7
996.767,3745.95
997.838,3746.95
998.909,3744.7
999.98,3745.55
1001.05,3744.9
1002.12,3745.0
1003.19,3745.1
1004.26,3744.6
1005.33,3744.3
1006.4,3743.7
1007.47,3744.7
1008.54,3743.85
1009.61,3743.0
1010.68,3742.45
1011.75,3744.5
1012.82,3743.65
1013.88,3744.65
1014.95,3744.4
1016.02,3744.35
1017.09,3744.45
1018.16,3742.7
1019.22,3743.75
1020.29,3742.55
1021.36,3743.95
1022.43,3743.25
1023.49,3743.4
1024.56,3742.95
1025.63,3742.2
1026.69,3744.4
1027.76,3742.8
1028.83,3743.85
1029.89,3742.25
1030.96,3742.2
1032.02,3742.95
1033.09,3741.0
1034.15,3743.35
1035.22,3743.45
1036.28,3742.0
1037.35,3741.85
1038.41,3741.75
1039.48,3741.65
1040.54,3741.75
1041.6,3741.7
1042.67,3742.45
1043.73,3741.75
1044.79,3742.0
1045.86,3741.95
1046.92,3740.4
1047.98,3741.15
1049.05,3740.25
1050.11,3739.85
1051.17,3741.6
1052.23,3741.1
1053.29,3742.3
1054.36,3740.5
1055.42,3741.95
1056.48,3742.2
1057.54,3740.6
1058.6,3739.9
1059.66,3741.25
1060.72,3741.3
1061.78,3741.25
1062.84,3740.85
1063.9,3738.9
1064.96,3741.65
1066.02,3739.25
1067.08,3740.6
1067.88,3740.75