File: spectra/VLFR_07-PET_nobio_Raman_d33fc9a1.csv
nm,Intensity
791.377,11844.0
792.477,10693.2
793.576,9944.06
794.676,9759.72
795.775,9511.24
796.874,9385.0
797.973,9533.44
799.072,9416.6
800.171,9407.72
801.27,9226.32
802.368,9243.18
803.467,9062.5
804.565,8923.12
805.664,8804.04
806.762,8865.82
807.86,8679.48
808.958,8631.84
810.056,8500.24
811.153,8492.22
812.251,8412.6
813.349,8314.76
814.446,8188.74
815.543,8150.9
816.64,8026.5
817.737,7986.7
818.834,7807.24
819.931,7882.64
821.028,7737.6
822.125,7679.04
823.221,7651.7
824.317,7565.66
825.414,7753.72
826.51,7582.28
827.606,7456.98
828.702,7428.78
829.797,7278.52
830.893,7432.28
831.988,7239.18
833.084,7182.84
834.179,7064.02
835.274,7079.94
836.369,7090.74
837.464,7136.38
838.559,7162.34
839.654,7116.84
840.748,7212.3
841.843,7306.88
842.937,7034.58
844.031,6994.8
845.125,6693.38
846.219,6621.76
847.313,6605.6
848.407,6614.8
849.5,6513.92
850.593,6449.36
851.687,6522.56
852.78,6469.32
853.873,6459.58
854.966,6365.88
856.059,6284.04
857.151,6226.34
858.244,6301.12
859.336,6488.7
860.428,6437.54
861.52,6292.34
862.612,6087.18
863.704,6136.06
864.796,6116.02
865.888,6096.68
866.979,5944.8
868.07,5947.06
869.162,5915.78
870.253,6012.86
871.344,6138.48
872.434,6298.4
873.525,6318.94
874.615,6037.04
875.706,5900.6
876.796,5784.52
877.886,5752.72
878.976,5752.74
880.066,5673.5
881.156,5664.84
882.245,5625.7
883.335,5643.72
884.424,5580.9
885.513,5658.9
886.602,5536.7
887.691,5520.6
888.78,5468.04
889.868,5435.8
890.957,5416.5
892.045,5411.82
893.133,5376.78
894.221,5346.58
895.309,5287.9
896.397,5292.14
897.484,5531.98
898.571,6043.62
899.659,5560.02
900.746,5189.34
901.833,5143.72
902.92,5080.76
904.006,5094.04
905.093,5091.66
906.179,5185.48
907.266,5559.12
908.352,5526.62
909.438,5180.62
910.523,4945.26
911.609,4886.82
912.695,4844.64
913.78,4824.96
914.865,4783.06
915.95,4733.62
917.035,4711.24
918.12,4703.8
919.204,4676.36
920.289,4645.9
921.373,4622.1
922.457,4606.52
923.541,4568.46
924.625,4551.16
925.709,4520.88
926.792,4492.78
927.876,4465.34
928.959,4458.42
930.042,4429.22
931.125,4405.08
932.208,4380.58
933.29,4363.82
934.373,4350.5
935.455,4311.68
936.537,4314.86
937.619,4290.36
938.701,4271.7
939.782,4258.14
940.864,4249.32
941.945,4235.82
943.026,4196.02
944.107,4192.78
945.188,4184.14
946.269,4180.14
947.349,4147.44
948.43,4148.56
949.51,4134.68
950.59,4122.8
951.67,4096.58
952.75,4097.26
953.829,4076.82
954.909,4072.92
955.988,4061.7
957.067,4048.28
958.146,4037.7
959.224,4028.8
960.303,4015.68
961.381,4013.24
962.459,3999.76
963.537,3993.88
964.615,3986.9
965.693,3980.3
966.771,3970.68
967.848,3963.78
968.925,3960.5
970.002,3942.08
971.079,3938.66
972.156,3942.52
973.232,3923.24
974.309,3925.98
975.385,3918.34
976.461,3916.28
977.537,3901.6
978.612,3900.8
979.688,3892.1
980.763,3888.08
981.838,3888.68
982.913,3877.36
983.988,3875.56
985.063,3870.04
986.137,3867.44
987.211,3861.62
988.285,3861.08
989.359,3851.44
990.433,3843.9
991.506,3844.46
992.58,3836.64
993.653,3834.1
994.726,3830.12
995.799,3830.04
996.872,3825.1
997.944,3821.32
999.016,3820.34
1000.09,3816.18
1001.16,3811.9
1002.23,3808.66
1003.3,3805.8
1004.38,3804.82
1005.45,3799.92
1006.52,3799.16
1007.59,3796.98
1008.66,3791.96
1009.73,3790.02
1010.8,3787.86
1011.87,3783.4
1012.94,3785.2
1014.01,3784.66
1015.08,3783.24
1016.15,3782.9
1017.22,3779.92
1018.29,3776.52
1019.36,3775.24
1020.42,3777.78
1021.49,3782.6
1022.56,3784.04
1023.63,3783.22
1024.7,3777.52
1025.76,3773.06
1026.83,3767.46
1027.9,3765.32
1028.97,3761.38
1030.03,3759.56
1031.1,3756.18
1032.17,3757.08
1033.23,3758.18
1034.3,3762.56
1035.36,3763.06
1036.43,3762.42
1037.5,3756.16
1038.56,3750.84
1039.63,3749.28
1040.69,3747.76
1041.76,3747.86
1042.82,3747.14
1043.89,3745.28
1044.95,3744.4
1046.01,3743.9
1047.08,3744.38
1048.14,3742.14
1049.2,3743.58
1050.27,3742.32
1051.33,3741.36
1052.39,3743.3
1053.46,3741.82
1054.52,3741.56
1055.58,3741.14
1056.64,3740.06
1057.7,3740.68
1058.77,3739.26
1059.83,3740.36
1060.89,3740.4
1061.95,3739.46
1063.01,3740.12
1064.07,3738.24
1065.13,3738.8
1066.19,3739.38
1067.25,3738.96
1068.05,3737.74