File: spectra/VLFR_09-PET_bio_Raman_0b2b108d.csv
nm,Intensity
528.637,1852.4
529.143,1849.5
529.648,1853.6
530.153,1853.6
530.659,1853.1
531.164,1859.2
531.669,1909.1
532.174,3625.4
532.679,1862.7
533.184,1871.7
533.689,4141.2
534.194,9857.1
534.699,9492.8
535.203,8818.1
535.708,8414.5
536.213,8013.5
536.717,8320.6
537.222,8283.9
537.726,8426.7
538.231,8385.7
538.735,8635.6
539.24,8884.2
539.744,8991.1
540.248,9162.4
540.752,9127.4
541.256,9342.5
541.761,9577.5
542.265,9655.9
542.769,9650.6
543.272,10007.4
543.776,10169.8
544.28,10312.3
544.784,10456.9
545.288,10440.2
545.791,10453.3
546.295,10795.6
546.798,10838.6
547.302,11174.1
547.805,10938.3
548.308,11437.1
548.812,11678.4
549.315,11400.7
549.818,11774.8
550.321,12158.4
550.824,12503.6
551.327,12276.1
551.83,12371.0
552.333,12680.1
552.836,13069.0
553.339,12496.1
553.842,12769.6
554.344,13235.3
554.847,13229.8
555.349,13710.0
555.852,13776.0
556.354,14066.6
556.857,14195.6
557.359,15279.4
557.861,15010.7
558.363,14912.0
558.866,14815.5
559.368,14868.6
559.87,14726.8
560.372,14997.1
560.873,15163.0
561.375,15628.5
561.877,15571.0
562.379,15806.9
562.88,15746.8
563.382,16111.4
563.883,16044.2
564.385,16550.0
564.886,17040.1
565.388,17353.1
565.889,17848.1
566.39,16707.3
566.891,16746.4
567.392,17134.5
567.893,17158.8
568.394,17417.4
568.895,17035.2
569.396,17725.4
569.897,17768.2
570.398,18058.5
570.898,19556.9
571.399,20291.5
571.899,19383.7
572.4,19136.0
572.9,18506.9
573.4,18286.0
573.901,18661.9
574.401,18830.9
574.901,18460.6
575.401,19283.1
575.901,19183.2
576.401,19872.8
576.901,19500.3
577.401,19436.5
577.9,19359.2
578.4,19258.8
578.9,19101.6
579.399,19694.4
579.899,20025.2
580.398,19955.4
580.897,20166.0
581.397,20161.9
581.896,24619.5
582.395,23329.4
582.894,20041.5
583.393,19683.2
583.892,20080.1
584.391,19739.1
584.889,20337.4
585.388,20928.2
585.887,24203.6
586.385,22778.6
586.884,20430.0
587.382,20629.9
587.881,20489.8
588.379,20692.4
588.877,20655.6
589.375,20291.6
589.874,20300.2
590.372,20718.9
590.87,20571.9
591.367,21008.9
591.865,20695.1
592.363,20415.4
592.861,20772.9
593.358,21344.0
593.856,20783.5
594.353,20729.9
594.851,20598.1
595.348,20901.9
595.845,21392.8
596.342,21542.4
596.84,21735.9
597.337,21759.1
597.833,21473.7
598.33,21235.1
598.827,21715.3
599.324,21327.9
599.821,21847.2
600.317,21786.4
600.814,22297.6
601.31,22250.8
601.807,22066.3
602.303,22363.4
602.799,22637.1
603.295,22177.4
603.791,22939.7
604.287,22653.0
604.783,22680.2
605.279,22348.1
605.775,23252.5
606.271,23060.5
606.766,23240.7
607.262,23374.8
607.757,24163.5
608.253,23828.2
608.748,23821.0
609.243,24067.9
609.738,24343.3
610.233,24535.4
610.729,24094.8
611.223,24825.2
611.718,25206.3
612.213,25348.8
612.708,25059.7
613.202,25537.1
613.697,25699.8
614.192,25776.8
614.686,26362.2
615.18,26280.1
615.675,26748.5
616.169,27086.0
616.663,27221.6
617.157,27533.3
617.651,27751.8
618.145,26775.7
618.638,28310.8
619.132,28254.3
619.626,28623.6
620.119,29025.5
620.613,28308.1
621.106,29104.7
621.599,29075.7
622.093,29385.3
622.586,28960.1
623.079,29896.0
623.572,30117.2
624.065,30380.5
624.558,30804.0
625.05,31033.1
625.543,31133.7
626.036,30515.2
626.528,30291.8
627.02,30831.4
627.513,31107.5
628.005,32391.4
628.497,31643.7
628.989,31457.2
629.481,32174.9
629.973,32113.3
630.465,32617.7
630.957,32451.2
631.449,33175.4
631.94,33364.6
632.432,32482.7
632.923,32285.6
633.414,33854.0
633.906,32436.4
634.397,33008.2
634.888,32726.4
635.379,32019.4
635.87,32840.8
636.361,33630.0
636.852,33203.2
637.342,33029.4
637.833,32882.2
638.323,32901.0
638.814,33026.6
639.304,33348.8
639.794,31960.4
640.285,32776.7
640.775,33683.7
641.265,32856.3
641.755,31621.4
642.244,32729.3
642.734,32140.7
643.224,32017.3
643.713,31673.9
644.203,31871.7
644.692,31162.5
645.181,32612.4
645.671,31885.2
646.16,32011.0
646.649,31151.7
647.138,30900.1
647.627,30411.5
648.115,30357.6
648.604,30810.6
649.093,29810.3
649.581,30044.6
650.07,30162.8
650.558,29464.7
651.046,30441.9
651.534,30423.9
652.023,30122.6
652.511,28858.0
652.998,29283.9
653.486,27714.5
653.974,27444.5
654.462,27421.9
654.949,27682.7
655.437,27321.2
655.924,26950.7
656.411,27441.9
656.898,26515.4
657.385,26472.1
657.872,25918.7
658.359,25165.4
658.846,24715.2
659.333,24523.0
659.82,23537.8
660.306,24541.2
660.793,23478.1
661.036,24411.1