File: spectra/VLFR_09-PET_bio_Raman_3cd4d7b1.csv
nm,Intensity
526.508,830.3
527.055,829.1
527.602,829.9
528.149,830.2
528.695,829.8
529.241,831.2
529.787,831.9
530.334,829.2
530.879,829.6
531.425,830.8
531.971,835.2
532.516,833.4
533.062,829.7
533.607,839.9
534.152,2150.8
534.697,1949.1
535.242,1681.5
535.786,1568.0
536.331,1473.1
536.876,1439.2
537.42,1420.3
537.964,1423.9
538.508,1433.4
539.052,1433.8
539.596,1454.0
540.14,1485.3
540.683,1455.2
541.227,1456.9
541.77,1449.8
542.313,1473.7
542.856,1479.6
543.399,1488.8
543.942,1511.9
544.485,1500.8
545.027,1521.0
545.57,1521.9
546.112,1530.5
546.654,1550.6
547.196,1535.8
547.738,1556.8
548.28,1555.3
548.822,1589.3
549.363,1586.1
549.905,1592.3
550.446,1616.5
550.988,1631.0
551.529,1612.6
552.07,1632.1
552.611,1635.6
553.152,1654.1
553.692,1662.2
554.233,1650.4
554.773,1670.1
555.314,1689.1
555.854,1718.0
556.394,1738.9
556.934,1765.5
557.474,1931.6
558.014,1822.9
558.553,1776.4
559.093,1768.5
559.632,1750.4
560.172,1751.1
560.711,1758.0
561.25,1785.6
561.789,1806.5
562.328,1830.3
562.867,1835.8
563.406,1835.6
563.944,1855.0
564.483,1874.7
565.021,1993.9
565.559,2004.4
566.098,1999.4
566.636,1902.6
567.174,1897.3
567.711,1966.2
568.249,1920.7
568.787,1916.2
569.324,1939.9
569.862,1965.1
570.399,2017.9
570.936,2165.0
571.474,2374.8
572.011,2149.0
572.548,2028.7
573.084,2011.1
573.621,2029.3
574.158,2071.7
574.694,2047.5
575.231,2074.3
575.767,2100.8
576.303,2091.6
576.84,2128.1
577.376,2106.8
577.912,2077.7
578.447,2111.1
578.983,2102.8
579.519,2110.0
580.054,2140.1
580.59,2141.4
581.125,2163.5
581.661,2266.2
582.196,3780.5
582.731,2261.4
583.266,2194.7
583.801,2183.0
584.336,2195.2
584.87,2210.0
585.405,2290.6
585.94,2960.8
586.474,2673.2
587.008,2303.6
587.543,2255.0
588.077,2235.5
588.611,2244.4
589.145,2231.6
589.679,2228.2
590.213,2248.9
590.747,2241.7
591.28,2256.4
591.814,2277.1
592.347,2267.1
592.881,2258.5
593.414,2254.9
593.947,2271.2
594.48,2271.4
595.014,2280.0
595.547,2281.9
596.079,2308.0
596.612,2299.9
597.145,2316.1
597.678,2312.2
598.21,2332.5
598.743,2351.4
599.275,2340.8
599.807,2350.2
600.34,2345.6
600.872,2348.3
601.404,2349.3
601.936,2353.0
602.468,2353.2
603.0,2387.5
603.532,2382.9
604.063,2405.8
604.595,2380.8
605.126,2367.9
605.658,2371.2
606.189,2374.4
606.721,2359.3
607.252,2391.3
607.783,2410.9
608.314,2421.6
608.845,2441.1
609.376,2443.4
609.907,2447.8
610.438,2453.4
610.968,2484.9
611.499,2490.9
612.03,2523.7
612.56,2552.6
613.091,2579.0
613.621,2621.1
614.151,2615.8
614.681,2642.1
615.212,2647.6
615.742,2647.9
616.272,2661.4
616.802,2693.8
617.332,2725.9
617.861,2752.8
618.391,2779.6
618.921,2787.6
619.45,2808.4
619.98,2807.2
620.509,2832.3
621.039,2843.6
621.568,2878.5
622.097,2885.5
622.627,2926.4
623.156,2953.3
623.685,2970.0
624.214,3027.3
624.743,3052.8
625.272,3056.9
625.801,3088.1
626.33,3102.8
626.858,3126.0
627.387,3126.2
627.916,3138.1
628.444,3176.2
628.973,3250.0
629.501,3266.9
630.029,3299.0
630.558,3309.9
631.086,3385.6
631.614,3479.0
632.142,3521.9
632.67,3478.9
633.198,3466.2
633.726,3461.0
634.254,3461.9
634.782,3457.9
635.31,3515.6
635.838,3585.7
636.365,3743.6
636.893,3778.9
637.421,3620.6
637.948,3617.6
638.476,3632.2
639.003,3646.6
639.531,3667.4
640.058,3681.9
640.585,3676.3
641.113,3727.8
641.64,3737.5
642.167,3768.9
642.694,3762.5
643.221,3779.0
643.748,3752.5
644.275,3757.1
644.802,3762.9
645.329,3758.4
645.856,3783.1
646.382,3789.5
646.909,3815.4
647.436,3843.2
647.962,3833.9
648.489,3871.7
649.016,3861.9
649.542,3855.1
650.069,3839.9
650.595,3872.9
651.121,3867.8
651.648,3880.6
652.174,3917.9
652.7,3909.5
653.227,3935.8
653.753,3932.9
654.279,3963.3
654.805,3935.5
655.331,3947.8
655.857,3947.6
656.383,3961.6
656.909,3984.9
657.435,3967.0
657.961,3984.8
658.487,4006.3
659.013,4002.0
659.538,4016.9
660.064,4016.4
660.59,4005.8
661.116,3991.5
661.641,3974.1
662.167,3961.7
662.692,3996.4
663.087,3968.5