File: spectra/VLFR_02-HDPE_bio_Raman_8fd2bb53.csv
nm,Intensity
526.495,829.7
527.042,828.6
527.589,828.8
528.136,829.7
528.682,828.6
529.229,828.2
529.775,828.5
530.321,828.1
530.867,829.2
531.413,828.6
531.959,828.5
532.505,828.3
533.051,829.9
533.596,829.0
534.141,844.4
534.687,843.9
535.232,839.8
535.777,842.9
536.321,840.8
536.866,840.6
537.41,842.3
537.955,842.2
538.499,842.4
539.043,842.2
539.587,840.9
540.131,841.9
540.675,842.8
541.219,841.5
541.762,841.7
542.305,841.5
542.849,843.2
543.392,842.5
543.935,841.6
544.478,843.3
545.02,844.2
545.563,843.9
546.106,841.8
546.648,842.3
547.19,846.5
547.732,844.0
548.274,844.4
548.816,844.4
549.358,843.9
549.9,844.1
550.441,844.9
550.983,844.3
551.524,844.2
552.065,844.8
552.606,843.6
553.147,845.1
553.688,842.1
554.229,845.2
554.769,844.1
555.31,843.8
555.85,847.9
556.391,846.2
556.931,845.0
557.471,844.7
558.011,844.8
558.551,846.8
559.09,844.6
559.63,845.9
560.169,847.0
560.709,847.6
561.248,847.9
561.787,854.3
562.326,847.8
562.865,848.9
563.404,848.8
563.943,850.5
564.481,847.7
565.02,848.6
565.558,848.9
566.096,852.2
566.634,851.1
567.172,848.4
567.71,848.0
568.248,848.3
568.786,850.7
569.324,847.0
569.861,847.7
570.399,849.8
570.936,852.3
571.473,857.0
572.01,851.9
572.547,849.3
573.084,851.4
573.621,853.1
574.158,852.5
574.694,852.7
575.231,853.1
575.767,854.9
576.303,858.1
576.84,854.4
577.376,853.5
577.912,853.5
578.448,853.4
578.984,853.9
579.519,852.3
580.055,857.2
580.59,852.9
581.126,854.4
581.661,854.6
582.196,856.4
582.731,858.0
583.267,856.8
583.801,859.2
584.336,859.4
584.871,860.1
585.406,858.9
585.94,862.2
586.475,864.9
587.009,862.8
587.543,867.8
588.078,866.5
588.612,868.7
589.146,870.9
589.68,872.5
590.214,874.2
590.747,873.2
591.281,874.2
591.815,874.7
592.348,875.9
592.881,877.8
593.415,875.4
593.948,880.9
594.481,881.7
595.014,880.0
595.547,878.4
596.08,885.4
596.613,881.0
597.146,884.7
597.678,884.0
598.211,886.8
598.743,888.9
599.276,885.1
599.808,887.8
600.34,890.3
600.872,890.3
601.404,889.0
601.936,888.3
602.468,887.5
603.0,887.0
603.532,889.2
604.064,887.4
604.595,886.1
605.127,881.3
605.658,878.6
606.189,881.8
606.721,879.3
607.252,878.2
607.783,878.0
608.314,876.5
608.845,876.7
609.376,875.7
609.907,874.9
610.438,873.9
610.968,876.6
611.499,875.2
612.029,873.0
612.56,872.1
613.09,873.9
613.621,873.3
614.151,871.2
614.681,869.5
615.211,871.5
615.741,870.2
616.271,872.0
616.801,872.8
617.331,871.6
617.861,869.7
618.39,871.5
618.92,870.8
619.45,871.4
619.979,867.5
620.509,865.9
621.038,867.6
621.567,869.3
622.096,870.4
622.626,870.8
623.155,871.2
623.684,866.4
624.213,865.3
624.742,866.5
625.271,866.6
625.799,867.0
626.328,867.9
626.857,886.0
627.386,910.6
627.914,896.1
628.443,908.9
628.971,889.6
629.5,884.3
630.028,877.3
630.556,880.6
631.084,871.0
631.613,868.6
632.141,867.1
632.669,866.4
633.197,868.3
633.725,864.2
634.253,867.0
634.781,865.5
635.308,864.4
635.836,864.8
636.364,865.7
636.891,869.0
637.419,867.3
637.947,866.7
638.474,865.7
639.002,865.6
639.529,865.5
640.056,865.9
640.584,869.0
641.111,869.4
641.638,869.0
642.165,870.9
642.692,869.2
643.219,870.4
643.746,871.7
644.273,869.9
644.8,871.1
645.327,870.7
645.854,870.1
646.381,871.5
646.908,869.8
647.434,869.8
647.961,873.1
648.488,871.7
649.014,868.1
649.541,870.7
650.067,868.5
650.594,867.5
651.12,874.5
651.646,865.9
652.173,869.1
652.699,870.9
653.225,873.4
653.752,870.5
654.278,870.3
654.804,870.9
655.33,871.0
655.856,870.0
656.382,867.7
656.908,867.3
657.434,868.3
657.96,870.3
658.486,865.3
659.012,863.0
659.538,867.2
660.064,865.6
660.589,865.1
661.115,862.1
661.641,864.2
662.166,860.0
662.692,862.0
663.086,863.2