File: spectra/VLFR_01-LDPE_bio_Raman_35dbd681.csv
nm,Intensity
526.508,829.7
527.055,829.8
527.602,830.3
528.149,830.1
528.695,830.7
529.241,829.6
529.787,830.0
530.334,829.6
530.879,829.6
531.425,829.5
531.971,836.1
532.516,832.2
533.062,830.7
533.607,829.8
534.152,906.3
534.697,891.6
535.242,881.9
535.786,869.7
536.331,866.5
536.876,862.5
537.42,859.4
537.964,860.6
538.508,857.8
539.052,859.4
539.596,854.9
540.14,850.9
540.683,852.3
541.227,851.6
541.77,850.9
542.313,849.9
542.856,850.1
543.399,849.6
543.942,849.3
544.485,849.0
545.027,846.7
545.57,847.3
546.112,845.6
546.654,849.5
547.196,847.4
547.738,847.5
548.28,848.6
548.822,845.0
549.363,847.1
549.905,849.0
550.446,844.9
550.988,847.2
551.529,845.4
552.07,843.7
552.611,846.8
553.152,846.5
553.692,850.5
554.233,848.1
554.773,852.8
555.314,851.6
555.854,854.1
556.394,854.8
556.934,859.8
557.474,859.9
558.014,864.1
558.553,864.8
559.093,863.3
559.632,861.9
560.172,859.7
560.711,860.5
561.25,862.8
561.789,864.4
562.328,865.7
562.867,873.0
563.406,879.0
563.944,929.0
564.483,899.2
565.021,896.1
565.559,892.0
566.098,970.1
566.636,898.5
567.174,892.4
567.711,895.6
568.249,893.3
568.787,899.4
569.324,901.9
569.862,909.0
570.399,913.8
570.936,924.9
571.474,1027.3
572.011,974.1
572.548,954.7
573.084,952.9
573.621,962.6
574.158,984.1
574.694,989.9
575.231,1012.2
575.767,1087.3
576.303,1159.3
576.84,1148.5
577.376,1135.7
577.912,1148.3
578.447,1168.7
578.983,1212.2
579.519,1241.4
580.054,1283.5
580.59,1312.0
581.125,1347.2
581.661,1382.4
582.196,1411.1
582.731,1448.4
583.266,1463.2
583.801,1495.2
584.336,1517.8
584.87,1518.3
585.405,1542.6
585.94,1562.6
586.474,1579.6
587.008,1605.2
587.543,1610.6
588.077,1614.9
588.611,1639.6
589.145,1636.6
589.679,1663.2
590.213,1680.8
590.747,1695.8
591.28,1697.1
591.814,1709.1
592.347,1706.7
592.881,1704.5
593.414,1701.2
593.947,1705.6
594.48,1711.6
595.014,1727.0
595.547,1728.2
596.079,1740.3
596.612,1759.6
597.145,1778.5
597.678,1787.5
598.21,1805.4
598.743,1825.6
599.275,1833.7
599.807,1844.6
600.34,1835.8
600.872,1837.4
601.404,1839.1
601.936,1819.5
602.468,1801.6
603.0,1788.0
603.532,1760.2
604.063,1735.3
604.595,1681.7
605.126,1648.7
605.658,1604.8
606.189,1570.0
606.721,1527.7
607.252,1512.4
607.783,1495.7
608.314,1470.8
608.845,1452.8
609.376,1428.0
609.907,1407.7
610.438,1392.0
610.968,1377.8
611.499,1360.1
612.03,1348.0
612.56,1342.9
613.091,1336.0
613.621,1327.5
614.151,1313.3
614.681,1296.9
615.212,1289.0
615.742,1276.1
616.272,1269.0
616.802,1257.2
617.332,1260.9
617.861,1250.9
618.391,1243.9
618.921,1240.3
619.45,1245.5
619.98,1237.2
620.509,1223.7
621.039,1238.1
621.568,1238.7
622.097,1258.6
622.627,1261.9
623.156,1248.6
623.685,1236.4
624.214,1244.0
624.743,1245.1
625.272,1249.5
625.801,1253.9
626.33,1296.3
626.858,1468.8
627.387,1918.5
627.916,1676.9
628.444,1816.3
628.973,1783.5
629.501,1691.9
630.029,1598.6
630.558,1591.8
631.086,1460.4
631.614,1396.1
632.142,1368.9
632.67,1367.9
633.198,1358.0
633.726,1364.3
634.254,1364.0
634.782,1363.4
635.31,1366.2
635.838,1372.8
636.365,1372.1
636.893,1375.3
637.421,1375.1
637.948,1376.3
638.476,1379.6
639.003,1377.4
639.531,1378.0
640.058,1384.8
640.585,1382.8
641.113,1389.3
641.64,1384.3
642.167,1384.8
642.694,1382.2
643.221,1375.5
643.748,1375.5
644.275,1373.7
644.802,1371.0
645.329,1364.6
645.856,1358.1
646.382,1362.4
646.909,1364.9
647.436,1372.0
647.962,1355.5
648.489,1348.7
649.016,1348.1
649.542,1347.1
650.069,1345.0
650.595,1332.9
651.121,1339.6
651.648,1326.3
652.174,1338.6
652.7,1334.8
653.227,1327.9
653.753,1327.7
654.279,1324.4
654.805,1323.8
655.331,1318.8
655.857,1314.7
656.383,1307.4
656.909,1302.4
657.435,1289.4
657.961,1282.1
658.487,1270.6
659.013,1261.9
659.538,1252.0
660.064,1236.0
660.59,1220.6
661.116,1205.2
661.641,1182.4
662.167,1177.0
662.692,1171.0
663.087,1159.7