File: spectra/VLFR_01-LDPE_bio_Raman_5f8294b7.csv
nm,Intensity
526.547,832.65
527.095,832.55
527.642,832.4
528.189,832.3
528.736,832.6
529.283,833.15
529.829,832.95
530.376,832.65
530.922,831.9
531.468,832.35
532.014,835.75
532.56,832.1
533.106,833.45
533.651,833.9
534.196,877.2
534.742,870.4
535.287,870.6
535.832,867.25
536.376,870.35
536.921,856.75
537.465,863.15
538.01,855.2
538.554,855.2
539.098,852.45
539.642,851.1
540.186,849.85
540.729,848.65
541.273,852.0
541.816,848.45
542.36,848.55
542.903,848.95
543.446,850.3
543.988,856.55
544.531,851.3
545.074,849.55
545.616,849.6
546.158,857.25
546.701,889.05
547.243,851.85
547.785,849.5
548.326,849.2
548.868,850.85
549.41,852.85
549.951,857.65
550.492,864.5
551.034,848.9
551.575,849.6
552.116,847.55
552.656,846.85
553.197,847.45
553.738,849.15
554.278,848.25
554.819,849.2
555.359,848.4
555.899,848.45
556.439,850.0
556.979,850.6
557.519,852.1
558.058,850.8
558.598,851.6
559.137,849.95
559.677,849.45
560.216,851.05
560.755,850.25
561.294,853.55
561.833,860.8
562.371,1128.5
562.91,858.95
563.449,858.45
563.987,882.05
564.525,866.0
565.064,863.5
565.602,863.9
566.14,903.95
566.678,881.15
567.216,865.45
567.753,864.5
568.291,866.15
568.828,867.15
569.366,867.2
569.903,870.95
570.44,875.95
570.977,879.0
571.514,933.55
572.051,891.95
572.588,885.85
573.125,885.7
573.661,888.05
574.198,891.5
574.734,894.25
575.271,901.65
575.807,922.6
576.343,957.95
576.879,949.75
577.415,940.7
577.951,936.7
578.486,947.9
579.022,955.9
579.557,966.7
580.093,976.8
580.628,985.2
581.164,994.55
581.699,1001.35
582.234,1010.65
582.769,1019.4
583.304,1025.25
583.838,1030.2
584.373,1034.6
584.908,1044.3
585.442,1046.45
585.977,1058.25
586.511,1066.75
587.045,1080.9
587.58,1082.0
588.114,1094.6
588.648,1109.85
589.182,1122.5
589.715,1133.5
590.249,1154.75
590.783,1168.3
591.316,1178.45
591.85,1191.15
592.383,1199.1
592.917,1201.1
593.45,1207.8
593.983,1213.1
594.516,1210.9
595.049,1220.5
595.582,1226.5
596.115,1229.0
596.648,1226.55
597.18,1229.0
597.713,1231.25
598.245,1235.7
598.778,1248.4
599.31,1245.35
599.842,1246.2
600.375,1243.45
600.907,1234.65
601.439,1234.85
601.971,1226.3
602.503,1217.75
603.034,1212.25
603.566,1198.05
604.098,1183.75
604.629,1165.45
605.161,1151.7
605.692,1138.4
606.224,1124.75
606.755,1116.2
607.286,1103.9
607.817,1098.6
608.348,1091.15
608.879,1085.1
609.41,1079.55
609.941,1070.7
610.472,1066.8
611.002,1064.4
611.533,1056.15
612.063,1059.25
612.594,1052.05
613.124,1053.6
613.655,1052.2
614.185,1042.55
614.715,1044.9
615.245,1040.35
615.775,1034.85
616.305,1030.4
616.835,1027.6
617.365,1025.65
617.895,1019.6
618.425,1020.55
618.954,1011.0
619.484,1008.55
620.013,1006.5
620.543,1002.0
621.072,1002.35
621.602,1001.1
622.131,1007.95
622.66,1001.65
623.189,994.85
623.718,995.45
624.247,990.0
624.776,987.85
625.305,990.25
625.834,993.6
626.363,998.85
626.891,1076.3
627.42,1208.15
627.949,1121.85
628.477,1201.95
629.006,1153.85
629.534,1120.35
630.062,1094.1
630.591,1084.8
631.119,1040.4
631.647,1019.05
632.175,1013.75
632.703,1011.7
633.231,1008.0
633.759,1008.7
634.287,1012.5
634.815,1010.5
635.343,1014.2
635.871,1015.85
636.398,1014.15
636.926,1014.8
637.454,1015.15
637.981,1018.9
638.509,1023.95
639.036,1024.0
639.564,1027.2
640.091,1029.55
640.618,1029.0
641.146,1034.15
641.673,1034.9
642.2,1036.5
642.727,1037.8
643.254,1037.55
643.781,1041.55
644.308,1036.0
644.835,1039.2
645.362,1040.35
645.889,1043.75
646.416,1040.55
646.942,1040.2
647.469,1037.85
647.996,1036.15
648.522,1035.45
649.049,1039.75
649.576,1048.15
650.102,1049.8
650.629,1033.55
651.155,1030.4
651.682,1028.85
652.208,1019.3
652.734,1021.55
653.261,1021.8
653.787,1018.3
654.313,1020.2
654.839,1015.9
655.365,1016.25
655.892,1007.45
656.418,1008.0
656.944,1005.85
657.47,1004.6
657.996,1000.15
658.522,993.95
659.048,989.75
659.574,987.3
660.099,984.15
660.625,977.2
661.151,973.1
661.677,968.3
662.203,965.05
662.728,957.75
663.123,951.7