File: spectra/VLFR_08-PLA_bio_Raman_8a362359.csv
nm,Intensity
528.626,1866.3
529.132,1863.7
529.637,1864.9
530.143,1865.1
530.648,1863.8
531.153,1864.6
531.658,1907.6
532.164,4199.9
532.669,1866.8
533.174,1864.4
533.679,1963.9
534.184,2290.4
534.689,2312.3
535.194,2346.9
535.699,2360.8
536.203,2377.0
536.708,2337.6
537.213,2362.8
537.717,2385.2
538.222,2374.0
538.726,2396.5
539.231,2397.4
539.735,2395.6
540.239,2410.0
540.744,2408.9
541.248,2450.6
541.752,2454.8
542.256,2431.9
542.76,2473.9
543.264,2464.7
543.768,2485.4
544.272,2464.1
544.776,2470.6
545.28,2508.6
545.784,2509.5
546.287,2474.8
546.791,2515.1
547.294,2526.4
547.798,2522.7
548.301,2556.7
548.805,2540.4
549.308,2549.6
549.811,2576.4
550.315,2552.2
550.818,2597.4
551.321,2593.9
551.824,2626.8
552.327,2593.2
552.83,2602.1
553.333,2630.3
553.835,2634.1
554.338,2647.4
554.841,2645.5
555.343,2642.6
555.846,2652.2
556.349,2663.5
556.851,2646.0
557.353,2634.4
557.856,2681.5
558.358,2665.3
558.86,2648.1
559.362,2654.9
559.864,2676.5
560.366,2670.3
560.868,2716.5
561.37,2690.0
561.872,2719.7
562.374,2735.0
562.876,2720.2
563.377,2715.6
563.879,2737.0
564.38,2749.4
564.882,2745.6
565.383,2737.9
565.885,2740.3
566.386,2750.5
566.887,2754.0
567.388,2766.5
567.889,2745.1
568.391,2784.9
568.892,2778.4
569.392,2798.2
569.893,2781.5
570.394,2784.6
570.895,2780.6
571.395,2775.7
571.896,2808.5
572.397,2829.5
572.897,2791.2
573.397,2815.8
573.898,2809.6
574.398,2825.7
574.898,2801.9
575.398,2799.9
575.898,2821.9
576.398,2830.9
576.898,2832.9
577.398,2821.6
577.898,2801.8
578.398,2819.1
578.897,2834.0
579.397,2838.2
579.896,2838.5
580.396,2826.4
580.895,2845.9
581.395,2852.5
581.894,2874.8
582.393,2860.3
582.892,2829.4
583.391,2847.8
583.89,2860.4
584.389,2856.8
584.888,2853.6
585.387,2796.0
585.886,2802.0
586.384,2839.3
586.883,2813.0
587.381,2834.8
587.88,2853.1
588.378,2829.9
588.876,2782.0
589.375,2792.7
589.873,2791.8
590.371,2814.0
590.869,2799.7
591.367,2813.1
591.865,2801.6
592.363,2827.0
592.86,2790.0
593.358,2827.6
593.856,2825.0
594.353,2799.6
594.851,2813.7
595.348,2795.5
595.845,2828.2
596.342,2834.5
596.84,2814.5
597.337,2828.9
597.834,2817.7
598.331,2791.4
598.828,2823.2
599.324,2845.3
599.821,2810.5
600.318,2816.1
600.814,2818.9
601.311,2829.0
601.807,2819.4
602.304,2830.3
602.8,2827.5
603.296,2841.0
603.792,2827.6
604.288,2815.2
604.784,2817.5
605.28,2805.8
605.776,2782.2
606.272,2807.5
606.767,2803.0
607.263,2851.7
607.759,2824.6
608.254,2824.0
608.749,2808.2
609.245,2791.9
609.74,2808.6
610.235,2794.5
610.73,2845.5
611.225,2801.4
611.72,2815.6
612.215,2789.0
612.71,2800.3
613.204,2804.0
613.699,2777.4
614.194,2756.5
614.688,2816.0
615.182,2779.8
615.677,2777.1
616.171,2761.2
616.665,2763.0
617.159,2781.1
617.653,2784.6
618.147,2748.5
618.641,2800.5
619.135,2747.9
619.628,2787.7
620.122,2758.4
620.615,2778.6
621.109,2756.6
621.602,2754.7
622.095,2786.2
622.589,2742.8
623.082,2759.0
623.575,2753.7
624.068,2746.9
624.561,2733.1
625.053,2746.7
625.546,2731.9
626.039,2720.9
626.531,2744.7
627.024,2705.3
627.516,2706.4
628.008,2702.8
628.501,2691.8
628.993,2697.5
629.485,2715.6
629.977,2662.0
630.469,2685.9
630.96,2693.7
631.452,2674.4
631.944,2679.9
632.435,2677.3
632.927,2677.0
633.418,2686.8
633.91,2678.0
634.401,2646.2
634.892,2639.4
635.383,2642.8
635.874,2647.1
636.365,2650.5
636.856,2623.5
637.346,2659.0
637.837,2623.8
638.327,2644.5
638.818,2630.9
639.308,2604.9
639.799,2586.9
640.289,2600.4
640.779,2582.5
641.269,2590.1
641.759,2590.2
642.249,2574.3
642.738,2617.4
643.228,2550.7
643.718,2554.9
644.207,2555.2
644.697,2564.7
645.186,2581.8
645.675,2534.1
646.164,2547.5
646.653,2516.9
647.142,2518.3
647.631,2528.2
648.12,2532.4
648.609,2528.4
649.098,2515.1
649.586,2478.9
650.075,2492.8
650.563,2494.1
651.051,2484.4
651.539,2468.6
652.027,2458.5
652.515,2457.1
653.003,2464.4
653.491,2426.4
653.979,2429.9
654.467,2424.6
654.954,2404.7
655.442,2381.2
655.929,2378.4
656.416,2321.4
656.904,2359.5
657.391,2341.7
657.878,2365.9
658.365,2349.1
658.851,2317.2
659.338,2325.6
659.825,2327.0
660.311,2318.1
660.798,2321.1
661.041,2312.4