File: spectra/VLFR_02-HDPE_nobio_Raman_4eaac651.csv
cm-1,Intensity
-123.878,1852.05
-105.821,1851.95
-87.8007,1852.45
-69.8161,1852.8
-51.8675,1853.9
-33.9547,1853.95
-16.0776,1875.75
1.76388,3307.1
19.5698,1852.55
37.3403,1853.25
55.0755,1915.4
72.7754,2077.5
90.4402,2077.15
108.07,2090.55
125.665,2070.7
143.225,2052.35
160.75,2047.0
178.241,2058.7
195.697,2063.95
213.119,2054.6
230.506,2056.65
247.859,2062.15
265.178,2051.2
282.463,2055.75
299.713,2053.25
316.93,2050.3
334.113,2059.9
351.263,2056.85
368.379,2063.8
385.461,2061.05
402.51,2071.15
419.526,2071.5
436.508,2067.5
453.458,2066.45
470.374,2070.45
487.257,2064.3
504.107,2079.7
520.925,2080.35
537.71,2069.3
554.462,2078.35
571.182,2081.4
587.87,2078.9
604.525,2083.35
621.148,2084.2
637.739,2081.3
654.297,2087.0
670.824,2090.95
687.319,2096.1
703.782,2080.3
720.213,2091.6
736.613,2101.7
752.981,2104.35
769.317,2114.25
785.623,2105.65
801.897,2112.65
818.139,2109.8
834.351,2112.0
850.532,2111.5
866.681,2133.05
882.8,2121.25
898.888,2115.8
914.945,2127.1
930.972,2118.85
946.968,2119.8
962.934,2132.55
978.869,2136.4
994.774,2132.75
1010.65,2140.65
1026.49,2149.3
1042.31,2153.55
1058.09,2321.85
1073.85,2208.6
1089.57,2199.85
1105.27,2176.9
1120.93,2301.1
1136.57,2327.05
1152.18,2169.1
1167.75,2187.2
1183.3,2164.65
1198.82,2151.7
1214.31,2155.4
1229.77,2169.0
1245.2,2164.0
1260.6,2181.75
1275.97,2193.65
1291.32,2544.95
1306.63,2287.2
1321.92,2226.8
1337.18,2200.45
1352.41,2208.8
1367.61,2237.85
1382.78,2207.0
1397.93,2227.65
1413.05,2409.55
1428.14,2383.5
1443.2,2534.95
1458.23,2452.45
1473.23,2376.35
1488.21,2305.5
1503.16,2304.65
1518.08,2331.65
1532.97,2341.25
1547.84,2367.05
1562.68,2385.85
1577.49,2408.0
1592.27,2445.35
1607.03,2442.7
1621.76,2469.4
1636.46,2483.75
1651.14,2511.1
1665.78,2533.95
1680.41,2531.7
1695.0,2534.75
1709.57,2542.75
1724.11,2572.8
1738.62,2599.5
1753.11,2636.05
1767.57,2653.4
1782.01,2681.35
1796.41,2711.5
1810.8,2722.0
1825.15,2727.15
1839.48,2777.45
1853.79,2817.1
1868.06,2824.7
1882.31,2852.6
1896.54,2909.45
1910.74,2930.95
1924.91,2959.35
1939.06,2966.95
1953.19,2997.65
1967.28,3033.0
1981.35,3053.4
1995.4,3116.2
2009.42,3124.75
2023.42,3196.95
2037.39,3168.6
2051.33,3217.9
2065.25,3235.25
2079.15,3233.35
2093.01,3319.7
2106.86,3352.5
2120.68,3397.15
2134.47,3376.9
2148.24,3354.9
2161.99,3400.0
2175.71,3345.2
2189.41,3362.45
2203.08,3348.5
2216.73,3329.65
2230.35,3277.75
2243.95,3284.1
2257.52,3239.55
2271.07,3206.85
2284.6,3142.1
2298.1,3093.85
2311.58,3109.75
2325.03,3071.75
2338.46,3023.8
2351.87,3005.2
2365.25,2956.3
2378.61,2926.25
2391.94,2913.35
2405.26,2895.75
2418.54,2905.95
2431.81,2881.3
2445.05,2876.85
2458.27,2853.4
2471.46,2841.25
2484.63,2828.65
2497.78,2786.7
2510.9,2801.15
2524.0,2755.65
2537.08,2747.9
2550.14,2728.5
2563.17,2744.2
2576.18,2696.9
2589.17,2696.95
2602.13,2698.25
2615.07,2698.9
2627.99,2669.85
2640.89,2693.65
2653.76,2704.55
2666.61,2686.85
2679.44,2694.2
2692.25,2700.0
2705.03,2734.6
2717.79,2778.05
2730.53,2753.5
2743.25,2658.8
2755.94,2624.05
2768.61,2638.45
2781.27,2609.15
2793.89,2641.45
2806.5,2634.35
2819.09,2687.8
2831.65,3035.9
2844.19,4615.3
2856.71,4467.7
2869.21,3958.9
2881.69,5153.15
2894.14,4047.85
2906.58,3679.6
2918.99,3425.25
2931.38,3371.05
2943.75,2969.45
2956.1,2686.85
2968.42,2638.2
2980.73,2647.35
2993.01,2608.05
3005.28,2627.0
3017.52,2633.1
3029.74,2611.25
3041.94,2626.65
3054.12,2589.05
3066.28,2594.95
3078.42,2625.75
3090.54,2581.9
3102.63,2578.35
3114.71,2585.7
3126.77,2586.15
3138.8,2575.7
3150.82,2595.2
3162.81,2604.75
3174.78,2604.85
3186.74,2578.65
3198.67,2587.9
3210.58,2603.55
3222.47,2623.35
3234.35,2639.5
3246.2,2634.2
3258.03,2648.4
3269.84,2619.2
3281.64,2650.1
3293.41,2640.25
3305.16,2657.6
3316.89,2634.05
3328.61,2637.45
3340.3,2613.1
3351.97,2619.0
3363.63,2659.65
3375.26,2618.7
3386.88,2588.15
3398.47,2622.2
3410.05,2597.25
3421.6,2616.0
3433.14,2586.45
3444.66,2621.25
3456.15,2632.5
3467.63,2579.65
3479.09,2581.6
3490.53,2569.6
3501.96,2556.85
3513.36,2554.65
3524.74,2548.85
3536.11,2527.0
3547.45,2510.7
3558.78,2486.4
3570.09,2497.85
3581.37,2495.6
3592.64,2462.85
3603.9,2463.2
3615.13,2433.6
3626.34,2379.15
3637.54,2397.0
3648.72,2400.9
3659.87,2381.1
3665.45,2374.2