File: spectra/VLFR_01-LDPE_bio_Raman_c2ada278.csv
nm,Intensity
526.547,832.75
527.095,831.5
527.642,831.45
528.189,833.1
528.736,832.15
529.283,832.5
529.829,832.8
530.376,832.1
530.922,832.45
531.468,831.4
532.014,836.2
532.56,832.2
533.106,831.55
533.651,833.65
534.196,888.55
534.742,879.4
535.287,871.6
535.832,863.75
536.376,862.25
536.921,861.25
537.465,860.4
538.01,860.95
538.554,858.85
539.098,860.6
539.642,855.8
540.186,854.15
540.729,852.55
541.273,852.7
541.816,851.65
542.36,853.6
542.903,852.2
543.446,853.35
543.988,851.65
544.531,851.65
545.074,851.7
545.616,849.55
546.158,849.9
546.701,850.8
547.243,850.55
547.785,850.0
548.326,851.8
548.868,850.45
549.41,849.75
549.951,850.15
550.492,850.1
551.034,850.5
551.575,850.55
552.116,851.85
552.656,851.45
553.197,851.15
553.738,851.95
554.278,850.5
554.819,853.85
555.359,853.6
555.899,855.0
556.439,855.25
556.979,854.75
557.519,858.5
558.058,861.1
558.598,861.7
559.137,858.2
559.677,858.2
560.216,858.35
560.755,857.0
561.294,860.0
561.833,856.9
562.371,859.6
562.91,863.35
563.449,865.55
563.987,907.85
564.525,877.45
565.064,874.4
565.602,872.0
566.14,928.3
566.678,873.7
567.216,871.4
567.753,871.95
568.291,869.95
568.828,871.2
569.366,872.35
569.903,878.3
570.44,881.55
570.977,888.4
571.514,962.8
572.051,909.5
572.588,896.8
573.125,897.75
573.661,901.5
574.198,908.3
574.734,911.9
575.271,921.2
575.807,954.0
576.343,1008.3
576.879,989.65
577.415,977.95
577.951,970.85
578.486,978.4
579.022,993.95
579.557,1000.25
580.093,1010.35
580.628,1020.55
581.164,1030.65
581.699,1039.7
582.234,1050.95
582.769,1056.1
583.304,1065.35
583.838,1072.15
584.373,1080.2
584.908,1087.3
585.442,1094.2
585.977,1107.55
586.511,1119.9
587.045,1130.05
587.58,1148.2
588.114,1151.1
588.648,1165.45
589.182,1169.85
589.715,1181.8
590.249,1191.7
590.783,1203.0
591.316,1213.45
591.85,1223.05
592.383,1222.1
592.917,1233.95
593.45,1234.85
593.983,1237.35
594.516,1248.4
595.049,1252.0
595.582,1261.35
596.115,1268.4
596.648,1287.1
597.18,1295.95
597.713,1304.2
598.245,1325.95
598.778,1331.3
599.31,1342.9
599.842,1356.7
600.375,1351.45
600.907,1351.5
601.439,1349.35
601.971,1337.15
602.503,1329.45
603.034,1319.9
603.566,1308.75
604.098,1281.45
604.629,1267.05
605.161,1246.1
605.692,1221.65
606.224,1199.25
606.755,1186.8
607.286,1183.4
607.817,1172.7
608.348,1157.0
608.879,1145.35
609.41,1138.15
609.941,1129.75
610.472,1115.95
611.002,1115.0
611.533,1108.7
612.063,1103.45
612.594,1098.65
613.124,1094.75
613.655,1088.5
614.185,1080.45
614.715,1073.2
615.245,1074.6
615.775,1065.5
616.305,1057.6
616.835,1057.05
617.365,1058.0
617.895,1055.45
618.425,1055.35
618.954,1046.85
619.484,1046.7
620.013,1046.3
620.543,1041.85
621.072,1044.5
621.602,1047.45
622.131,1057.75
622.66,1054.05
623.189,1044.45
623.718,1039.65
624.247,1034.9
624.776,1034.95
625.305,1039.15
625.834,1041.55
626.363,1060.4
626.891,1201.85
627.42,1443.15
627.949,1293.65
628.477,1448.8
629.006,1349.65
629.534,1286.1
630.062,1228.9
630.591,1217.7
631.119,1123.3
631.647,1083.0
632.175,1063.75
632.703,1058.0
633.231,1053.75
633.759,1052.2
634.287,1050.3
634.815,1046.9
635.343,1049.3
635.871,1053.65
636.398,1055.0
636.926,1055.85
637.454,1057.75
637.981,1060.25
638.509,1057.0
639.036,1058.9
639.564,1065.95
640.091,1066.85
640.618,1068.55
641.146,1071.3
641.673,1071.8
642.2,1074.35
642.727,1075.9
643.254,1078.25
643.781,1078.8
644.308,1077.2
644.835,1080.8
645.362,1076.85
645.889,1081.6
646.416,1081.55
646.942,1079.0
647.469,1080.45
647.996,1081.85
648.522,1080.5
649.049,1083.8
649.576,1080.05
650.102,1079.75
650.629,1083.55
651.155,1086.0
651.682,1086.45
652.208,1087.9
652.734,1086.8
653.261,1091.9
653.787,1090.3
654.313,1087.05
654.839,1087.25
655.365,1085.15
655.892,1080.25
656.418,1078.0
656.944,1070.6
657.47,1074.5
657.996,1064.5
658.522,1058.3
659.048,1047.6
659.574,1043.8
660.099,1037.7
660.625,1030.0
661.151,1023.95
661.677,1015.75
662.203,1006.75
662.728,1004.75
663.123,996.95