File: spectra/VLFR_02-HDPE_bio_Raman_3e1d7682.csv
nm,Intensity
526.508,830.3
527.055,829.5
527.602,830.6
528.149,829.7
528.695,829.2
529.241,827.9
529.787,829.1
530.334,829.4
530.879,828.8
531.425,829.0
531.971,832.6
532.516,828.6
533.062,830.3
533.607,830.2
534.152,873.3
534.697,870.8
535.242,870.3
535.786,852.8
536.331,846.2
536.876,845.4
537.42,844.8
537.964,845.4
538.508,843.3
539.052,843.3
539.596,840.9
540.14,840.5
540.683,838.8
541.227,838.8
541.77,839.9
542.313,840.2
542.856,843.1
543.399,842.8
543.942,839.2
544.485,838.3
545.027,840.3
545.57,839.0
546.112,837.9
546.654,839.3
547.196,838.8
547.738,840.1
548.28,838.9
548.822,839.9
549.363,838.3
549.905,840.2
550.446,839.9
550.988,838.8
551.529,838.7
552.07,840.2
552.611,839.6
553.152,841.4
553.692,838.8
554.233,839.8
554.773,842.7
555.314,841.5
555.854,841.7
556.394,843.3
556.934,842.9
557.474,845.4
558.014,843.4
558.553,845.9
559.093,844.0
559.632,845.0
560.172,844.6
560.711,843.4
561.25,844.3
561.789,844.4
562.328,842.9
562.867,845.6
563.406,848.1
563.944,893.1
564.483,858.0
565.021,854.0
565.559,850.1
566.098,886.7
566.636,853.2
567.174,851.9
567.711,852.9
568.249,847.1
568.787,845.9
569.324,847.4
569.862,850.5
570.399,850.9
570.936,856.0
571.474,925.6
572.011,869.4
572.548,856.1
573.084,850.6
573.621,852.8
574.158,857.3
574.694,855.2
575.231,855.0
575.767,881.7
576.303,955.1
576.84,911.5
577.376,895.2
577.912,866.7
578.447,862.3
578.983,860.4
579.519,863.0
580.054,865.7
580.59,865.2
581.125,865.8
581.661,868.8
582.196,869.0
582.731,869.5
583.266,874.2
583.801,877.4
584.336,876.1
584.87,881.2
585.405,881.1
585.94,885.8
586.474,889.4
587.008,891.8
587.543,897.5
588.077,904.2
588.611,904.1
589.145,910.8
589.679,915.9
590.213,922.6
590.747,925.9
591.28,933.1
591.814,938.9
592.347,939.5
592.881,944.1
593.414,944.5
593.947,954.3
594.48,957.4
595.014,957.9
595.547,963.1
596.079,966.6
596.612,967.0
597.145,974.0
597.678,980.8
598.21,985.8
598.743,991.9
599.275,993.9
599.807,995.0
600.34,996.5
600.872,998.2
601.404,996.2
601.936,997.6
602.468,991.2
603.0,988.0
603.532,984.3
604.063,978.7
604.595,978.2
605.126,968.5
605.658,961.2
606.189,960.7
606.721,952.3
607.252,946.5
607.783,943.7
608.314,940.4
608.845,942.7
609.376,934.1
609.907,931.7
610.438,922.3
610.968,925.2
611.499,924.8
612.03,924.4
612.56,923.2
613.091,922.2
613.621,922.5
614.151,916.7
614.681,919.3
615.212,912.2
615.742,915.2
616.272,915.5
616.802,913.5
617.332,917.3
617.861,913.7
618.391,919.9
618.921,915.0
619.45,913.3
619.98,914.5
620.509,912.2
621.039,915.1
621.568,928.8
622.097,954.4
622.627,957.1
623.156,922.4
623.685,912.8
624.214,908.7
624.743,910.5
625.272,913.3
625.801,917.7
626.33,949.7
626.858,1227.0
627.387,1666.4
627.916,1332.2
628.444,1600.4
628.973,1330.8
629.501,1227.4
630.029,1117.1
630.558,1093.7
631.086,980.7
631.614,920.6
632.142,909.6
632.67,905.2
633.198,901.5
633.726,899.5
634.254,897.4
634.782,895.1
635.31,895.0
635.838,894.3
636.365,895.0
636.893,896.3
637.421,890.2
637.948,894.8
638.476,893.5
639.003,895.3
639.531,893.4
640.058,893.0
640.585,895.1
641.113,895.9
641.64,896.0
642.167,896.3
642.694,899.1
643.221,903.9
643.748,904.3
644.275,900.1
644.802,900.6
645.329,904.5
645.856,904.7
646.382,908.0
646.909,904.6
647.436,908.7
647.962,909.2
648.489,907.2
649.016,910.9
649.542,907.8
650.069,908.2
650.595,908.0
651.121,907.7
651.648,909.7
652.174,909.6
652.7,909.9
653.227,911.8
653.753,912.4
654.279,912.1
654.805,911.0
655.331,910.7
655.857,905.9
656.383,906.7
656.909,903.2
657.435,903.9
657.961,904.3
658.487,901.0
659.013,901.2
659.538,899.1
660.064,897.6
660.59,898.2
661.116,891.8
661.641,889.9
662.167,886.7
662.692,885.7
663.087,885.1