File: spectra/VLFR_02-HDPE_nobio_Raman_c6518ede.csv
nm,Intensity
526.532,830.567
527.079,830.0
527.625,829.6
528.172,830.1
528.718,830.267
529.265,830.2
529.811,829.567
530.357,829.467
530.903,830.6
531.449,829.9
531.994,837.2
532.54,830.333
533.085,829.733
533.63,830.833
534.176,873.767
534.721,866.733
535.266,859.867
535.81,856.067
536.355,852.967
536.9,851.1
537.444,851.367
537.988,850.367
538.533,849.6
539.077,850.033
539.621,847.967
540.165,846.533
540.708,845.533
541.252,845.733
541.795,844.533
542.339,844.9
542.882,847.5
543.425,844.3
543.968,845.433
544.511,843.733
545.054,844.667
545.597,844.667
546.139,845.767
546.682,845.133
547.224,845.6
547.766,845.667
548.308,844.5
548.85,844.5
549.392,844.833
549.934,846.033
550.475,845.8
551.017,846.667
551.558,845.7
552.1,845.067
552.641,845.067
553.182,846.133
553.723,846.2
554.264,847.733
554.804,847.367
555.345,847.133
555.885,848.1
556.426,846.3
556.966,849.633
557.506,850.267
558.046,851.033
558.586,852.267
559.126,850.433
559.665,850.167
560.205,850.0
560.745,849.0
561.284,848.767
561.823,849.5
562.362,852.4
562.901,852.733
563.44,855.433
563.979,915.067
564.518,865.467
565.056,863.0
565.595,860.833
566.133,981.867
566.671,860.967
567.21,854.533
567.748,855.467
568.285,851.5
568.823,852.833
569.361,854.133
569.899,854.233
570.436,857.0
570.974,861.9
571.511,971.1
572.048,874.0
572.585,860.833
573.122,857.767
573.659,860.367
574.196,863.433
574.733,859.6
575.269,866.167
575.806,908.0
576.342,925.667
576.878,904.067
577.414,885.1
577.951,867.6
578.486,867.067
579.022,867.567
579.558,868.9
580.094,871.333
580.629,870.567
581.165,873.533
581.7,874.9
582.236,876.967
582.771,876.733
583.306,877.4
583.841,879.067
584.376,880.767
584.911,882.367
585.445,883.1
585.98,883.8
586.514,886.433
587.049,889.933
587.583,889.567
588.117,891.667
588.651,893.967
589.186,895.133
589.72,898.167
590.253,901.667
590.787,902.633
591.321,904.533
591.854,907.567
592.388,908.9
592.921,910.867
593.455,912.367
593.988,916.4
594.521,916.6
595.054,917.733
595.587,920.5
596.12,921.767
596.653,923.967
597.186,927.633
597.718,927.567
598.251,930.767
598.783,931.7
599.316,933.833
599.848,933.5
600.38,933.9
600.912,933.333
601.444,932.733
601.976,932.367
602.508,933.733
603.04,930.533
603.572,927.2
604.103,925.967
604.635,921.267
605.167,919.533
605.698,914.967
606.229,912.3
606.761,913.067
607.292,909.133
607.823,905.667
608.354,904.567
608.885,901.567
609.416,901.5
609.947,899.633
610.477,899.6
611.008,900.667
611.539,898.067
612.069,896.033
612.6,894.933
613.13,894.733
613.66,895.767
614.19,892.067
614.721,890.967
615.251,891.933
615.781,890.4
616.311,891.133
616.841,888.967
617.37,891.7
617.9,892.167
618.43,889.333
618.96,887.967
619.489,889.267
620.019,887.367
620.548,887.9
621.077,890.433
621.607,894.533
622.136,906.367
622.665,902.1
623.194,891.033
623.723,886.333
624.252,886.8
624.781,887.933
625.31,889.1
625.839,893.3
626.368,906.033
626.896,1024.1
627.425,1219.93
627.953,1075.8
628.482,1180.5
629.01,1113.73
629.539,1064.8
630.067,1015.6
630.596,1001.87
631.124,933.9
631.652,904.633
632.18,894.8
632.708,887.567
633.236,887.867
633.764,885.7
634.292,884.6
634.82,884.7
635.348,884.4
635.876,885.067
636.403,884.833
636.931,883.033
637.459,884.633
637.986,881.9
638.514,884.533
639.041,883.133
639.568,884.433
640.096,882.867
640.623,885.133
641.15,883.767
641.678,883.233
642.205,883.633
642.732,882.4
643.259,884.7
643.786,884.467
644.313,884.767
644.84,884.567
645.367,885.2
645.894,883.967
646.421,884.533
646.948,884.567
647.474,884.533
648.001,885.233
648.528,884.833
649.054,887.033
649.581,885.467
650.108,884.9
650.634,885.933
651.161,885.567
651.687,884.133
652.214,885.467
652.74,885.8
653.266,884.333
653.793,885.4
654.319,887.3
654.845,884.5
655.371,884.767
655.897,880.367
656.424,881.667
656.95,883.0
657.476,880.667
658.002,882.133
658.528,877.7
659.054,879.467
659.58,879.167
660.106,880.133
660.631,877.0
661.157,873.8
661.683,874.567
662.209,872.567
662.735,870.967
663.129,871.467