File: spectra/VLFR_07-PET_bio_Raman_5aa8c27e.csv
nm,Intensity
791.75,15280.8
792.846,14215.8
793.942,13738.8
795.037,13586.1
796.133,13428.5
797.228,13265.2
798.324,13231.8
799.419,13024.3
800.514,12819.3
801.61,12963.5
802.705,12806.2
803.8,12494.0
804.894,12326.0
805.989,12210.8
807.084,12123.3
808.178,12071.6
809.273,11896.7
810.367,11851.3
811.461,11834.0
812.556,11597.0
813.65,11619.0
814.744,11502.7
815.837,11250.5
816.931,11215.0
818.025,11022.8
819.118,10868.3
820.212,11025.7
821.305,10729.9
822.398,10586.6
823.491,10404.7
824.585,10535.3
825.677,10893.1
826.77,10179.0
827.863,10049.1
828.956,10011.8
830.048,10055.5
831.14,10052.5
832.233,9623.4
833.325,9557.05
834.417,9439.3
835.509,9429.25
836.601,9654.55
837.692,9543.2
838.784,9506.35
839.876,9274.35
840.967,9797.65
842.058,9293.25
843.149,9065.35
844.24,8968.8
845.331,8736.85
846.422,8609.55
847.513,8589.6
848.604,8544.2
849.694,8401.5
850.784,8441.8
851.875,8499.6
852.965,8350.45
854.055,8274.35
855.145,8311.05
856.235,8122.15
857.324,8104.2
858.414,8214.95
859.503,8347.85
860.593,8201.9
861.682,7842.95
862.771,7798.6
863.86,7846.0
864.949,7816.8
866.038,7753.35
867.126,7585.5
868.215,7516.85
869.303,7604.8
870.391,7630.75
871.479,7901.05
872.567,8123.1
873.655,7724.45
874.743,7629.45
875.831,7311.3
876.918,7258.75
878.006,7260.0
879.093,7078.95
880.18,7100.9
881.267,6965.55
882.354,7085.4
883.441,7003.5
884.527,6865.5
885.614,6986.2
886.7,6822.6
887.786,6701.25
888.872,6602.7
889.958,6636.2
891.044,6555.95
892.13,6535.55
893.216,6353.75
894.301,6326.85
895.386,6334.45
896.472,6350.95
897.557,7039.25
898.642,7056.5
899.726,6252.8
900.811,6071.95
901.896,5963.2
902.98,5975.8
904.064,5983.55
905.148,5886.35
906.232,6253.1
907.316,6570.0
908.4,6290.3
909.484,5808.75
910.567,5679.1
911.65,5578.0
912.734,5535.25
913.817,5472.35
914.9,5363.9
915.982,5405.95
917.065,5360.45
918.147,5281.45
919.23,5252.35
920.312,5237.8
921.394,5139.9
922.476,5138.75
923.558,5088.65
924.639,5078.35
925.721,4995.5
926.802,5019.8
927.884,4891.95
928.965,4919.1
930.046,4844.65
931.126,4788.1
932.207,4789.35
933.288,4738.45
934.368,4709.3
935.448,4717.5
936.528,4629.8
937.608,4632.45
938.688,4595.85
939.767,4571.9
940.847,4548.15
941.926,4536.9
943.005,4488.7
944.084,4458.05
945.163,4448.8
946.242,4427.6
947.321,4410.25
948.399,4396.85
949.477,4378.3
950.556,4359.45
951.634,4323.35
952.711,4293.5
953.789,4284.6
954.867,4270.4
955.944,4237.1
957.021,4235.5
958.098,4212.35
959.175,4199.9
960.252,4181.15
961.328,4180.8
962.405,4155.25
963.481,4149.15
964.557,4122.55
965.633,4097.1
966.709,4119.15
967.785,4083.3
968.86,4081.05
969.936,4068.2
971.011,4062.35
972.086,4033.4
973.161,4026.8
974.235,4022.05
975.31,4010.45
976.384,3998.75
977.459,3998.35
978.533,3972.85
979.607,3969.25
980.68,3963.1
981.754,3945.55
982.827,3940.65
983.901,3936.4
984.974,3927.35
986.047,3930.95
987.119,3912.8
988.192,3904.8
989.264,3897.7
990.337,3897.6
991.409,3887.6
992.481,3879.55
993.553,3866.8
994.624,3868.5
995.696,3862.85
996.767,3852.95
997.838,3847.3
998.909,3843.6
999.98,3836.35
1001.05,3834.9
1002.12,3827.95
1003.19,3821.2
1004.26,3814.6
1005.33,3809.1
1006.4,3808.3
1007.47,3802.1
1008.54,3797.05
1009.61,3791.7
1010.68,3787.15
1011.75,3786.75
1012.82,3781.65
1013.88,3786.1
1014.95,3781.4
1016.02,3776.6
1017.09,3772.25
1018.16,3769.8
1019.22,3768.55
1020.29,3770.0
1021.36,3775.0
1022.43,3778.95
1023.49,3772.15
1024.56,3762.5
1025.63,3757.5
1026.69,3753.4
1027.76,3744.55
1028.83,3743.5
1029.89,3738.9
1030.96,3737.05
1032.02,3737.45
1033.09,3740.95
1034.15,3743.45
1035.22,3742.35
1036.28,3737.9
1037.35,3732.5
1038.41,3728.1
1039.48,3726.3
1040.54,3724.35
1041.6,3724.1
1042.67,3719.75
1043.73,3719.5
1044.79,3718.7
1045.86,3718.2
1046.92,3717.95
1047.98,3716.85
1049.05,3717.95
1050.11,3715.7
1051.17,3714.2
1052.23,3714.95
1053.29,3715.05
1054.36,3713.9
1055.42,3713.05
1056.48,3712.4
1057.54,3710.95
1058.6,3711.65
1059.66,3712.2
1060.72,3711.25
1061.78,3711.45
1062.84,3710.75
1063.9,3710.4
1064.96,3709.05
1066.02,3709.4
1067.08,3710.6
1067.88,3710.3