File: spectra/VLFR_01-LDPE_nobio_Raman_2d5b0677.csv
cm-1,Intensity
-123.878,1853.15
-105.821,1852.4
-87.8007,1853.1
-69.8161,1852.6
-51.8675,1853.35
-33.9547,1854.5
-16.0776,1872.25
1.76388,3338.0
19.5698,1854.0
37.3403,1854.65
55.0755,1946.3
72.7754,2172.25
90.4402,2153.7
108.07,2138.6
125.665,2123.6
143.225,2111.5
160.75,2103.2
178.241,2106.45
195.697,2116.3
213.119,2117.9
230.506,2126.25
247.859,2157.25
265.178,2109.1
282.463,2090.8
299.713,2083.6
316.93,2088.4
334.113,2082.95
351.263,2085.9
368.379,2091.5
385.461,2093.6
402.51,2078.55
419.526,2083.75
436.508,2077.2
453.458,2073.1
470.374,2080.35
487.257,2072.9
504.107,2084.1
520.925,2087.6
537.71,2074.9
554.462,2083.05
571.182,2079.7
587.87,2084.3
604.525,2077.9
621.148,2084.75
637.739,2092.5
654.297,2098.45
670.824,2097.35
687.319,2090.7
703.782,2078.45
720.213,2086.05
736.613,2091.2
752.981,2087.7
769.317,2096.9
785.623,2093.45
801.897,2105.1
818.139,2111.55
834.351,2098.9
850.532,2106.8
866.681,2123.2
882.8,2130.3
898.888,2127.45
914.945,2116.55
930.972,2108.7
946.968,2125.05
962.934,2122.45
978.869,2126.0
994.774,2130.85
1010.65,2136.2
1026.49,2159.45
1042.31,2177.45
1058.09,2350.65
1073.85,2244.55
1089.57,2229.9
1105.27,2184.3
1120.93,2320.1
1136.57,2284.75
1152.18,2188.8
1167.75,2195.8
1183.3,2188.2
1198.82,2174.75
1214.31,2186.65
1229.77,2178.7
1245.2,2208.5
1260.6,2229.85
1275.97,2258.75
1291.32,2598.7
1306.63,2403.45
1321.92,2300.6
1337.18,2252.1
1352.41,2240.45
1367.61,2267.55
1382.78,2225.65
1397.93,2226.65
1413.05,2345.7
1428.14,2468.85
1443.2,2662.1
1458.23,2521.75
1473.23,2354.55
1488.21,2272.5
1503.16,2248.7
1518.08,2240.65
1532.97,2252.65
1547.84,2246.6
1562.68,2251.6
1577.49,2253.85
1592.27,2274.15
1607.03,2278.75
1621.76,2284.6
1636.46,2269.4
1651.14,2289.25
1665.78,2308.75
1680.41,2296.95
1695.0,2309.5
1709.57,2317.65
1724.11,2319.5
1738.62,2361.3
1753.11,2374.05
1767.57,2381.0
1782.01,2399.2
1796.41,2434.45
1810.8,2442.6
1825.15,2446.3
1839.48,2475.1
1853.79,2510.5
1868.06,2539.45
1882.31,2551.0
1896.54,2545.75
1910.74,2593.85
1924.91,2580.4
1939.06,2579.55
1953.19,2623.75
1967.28,2630.55
1981.35,2652.95
1995.4,2673.8
2009.42,2696.1
2023.42,2770.7
2037.39,2733.15
2051.33,2753.85
2065.25,2777.15
2079.15,2809.05
2093.01,2823.35
2106.86,2870.55
2120.68,2887.25
2134.47,2881.65
2148.24,2903.45
2161.99,2898.3
2175.71,2894.85
2189.41,2900.85
2203.08,2870.95
2216.73,2826.4
2230.35,2807.6
2243.95,2806.05
2257.52,2771.35
2271.07,2758.45
2284.6,2722.05
2298.1,2684.0
2311.58,2647.2
2325.03,2625.6
2338.46,2613.8
2351.87,2593.9
2365.25,2589.4
2378.61,2539.4
2391.94,2554.9
2405.26,2541.95
2418.54,2536.85
2431.81,2534.75
2445.05,2509.75
2458.27,2501.45
2471.46,2497.6
2484.63,2478.7
2497.78,2463.1
2510.9,2461.7
2524.0,2449.8
2537.08,2435.35
2550.14,2435.7
2563.17,2442.85
2576.18,2408.0
2589.17,2435.65
2602.13,2438.9
2615.07,2435.15
2627.99,2411.25
2640.89,2428.4
2653.76,2424.9
2666.61,2421.8
2679.44,2425.95
2692.25,2443.95
2705.03,2504.95
2717.79,2563.2
2730.53,2527.55
2743.25,2433.6
2755.94,2383.7
2768.61,2379.15
2781.27,2384.4
2793.89,2381.8
2806.5,2422.95
2819.09,2471.8
2831.65,2870.9
2844.19,4908.5
2856.71,4842.8
2869.21,4231.7
2881.69,5454.55
2894.14,4366.25
2906.58,4028.5
2918.99,3615.05
2931.38,3474.3
2943.75,2938.7
2956.1,2567.2
2968.42,2446.65
2980.73,2354.5
2993.01,2336.35
3005.28,2322.45
3017.52,2314.6
3029.74,2293.4
3041.94,2309.6
3054.12,2270.3
3066.28,2268.7
3078.42,2281.9
3090.54,2279.4
3102.63,2254.2
3114.71,2267.7
3126.77,2275.7
3138.8,2266.35
3150.82,2260.0
3162.81,2287.85
3174.78,2274.85
3186.74,2254.95
3198.67,2293.8
3210.58,2274.5
3222.47,2303.05
3234.35,2305.1
3246.2,2301.35
3258.03,2313.65
3269.84,2298.5
3281.64,2312.9
3293.41,2299.85
3305.16,2301.4
3316.89,2297.5
3328.61,2303.95
3340.3,2299.7
3351.97,2313.95
3363.63,2327.0
3375.26,2300.0
3386.88,2320.35
3398.47,2306.8
3410.05,2299.75
3421.6,2320.35
3433.14,2301.6
3444.66,2317.1
3456.15,2317.2
3467.63,2295.2
3479.09,2319.05
3490.53,2292.25
3501.96,2298.3
3513.36,2291.25
3524.74,2299.05
3536.11,2267.95
3547.45,2288.9
3558.78,2247.95
3570.09,2240.95
3581.37,2262.8
3592.64,2240.6
3603.9,2224.85
3615.13,2219.15
3626.34,2181.1
3637.54,2190.3
3648.72,2182.25
3659.87,2176.85
3665.45,2161.85