File: spectra/VLFR_07-PET_nobio_Raman_f315b230.csv
nm,Intensity
782.722,3748.96
783.822,3755.4
784.922,5612.56
786.022,3956.48
787.122,3762.64
788.222,4850.26
789.321,7324.22
790.421,7367.3
791.52,7269.44
792.619,7186.74
793.718,7135.92
794.817,7069.7
795.916,7031.92
797.015,7056.1
798.114,7031.86
799.212,7010.58
800.311,7029.54
801.409,7017.24
802.507,7036.14
803.605,6993.58
804.703,6977.04
805.801,6977.78
806.899,6860.1
807.997,6892.98
809.094,6849.26
810.191,6763.48
811.289,6813.84
812.386,6705.9
813.483,6681.4
814.58,6619.06
815.677,6607.88
816.774,6549.56
817.87,6471.28
818.967,6535.68
820.063,6445.42
821.159,6473.7
822.255,6386.4
823.351,6369.44
824.447,6370.38
825.543,6359.18
826.639,6327.36
827.734,6253.3
828.83,6157.2
829.925,6140.5
831.02,6205.9
832.115,6095.18
833.21,6047.88
834.305,6075.74
835.4,6018.8
836.494,6008.42
837.589,6017.66
838.683,5944.8
839.777,5953.36
840.871,5865.92
841.965,5896.86
843.059,5857.74
844.152,5811.64
845.246,5744.08
846.339,5715.6
847.433,5686.0
848.526,5664.84
849.619,5632.28
850.712,5601.3
851.804,5573.84
852.897,5610.88
853.989,5524.08
855.082,5471.98
856.174,5479.98
857.266,5487.04
858.358,5521.64
859.45,5514.56
860.542,5411.76
861.633,5395.08
862.725,5359.8
863.816,5369.32
864.907,5268.22
865.998,5231.16
867.089,5209.6
868.18,5214.44
869.27,5252.54
870.361,5190.7
871.451,5244.32
872.541,5202.18
873.631,5179.56
874.721,5137.26
875.811,5086.1
876.901,5099.26
877.99,5049.28
879.08,5050.4
880.169,5010.14
881.258,4996.9
882.347,4957.7
883.436,4990.6
884.524,4922.26
885.613,4904.68
886.701,4906.86
887.79,4839.6
888.878,4863.22
889.966,4839.8
891.053,4800.92
892.141,4760.7
893.229,4729.96
894.316,4712.18
895.403,4683.52
896.49,4666.12
897.577,4702.12
898.664,4709.66
899.751,4635.44
900.837,4584.76
901.923,4557.16
903.01,4559.5
904.096,4567.78
905.181,4553.52
906.267,4525.34
907.353,4538.52
908.438,4528.78
909.523,4493.52
910.609,4454.66
911.694,4421.68
912.778,4396.56
913.863,4380.08
914.948,4379.94
916.032,4338.12
917.116,4346.1
918.2,4341.5
919.284,4328.22
920.368,4304.32
921.452,4288.9
922.535,4286.54
923.618,4255.58
924.701,4226.24
925.784,4236.36
926.867,4221.92
927.95,4202.36
929.032,4174.02
930.115,4153.92
931.197,4154.92
932.279,4121.64
933.361,4111.3
934.442,4111.22
935.524,4076.36
936.605,4086.06
937.687,4062.72
938.768,4063.76
939.849,4055.68
940.929,4049.14
942.01,4033.5
943.09,4024.2
944.171,4017.1
945.251,4019.54
946.331,4003.72
947.41,3997.6
948.49,3989.4
949.569,3980.36
950.649,3977.02
951.728,3965.18
952.807,3962.46
953.885,3947.14
954.964,3948.68
956.042,3947.32
957.121,3935.7
958.199,3926.34
959.277,3924.12
960.354,3922.36
961.432,3922.86
962.509,3911.36
963.587,3906.26
964.664,3904.92
965.741,3900.4
966.817,3895.88
967.894,3896.84
968.97,3889.94
970.047,3888.5
971.123,3885.4
972.198,3884.44
973.274,3875.76
974.35,3865.28
975.425,3864.16
976.5,3862.3
977.575,3855.66
978.65,3856.24
979.725,3851.0
980.799,3847.56
981.873,3847.04
982.947,3841.8
984.021,3836.46
985.095,3840.4
986.169,3834.46
987.242,3832.56
988.315,3830.18
989.388,3830.0
990.461,3824.44
991.534,3818.82
992.607,3817.74
993.679,3813.74
994.751,3813.22
995.823,3812.96
996.895,3809.04
997.966,3807.2
999.038,3807.4
1000.11,3802.84
1001.18,3800.92
1002.25,3798.12
1003.32,3796.78
1004.39,3794.68
1005.46,3793.34
1006.53,3791.34
1007.6,3788.62
1008.67,3790.18
1009.74,3786.34
1010.81,3785.48
1011.88,3784.9
1012.95,3783.2
1014.02,3783.14
1015.09,3781.18
1016.16,3780.68
1017.22,3779.84
1018.29,3775.72
1019.36,3776.94
1020.43,3773.64
1021.49,3771.62
1022.56,3773.58
1023.63,3772.84
1024.7,3770.54
1025.76,3768.46
1026.83,3766.28
1027.9,3765.4
1028.96,3764.52
1030.03,3762.98
1031.09,3762.2
1032.16,3762.92
1033.22,3760.36
1034.29,3760.68
1035.35,3760.66
1036.42,3761.74
1037.48,3759.2
1038.55,3757.92
1039.61,3756.96
1040.68,3757.26
1041.74,3755.74
1042.8,3754.34
1043.87,3755.3
1044.93,3754.32
1045.99,3754.56
1047.06,3754.0
1048.12,3753.62
1049.18,3753.28
1050.24,3753.62
1051.31,3753.2
1052.37,3752.4
1053.43,3752.44
1054.49,3752.4
1055.55,3752.06
1056.61,3751.06
1057.67,3751.08
1058.73,3751.1
1059.53,3750.54