File: spectra/VLFR_06-PET_bio_Raman_53f61a3b.csv
nm,Intensity
526.508,828.6
527.055,830.8
527.602,829.4
528.149,829.9
528.695,829.7
529.241,829.6
529.787,828.9
530.334,831.8
530.879,828.6
531.425,830.4
531.971,832.7
532.516,830.2
533.062,831.4
533.607,833.4
534.152,1275.1
534.697,1174.4
535.242,1075.2
535.786,1021.3
536.331,985.7
536.876,971.0
537.42,972.6
537.964,962.7
538.508,969.7
539.052,966.7
539.596,973.0
540.14,973.5
540.683,964.9
541.227,960.7
541.77,964.4
542.313,963.1
542.856,971.3
543.399,966.6
543.942,973.9
544.485,975.6
545.027,979.5
545.57,987.1
546.112,985.3
546.654,988.9
547.196,986.4
547.738,989.3
548.28,990.5
548.822,994.6
549.363,1002.1
549.905,1003.8
550.446,1007.7
550.988,1014.9
551.529,1008.1
552.07,1015.9
552.611,1019.4
553.152,1024.3
553.692,1025.3
554.233,1022.3
554.773,1026.4
555.314,1027.8
555.854,1049.2
556.394,1047.2
556.934,1055.3
557.474,1092.4
558.014,1065.6
558.553,1065.7
559.093,1054.6
559.632,1050.2
560.172,1054.8
560.711,1061.9
561.25,1068.5
561.789,1078.8
562.328,1072.1
562.867,1083.2
563.406,1082.6
563.944,1084.5
564.483,1093.4
565.021,1105.4
565.559,1126.1
566.098,1127.9
566.636,1102.2
567.174,1101.9
567.711,1122.2
568.249,1110.1
568.787,1112.1
569.324,1117.9
569.862,1130.7
570.399,1144.3
570.936,1178.7
571.474,1207.9
572.011,1182.0
572.548,1150.1
573.084,1157.5
573.621,1149.8
574.158,1163.5
574.694,1168.8
575.231,1169.5
575.767,1160.2
576.303,1177.8
576.84,1185.8
577.376,1176.3
577.912,1171.0
578.447,1179.3
578.983,1173.7
579.519,1186.0
580.054,1193.5
580.59,1197.2
581.125,1203.7
581.661,1219.8
582.196,1521.0
582.731,1219.3
583.266,1214.9
583.801,1210.3
584.336,1212.8
584.87,1217.8
585.405,1256.3
585.94,1384.6
586.474,1330.0
587.008,1237.8
587.543,1228.8
588.077,1230.4
588.611,1231.1
589.145,1233.2
589.679,1233.5
590.213,1229.5
590.747,1226.7
591.28,1236.5
591.814,1238.2
592.347,1232.7
592.881,1232.1
593.414,1238.8
593.947,1238.9
594.48,1240.9
595.014,1248.7
595.547,1243.5
596.079,1245.0
596.612,1246.2
597.145,1244.2
597.678,1253.3
598.21,1249.0
598.743,1256.1
599.275,1252.3
599.807,1260.2
600.34,1255.6
600.872,1252.0
601.404,1249.8
601.936,1247.4
602.468,1253.7
603.0,1247.8
603.532,1252.5
604.063,1251.6
604.595,1249.8
605.126,1244.7
605.658,1237.0
606.189,1238.6
606.721,1236.9
607.252,1236.8
607.783,1245.5
608.314,1244.6
608.845,1244.4
609.376,1250.1
609.907,1241.5
610.438,1242.9
610.968,1239.3
611.499,1240.1
612.03,1242.5
612.56,1247.1
613.091,1255.4
613.621,1260.7
614.151,1257.0
614.681,1256.0
615.212,1249.1
615.742,1251.4
616.272,1250.3
616.802,1252.3
617.332,1264.4
617.861,1253.6
618.391,1260.6
618.921,1252.3
619.45,1260.7
619.98,1256.8
620.509,1247.3
621.039,1259.0
621.568,1262.4
622.097,1264.4
622.627,1262.0
623.156,1270.9
623.685,1267.4
624.214,1275.2
624.743,1273.5
625.272,1274.7
625.801,1274.0
626.33,1274.4
626.858,1271.0
627.387,1272.2
627.916,1280.7
628.444,1277.8
628.973,1290.6
629.501,1295.1
630.029,1287.5
630.558,1296.0
631.086,1307.4
631.614,1335.4
632.142,1337.7
632.67,1324.4
633.198,1317.2
633.726,1302.9
634.254,1306.4
634.782,1307.7
635.31,1314.8
635.838,1327.1
636.365,1356.7
636.893,1353.9
637.421,1331.6
637.948,1324.6
638.476,1316.8
639.003,1327.8
639.531,1318.8
640.058,1324.2
640.585,1338.6
641.113,1334.7
641.64,1328.5
642.167,1340.9
642.694,1335.1
643.221,1341.5
643.748,1331.5
644.275,1343.3
644.802,1333.6
645.329,1329.6
645.856,1333.7
646.382,1335.9
646.909,1340.1
647.436,1343.8
647.962,1343.8
648.489,1334.3
649.016,1347.1
649.542,1342.1
650.069,1334.6
650.595,1333.9
651.121,1333.6
651.648,1336.4
652.174,1336.8
652.7,1334.7
653.227,1327.9
653.753,1333.3
654.279,1329.3
654.805,1324.3
655.331,1326.5
655.857,1322.1
656.383,1316.6
656.909,1319.7
657.435,1316.4
657.961,1314.3
658.487,1322.8
659.013,1310.5
659.538,1315.7
660.064,1309.7
660.59,1303.6
661.116,1295.3
661.641,1296.6
662.167,1282.6
662.692,1300.6
663.087,1278.2