File: spectra/VLFR_08-PLA_bio_Raman_cf54f158.csv
nm,Intensity
526.508,830.0
527.055,829.9
527.602,830.1
528.149,831.6
528.695,830.0
529.241,828.6
529.787,828.9
530.334,830.0
530.879,830.4
531.425,828.6
531.971,834.8
532.516,830.6
533.062,830.3
533.607,830.8
534.152,984.2
534.697,954.9
535.242,924.4
535.786,914.8
536.331,904.6
536.876,901.4
537.42,895.0
537.964,893.0
538.508,886.0
539.052,883.4
539.596,880.4
540.14,873.8
540.683,887.7
541.227,891.8
541.77,877.9
542.313,877.7
542.856,875.7
543.399,896.4
543.942,906.7
544.485,887.5
545.027,878.4
545.57,877.3
546.112,878.4
546.654,889.4
547.196,878.4
547.738,878.6
548.28,877.7
548.822,879.5
549.363,880.8
549.905,882.8
550.446,882.8
550.988,883.5
551.529,887.2
552.07,890.6
552.611,890.8
553.152,892.8
553.692,888.7
554.233,898.4
554.773,887.6
555.314,888.1
555.854,885.2
556.394,885.8
556.934,885.4
557.474,894.1
558.014,990.5
558.553,913.8
559.093,898.9
559.632,893.3
560.172,894.5
560.711,891.7
561.25,888.6
561.789,888.1
562.328,955.2
562.867,895.7
563.406,920.2
563.944,901.7
564.483,895.1
565.021,911.6
565.559,908.0
566.098,933.1
566.636,908.0
567.174,891.5
567.711,893.4
568.249,894.9
568.787,894.7
569.324,892.5
569.862,892.8
570.399,891.4
570.936,894.6
571.474,905.6
572.011,911.3
572.548,900.6
573.084,901.9
573.621,906.3
574.158,900.9
574.694,909.7
575.231,899.9
575.767,897.7
576.303,910.2
576.84,953.1
577.376,912.2
577.912,900.4
578.447,899.1
578.983,897.1
579.519,896.1
580.054,896.2
580.59,898.8
581.125,899.0
581.661,896.3
582.196,898.3
582.731,896.1
583.266,899.4
583.801,900.4
584.336,902.2
584.87,897.5
585.405,899.9
585.94,900.8
586.474,914.0
587.008,944.3
587.543,964.8
588.077,919.1
588.611,904.0
589.145,900.8
589.679,902.4
590.213,898.2
590.747,903.3
591.28,898.5
591.814,899.6
592.347,900.3
592.881,896.1
593.414,899.2
593.947,899.1
594.48,899.2
595.014,903.0
595.547,899.3
596.079,899.0
596.612,897.4
597.145,900.1
597.678,902.0
598.21,900.9
598.743,897.0
599.275,899.8
599.807,902.6
600.34,896.5
600.872,897.6
601.404,897.9
601.936,898.5
602.468,901.2
603.0,899.5
603.532,896.4
604.063,898.7
604.595,894.6
605.126,894.4
605.658,897.1
606.189,893.8
606.721,894.5
607.252,896.7
607.783,897.8
608.314,895.0
608.845,896.1
609.376,897.7
609.907,897.9
610.438,894.9
610.968,897.1
611.499,895.0
612.03,896.2
612.56,896.9
613.091,894.4
613.621,898.8
614.151,897.4
614.681,899.2
615.212,897.7
615.742,900.4
616.272,896.3
616.802,897.9
617.332,898.7
617.861,897.1
618.391,896.3
618.921,897.4
619.45,896.0
619.98,894.9
620.509,893.4
621.039,897.9
621.568,899.2
622.097,896.6
622.627,903.9
623.156,908.1
623.685,905.0
624.214,901.7
624.743,898.3
625.272,895.5
625.801,896.2
626.33,896.2
626.858,900.5
627.387,900.3
627.916,905.9
628.444,956.8
628.973,951.2
629.501,945.7
630.029,950.9
630.558,995.0
631.086,1291.9
631.614,1118.5
632.142,1005.2
632.67,982.4
633.198,1050.5
633.726,1028.2
634.254,951.9
634.782,911.5
635.31,901.2
635.838,896.8
636.365,891.8
636.893,890.8
637.421,889.8
637.948,889.4
638.476,889.1
639.003,890.1
639.531,889.0
640.058,888.7
640.585,886.0
641.113,889.3
641.64,888.6
642.167,888.5
642.694,888.0
643.221,888.4
643.748,886.6
644.275,884.1
644.802,884.0
645.329,883.6
645.856,885.9
646.382,883.4
646.909,885.0
647.436,882.8
647.962,885.1
648.489,880.5
649.016,883.6
649.542,882.9
650.069,883.9
650.595,883.3
651.121,878.7
651.648,882.8
652.174,881.2
652.7,880.9
653.227,880.5
653.753,879.5
654.279,877.7
654.805,880.3
655.331,879.2
655.857,877.2
656.383,878.0
656.909,877.5
657.435,877.8
657.961,879.9
658.487,880.8
659.013,876.4
659.538,876.6
660.064,876.9
660.59,876.8
661.116,874.9
661.641,875.0
662.167,873.7
662.692,873.8
663.087,872.5