File: spectra/VLFR_08-PLA_nobio_Raman_bc35329c.csv
nm,Intensity
526.547,833.0
527.094,832.0
527.641,833.4
528.188,832.6
528.734,832.9
529.281,832.6
529.827,833.3
530.373,832.8
530.92,832.7
531.466,832.6
532.011,836.5
532.557,832.2
533.103,831.9
533.648,834.1
534.193,942.5
534.738,927.5
535.283,910.1
535.828,903.8
536.373,901.7
536.917,900.8
537.462,897.8
538.006,900.4
538.55,896.8
539.094,897.7
539.638,899.8
540.182,895.8
540.726,896.7
541.269,902.8
541.812,895.7
542.356,897.1
542.899,901.1
543.442,908.7
543.985,913.7
544.527,903.8
545.07,901.0
545.612,899.1
546.155,900.7
546.697,898.0
547.239,901.9
547.781,903.8
548.323,906.3
548.865,904.9
549.406,901.8
549.948,905.5
550.489,906.0
551.03,907.6
551.572,908.8
552.113,913.2
552.654,917.2
553.194,911.7
553.735,912.0
554.276,916.9
554.816,913.1
555.356,909.3
555.896,911.1
556.437,913.1
556.977,910.5
557.516,917.8
558.056,974.9
558.596,927.1
559.135,919.0
559.675,920.0
560.214,919.6
560.753,917.5
561.292,917.8
561.831,915.8
562.37,918.6
562.909,925.9
563.448,940.1
563.986,929.8
564.525,925.5
565.063,938.0
565.601,936.8
566.139,944.0
566.677,931.6
567.215,926.1
567.753,925.2
568.291,930.6
568.828,927.7
569.366,929.0
569.903,928.9
570.441,930.5
570.978,932.7
571.515,937.2
572.052,938.8
572.589,940.1
573.126,939.1
573.662,942.0
574.199,938.6
574.735,948.2
575.272,936.1
575.808,933.3
576.344,943.0
576.88,970.2
577.416,950.6
577.952,937.9
578.488,937.3
579.024,938.2
579.559,939.7
580.095,936.8
580.63,936.1
581.166,935.5
581.701,938.7
582.236,939.9
582.771,940.9
583.306,940.9
583.841,943.5
584.376,940.7
584.911,942.3
585.445,938.7
585.98,939.7
586.514,945.3
587.048,964.5
587.583,970.3
588.117,947.1
588.651,942.7
589.185,941.5
589.719,938.7
590.253,940.8
590.786,940.2
591.32,939.9
591.853,936.1
592.387,944.2
592.92,939.4
593.454,939.0
593.987,936.3
594.52,938.5
595.053,941.5
595.586,943.2
596.119,942.9
596.651,937.8
597.184,942.8
597.717,943.6
598.249,943.6
598.782,940.8
599.314,942.9
599.846,944.2
600.379,941.8
600.911,940.6
601.443,939.8
601.975,943.2
602.507,936.5
603.038,947.4
603.57,934.3
604.102,940.3
604.633,936.6
605.165,936.9
605.696,935.8
606.228,934.3
606.759,935.7
607.29,935.6
607.821,937.8
608.352,932.0
608.883,935.6
609.414,936.4
609.945,937.3
610.476,935.6
611.006,934.8
611.537,935.4
612.067,937.7
612.598,935.1
613.128,936.7
613.659,942.0
614.189,944.3
614.719,943.4
615.249,935.3
615.779,942.9
616.309,943.0
616.839,941.4
617.369,938.9
617.899,940.9
618.428,938.7
618.958,939.1
619.487,940.3
620.017,939.0
620.546,942.0
621.076,934.0
621.605,935.0
622.134,935.7
622.663,943.6
623.193,946.7
623.722,939.2
624.251,944.4
624.78,937.7
625.308,936.6
625.837,933.8
626.366,939.0
626.895,934.3
627.423,939.4
627.952,943.8
628.48,981.6
629.009,966.4
629.537,969.0
630.065,967.5
630.594,1006.0
631.122,1198.3
631.65,1060.2
632.178,1000.3
632.706,990.5
633.234,1039.1
633.762,1013.3
634.29,966.2
634.818,942.1
635.346,937.0
635.873,934.4
636.401,933.4
636.929,932.3
637.456,930.6
637.984,930.5
638.511,922.0
639.039,927.3
639.566,928.7
640.093,927.0
640.62,928.0
641.148,929.4
641.675,926.7
642.202,926.2
642.729,928.3
643.256,926.3
643.783,925.8
644.31,923.0
644.837,919.9
645.364,922.5
645.891,923.6
646.417,918.4
646.944,922.4
647.471,921.7
647.997,918.6
648.524,919.8
649.051,920.5
649.577,917.4
650.104,919.9
650.63,918.5
651.157,918.9
651.683,917.8
652.209,916.3
652.736,915.7
653.262,914.4
653.788,911.8
654.314,916.7
654.84,913.7
655.366,915.0
655.893,915.2
656.419,916.6
656.945,912.2
657.471,916.1
657.997,916.0
658.522,912.8
659.048,914.3
659.574,915.3
660.1,913.6
660.626,915.1
661.152,911.7
661.677,907.6
662.203,910.1
662.729,908.1
663.123,910.9