File: spectra/VLFR_02-HDPE_nobio_Raman_fc904401.csv
nm,Intensity
526.5,829.7
527.047,828.6
527.594,828.8
528.14,828.5
528.687,830.0
529.233,829.7
529.779,827.5
530.325,829.2
530.871,828.0
531.417,828.7
531.962,836.6
532.508,831.0
533.053,828.9
533.599,828.0
534.144,846.0
534.689,844.6
535.234,843.4
535.778,839.1
536.323,840.1
536.867,839.2
537.412,839.1
537.956,836.9
538.5,838.8
539.044,838.2
539.588,837.8
540.132,838.0
540.675,838.7
541.219,838.3
541.762,836.1
542.305,837.6
542.848,839.0
543.391,838.1
543.934,835.9
544.477,838.9
545.02,836.6
545.562,836.8
546.105,838.0
546.647,839.2
547.189,840.5
547.731,837.2
548.273,837.5
548.815,838.3
549.356,837.4
549.898,840.9
550.439,837.4
550.981,838.9
551.522,840.0
552.063,839.7
552.604,838.3
553.145,838.8
553.686,838.8
554.226,840.3
554.767,838.6
555.307,840.1
555.848,840.3
556.388,838.6
556.928,839.4
557.468,842.7
558.008,840.7
558.547,839.9
559.087,839.6
559.626,839.1
560.166,840.2
560.705,840.5
561.244,839.8
561.783,838.8
562.322,840.8
562.861,841.8
563.4,844.0
563.939,856.2
564.477,845.1
565.015,843.3
565.554,843.1
566.092,856.6
566.63,843.2
567.168,844.2
567.706,844.9
568.244,843.7
568.781,844.7
569.319,843.5
569.857,845.7
570.394,846.3
570.931,847.4
571.468,872.4
572.005,851.8
572.542,848.5
573.079,847.8
573.616,847.6
574.153,851.9
574.689,850.2
575.226,854.2
575.762,859.5
576.298,881.0
576.834,868.6
577.371,863.9
577.907,859.2
578.442,857.5
578.978,863.4
579.514,862.9
580.049,864.8
580.585,864.5
581.12,865.2
581.656,871.5
582.191,873.9
582.726,877.8
583.261,880.8
583.796,884.1
584.331,885.8
584.865,889.7
585.4,892.3
585.935,896.1
586.469,898.2
587.004,902.6
587.538,906.9
588.072,907.6
588.606,914.2
589.14,921.9
589.674,918.2
590.208,924.5
590.742,931.1
591.275,930.1
591.809,934.8
592.342,936.2
592.876,936.1
593.409,938.7
593.942,944.7
594.476,945.6
595.009,950.3
595.542,950.9
596.075,953.9
596.607,956.9
597.14,958.2
597.673,961.7
598.205,967.5
598.738,970.7
599.27,969.8
599.803,973.2
600.335,973.2
600.867,975.9
601.399,974.7
601.931,973.6
602.463,975.2
602.995,974.6
603.527,966.3
604.058,968.9
604.59,962.7
605.122,962.0
605.653,956.1
606.184,954.5
606.716,948.9
607.247,949.8
607.778,948.4
608.309,942.3
608.84,941.7
609.371,942.0
609.902,933.9
610.433,930.4
610.964,931.0
611.494,930.1
612.025,927.8
612.556,928.4
613.086,925.1
613.616,923.6
614.147,921.0
614.677,918.9
615.207,919.4
615.737,912.4
616.267,914.2
616.797,913.3
617.327,912.7
617.857,912.4
618.387,910.0
618.917,910.8
619.446,908.7
619.976,903.3
620.505,904.6
621.035,903.8
621.564,907.2
622.093,912.0
622.623,909.8
623.152,903.3
623.681,900.3
624.21,899.1
624.739,898.5
625.268,900.4
625.797,901.4
626.326,906.2
626.855,960.5
627.383,1052.5
627.912,986.5
628.441,1043.0
628.969,987.5
629.498,963.5
630.026,940.6
630.554,940.9
631.083,913.5
631.611,900.3
632.139,896.9
632.667,898.3
633.195,896.6
633.724,898.4
634.252,892.3
634.779,897.1
635.307,900.3
635.835,897.7
636.363,897.9
636.891,896.6
637.418,900.0
637.946,902.3
638.474,899.8
639.001,898.3
639.529,898.4
640.056,900.3
640.583,904.1
641.111,899.1
641.638,903.4
642.165,904.0
642.692,907.3
643.22,905.1
643.747,901.3
644.274,903.4
644.801,906.3
645.328,903.9
645.854,902.7
646.381,908.8
646.908,904.5
647.435,905.7
647.962,905.2
648.488,905.6
649.015,906.5
649.542,902.5
650.068,901.8
650.595,906.6
651.121,904.4
651.648,899.9
652.174,905.4
652.7,905.6
653.227,905.3
653.753,905.8
654.279,904.0
654.805,902.3
655.331,903.0
655.858,903.4
656.384,903.7
656.91,905.3
657.436,899.2
657.962,896.6
658.488,899.0
659.013,898.4
659.539,895.7
660.065,895.4
660.591,896.9
661.117,889.5
661.642,886.9
662.168,886.7
662.694,885.7
663.088,886.7