File: spectra/VLFR_06-PET_bio_Raman_121a4420.csv
nm,Intensity
526.549,831.95
527.096,832.2
527.643,831.6
528.19,831.85
528.737,831.35
529.283,831.35
529.83,830.65
530.376,832.55
530.922,830.95
531.468,832.05
532.014,843.45
532.559,832.85
533.105,832.0
533.65,833.85
534.196,917.2
534.741,907.7
535.286,892.65
535.83,884.4
536.375,883.0
536.92,883.65
537.464,884.85
538.008,885.8
538.553,887.5
539.097,887.4
539.641,890.35
540.184,890.2
540.728,889.8
541.271,889.1
541.815,889.0
542.358,892.2
542.901,893.4
543.444,895.7
543.987,897.2
544.53,895.65
545.072,894.85
545.615,897.15
546.157,896.25
546.699,898.7
547.242,899.0
547.784,900.5
548.325,898.35
548.867,901.15
549.409,901.0
549.95,901.95
550.492,904.25
551.033,903.65
551.574,902.75
552.115,902.65
552.656,906.25
553.197,905.6
553.737,906.2
554.278,909.35
554.818,908.15
555.358,910.0
555.899,913.45
556.439,910.2
556.979,912.95
557.518,921.05
558.058,913.1
558.598,912.55
559.137,916.95
559.677,915.15
560.216,918.75
560.755,919.7
561.294,918.6
561.833,918.35
562.372,920.5
562.91,922.3
563.449,925.9
563.987,924.75
564.526,927.85
565.064,929.55
565.602,936.9
566.14,932.75
566.678,935.75
567.216,931.95
567.754,939.2
568.291,937.15
568.829,941.05
569.366,939.45
569.904,938.7
570.441,945.55
570.978,951.1
571.515,952.8
572.052,949.65
572.589,945.7
573.125,950.85
573.662,954.15
574.199,954.25
574.735,955.0
575.271,957.0
575.807,956.55
576.344,959.5
576.88,963.45
577.415,961.8
577.951,964.4
578.487,962.15
579.023,970.15
579.558,968.35
580.094,970.15
580.629,971.3
581.164,971.0
581.699,975.9
582.234,1022.5
582.769,977.65
583.304,976.2
583.839,979.65
584.374,982.4
584.908,980.4
585.443,984.3
585.977,1012.85
586.511,997.65
587.046,992.0
587.58,987.2
588.114,981.05
588.648,985.95
589.182,985.95
589.716,988.25
590.249,986.95
590.783,990.25
591.316,990.45
591.85,987.3
592.383,989.0
592.917,992.3
593.45,987.25
593.983,986.65
594.516,987.8
595.049,991.7
595.582,993.0
596.115,995.0
596.647,993.15
597.18,993.1
597.712,995.15
598.245,998.05
598.777,995.25
599.31,999.0
599.842,996.95
600.374,996.65
600.906,993.9
601.438,996.85
601.97,993.65
602.502,995.8
603.034,995.1
603.565,995.55
604.097,996.5
604.628,992.7
605.16,996.3
605.691,989.75
606.223,992.1
606.754,992.25
607.285,991.4
607.816,991.8
608.347,994.95
608.878,993.7
609.409,996.75
609.94,995.95
610.47,997.3
611.001,996.6
611.532,999.45
612.062,998.25
612.593,998.8
613.123,1003.95
613.653,1005.25
614.184,1006.1
614.714,1007.05
615.244,1008.05
615.774,1005.8
616.304,1001.85
616.834,1002.85
617.364,1007.25
617.894,1006.7
618.423,1007.0
618.953,1007.8
619.482,1009.6
620.012,1007.55
620.541,1007.8
621.071,1006.65
621.6,1008.0
622.13,1010.85
622.659,1012.55
623.188,1014.85
623.717,1013.55
624.246,1016.9
624.775,1017.8
625.304,1021.15
625.833,1015.1
626.362,1016.9
626.89,1020.4
627.419,1018.65
627.948,1021.2
628.476,1022.3
629.005,1023.55
629.533,1024.15
630.061,1023.3
630.59,1027.8
631.118,1032.25
631.646,1035.4
632.175,1036.55
632.703,1033.35
633.231,1031.1
633.759,1030.4
634.287,1032.0
634.815,1028.9
635.342,1032.7
635.87,1034.85
636.398,1045.75
636.926,1043.9
637.453,1036.6
637.981,1031.6
638.509,1032.4
639.036,1034.95
639.563,1033.65
640.091,1041.2
640.618,1037.2
641.146,1038.5
641.673,1041.45
642.2,1037.15
642.727,1037.45
643.254,1031.15
643.781,1034.9
644.309,1031.05
644.836,1036.15
645.362,1035.3
645.889,1034.8
646.416,1035.65
646.943,1030.1
647.47,1037.9
647.997,1038.2
648.523,1036.85
649.05,1038.25
649.577,1033.6
650.103,1030.1
650.63,1029.85
651.156,1029.65
651.683,1030.9
652.209,1034.15
652.735,1033.0
653.262,1030.85
653.788,1029.3
654.314,1029.25
654.841,1029.9
655.367,1029.75
655.893,1029.35
656.419,1025.95
656.945,1028.2
657.471,1027.55
657.997,1027.85
658.523,1028.45
659.049,1027.25
659.575,1028.85
660.101,1027.55
660.627,1025.9
661.153,1024.5
661.679,1019.25
662.205,1017.05
662.731,1017.45
663.125,1017.1