File: spectra/VLFR_01-LDPE_bio_Raman_d6447f85.csv
nm,Intensity
528.65,1854.45
529.155,1854.6
529.66,1856.1
530.165,1854.55
530.67,1854.15
531.175,1856.2
531.68,1890.95
532.185,3008.9
532.69,1855.25
533.194,1854.95
533.699,1939.95
534.204,2158.2
534.708,2145.1
535.213,2137.65
535.717,2110.9
536.222,2090.6
536.726,2070.85
537.231,2092.45
537.735,2074.05
538.239,2069.2
538.743,2074.45
539.247,2068.85
539.751,2048.7
540.255,2042.5
540.759,2050.45
541.263,2052.75
541.767,2044.0
542.271,2039.25
542.775,2056.2
543.279,2048.95
543.782,2062.1
544.286,2076.7
544.789,2049.4
545.293,2053.05
545.796,2062.4
546.3,2220.5
546.803,2113.9
547.306,2054.2
547.81,2058.7
548.313,2055.9
548.816,2059.85
549.319,2065.0
549.822,2075.5
550.325,2101.2
550.828,2061.9
551.331,2064.8
551.834,2069.15
552.337,2057.35
552.839,2062.55
553.342,2073.95
553.844,2072.7
554.347,2076.1
554.849,2078.35
555.352,2078.2
555.854,2084.75
556.357,2099.5
556.859,2105.8
557.361,2100.05
557.863,2118.65
558.365,2125.8
558.867,2117.05
559.369,2106.2
559.871,2111.3
560.373,2099.8
560.875,2107.45
561.377,2134.8
561.878,2236.6
562.38,3179.1
562.881,2173.1
563.383,2170.25
563.884,2398.7
564.386,2252.2
564.887,2231.65
565.388,2198.2
565.89,2325.15
566.391,2371.5
566.892,2210.3
567.393,2204.35
567.894,2174.75
568.395,2166.75
568.896,2169.1
569.396,2190.55
569.897,2195.85
570.398,2212.4
570.898,2253.6
571.399,2613.6
571.9,2411.0
572.4,2287.15
572.9,2256.4
573.401,2242.7
573.901,2278.5
574.401,2248.0
574.901,2250.8
575.401,2412.6
575.901,2517.9
576.401,2787.25
576.901,2628.9
577.401,2435.8
577.901,2359.9
578.4,2354.3
578.9,2383.8
579.399,2385.95
579.899,2407.8
580.398,2454.35
580.898,2484.05
581.397,2505.85
581.896,2513.4
582.395,2531.45
582.895,2545.75
583.394,2583.75
583.893,2608.75
584.391,2653.45
584.89,2646.35
585.389,2692.45
585.888,2716.7
586.386,2770.25
586.885,2792.95
587.384,2834.2
587.882,2850.35
588.38,2894.4
588.879,2878.4
589.377,2902.3
589.875,2915.65
590.373,2914.4
590.871,2897.15
591.369,2874.2
591.867,2917.9
592.365,2882.85
592.863,2889.85
593.361,2901.55
593.858,2877.0
594.356,2885.15
594.853,2940.3
595.351,2890.4
595.848,2925.95
596.345,2924.15
596.843,2941.65
597.34,2952.15
597.837,2958.45
598.334,2956.7
598.831,2996.65
599.328,2986.75
599.824,2961.15
600.321,2983.65
600.818,2968.0
601.314,2969.9
601.811,2955.95
602.307,2946.9
602.804,2929.55
603.3,2884.45
603.796,2914.95
604.293,2877.25
604.789,2821.8
605.285,2819.95
605.781,2765.55
606.277,2763.55
606.772,2721.85
607.268,2727.0
607.764,2666.25
608.259,2655.55
608.755,2636.3
609.25,2625.5
609.746,2599.3
610.241,2612.7
610.736,2577.05
611.231,2560.5
611.727,2590.55
612.222,2545.3
612.716,2536.8
613.211,2520.75
613.706,2524.75
614.201,2493.15
614.695,2518.6
615.19,2506.95
615.684,2485.5
616.179,2492.55
616.673,2489.0
617.168,2489.5
617.662,2493.3
618.156,2492.85
618.65,2490.95
619.144,2496.8
619.638,2491.5
620.131,2498.9
620.625,2511.2
621.119,2532.0
621.612,2590.85
622.106,2670.7
622.599,2640.6
623.093,2524.6
623.586,2489.3
624.079,2483.95
624.572,2466.05
625.065,2498.3
625.558,2536.1
626.051,2595.25
626.544,2992.2
627.037,5312.6
627.529,5214.25
628.022,4540.25
628.514,5863.85
629.007,4710.3
629.499,4210.15
629.991,3853.9
630.483,3724.8
630.976,3150.6
631.468,2784.6
631.959,2615.5
632.451,2573.0
632.943,2534.45
633.435,2550.9
633.926,2505.7
634.418,2502.5
634.909,2496.25
635.401,2472.9
635.892,2500.9
636.383,2516.6
636.874,2485.2
637.365,2498.0
637.856,2478.95
638.347,2490.6
638.838,2474.0
639.329,2472.25
639.819,2453.5
640.31,2465.3
640.8,2446.85
641.291,2463.7
641.781,2451.5
642.271,2436.35
642.761,2422.7
643.251,2427.4
643.741,2431.3
644.231,2436.5
644.721,2417.3
645.211,2435.05
645.7,2416.05
646.19,2425.4
646.679,2422.3
647.169,2405.2
647.658,2401.9
648.147,2386.2
648.636,2406.0
649.125,2404.4
649.614,2423.75
650.103,2407.05
650.592,2373.95
651.08,2356.8
651.569,2359.8
652.058,2359.4
652.546,2330.45
653.034,2339.75
653.523,2308.3
654.011,2341.3
654.499,2334.15
654.987,2309.1
655.475,2301.65
655.963,2300.4
656.45,2280.6
656.938,2270.45
657.425,2271.0
657.913,2259.7
658.4,2248.4
658.888,2233.0
659.375,2224.8
659.862,2214.7
660.349,2192.15
660.836,2198.55
661.079,2175.1