File: spectra/VLFR_01-LDPE_bio_Raman_a9a08ec7.csv
nm,Intensity
526.508,828.5
527.055,829.9
527.602,829.6
528.149,830.5
528.695,828.5
529.241,829.4
529.787,831.1
530.334,828.4
530.879,830.7
531.425,829.2
531.971,835.1
532.516,829.9
533.062,828.7
533.607,831.4
534.152,939.2
534.697,922.8
535.242,905.5
535.786,889.8
536.331,881.3
536.876,875.0
537.42,871.7
537.964,872.5
538.508,867.7
539.052,868.2
539.596,863.5
540.14,859.8
540.683,860.6
541.227,856.0
541.77,858.1
542.313,857.0
542.856,856.6
543.399,857.1
543.942,854.2
544.485,852.6
545.027,852.2
545.57,852.9
546.112,855.0
546.654,851.2
547.196,854.0
547.738,853.7
548.28,851.0
548.822,851.5
549.363,850.3
549.905,850.2
550.446,851.7
550.988,849.7
551.529,850.8
552.07,852.9
552.611,851.6
553.152,854.5
553.692,856.0
554.233,855.3
554.773,859.4
555.314,857.6
555.854,861.5
556.394,862.4
556.934,865.0
557.474,870.7
558.014,873.6
558.553,873.0
559.093,870.6
559.632,870.0
560.172,866.9
560.711,869.6
561.25,871.2
561.789,870.3
562.328,876.0
562.867,880.7
563.406,885.3
563.944,950.7
564.483,911.2
565.021,898.8
565.559,894.0
566.098,967.4
566.636,902.4
567.174,895.8
567.711,902.4
568.249,893.4
568.787,894.4
569.324,898.0
569.862,897.6
570.399,904.1
570.936,915.3
571.474,1024.5
572.011,960.3
572.548,931.8
573.084,924.1
573.621,931.0
574.158,949.0
574.694,939.5
575.231,954.9
575.767,1010.4
576.303,1148.7
576.84,1088.4
577.376,1061.3
577.912,1032.2
578.447,1042.1
578.983,1061.5
579.519,1072.6
580.054,1093.6
580.59,1115.4
581.125,1145.7
581.661,1148.1
582.196,1177.7
582.731,1194.7
583.266,1218.1
583.801,1234.7
584.336,1244.7
584.87,1263.5
585.405,1280.9
585.94,1291.9
586.474,1321.2
587.008,1347.9
587.543,1365.5
588.077,1390.4
588.611,1410.2
589.145,1425.7
589.679,1457.8
590.213,1476.6
590.747,1508.6
591.28,1531.0
591.814,1545.1
592.347,1561.6
592.881,1565.5
593.414,1569.1
593.947,1582.2
594.48,1577.5
595.014,1607.0
595.547,1612.7
596.079,1621.8
596.612,1635.8
597.145,1636.4
597.678,1671.0
598.21,1695.1
598.743,1703.7
599.275,1714.4
599.807,1725.1
600.34,1734.4
600.872,1720.4
601.404,1711.5
601.936,1710.4
602.468,1688.9
603.0,1657.4
603.532,1648.3
604.063,1616.6
604.595,1586.5
605.126,1557.1
605.658,1507.6
606.189,1484.1
606.721,1452.6
607.252,1433.9
607.783,1407.2
608.314,1390.4
608.845,1372.6
609.376,1354.2
609.907,1339.1
610.438,1319.8
610.968,1302.7
611.499,1300.1
612.03,1286.6
612.56,1279.8
613.091,1277.0
613.621,1269.2
614.151,1255.0
614.681,1239.9
615.212,1229.3
615.742,1225.2
616.272,1217.4
616.802,1208.5
617.332,1207.9
617.861,1196.1
618.391,1195.4
618.921,1180.9
619.45,1177.5
619.98,1173.8
620.509,1165.8
621.039,1166.1
621.568,1180.0
622.097,1209.7
622.627,1201.4
623.156,1170.6
623.685,1153.9
624.214,1158.3
624.743,1148.1
625.272,1153.6
625.801,1169.9
626.33,1197.9
626.858,1492.0
627.387,2088.1
627.916,1728.5
628.444,2016.7
628.973,1786.3
629.501,1644.5
630.029,1525.2
630.558,1479.8
631.086,1322.4
631.614,1222.8
632.142,1191.9
632.67,1174.3
633.198,1167.7
633.726,1172.6
634.254,1170.5
634.782,1169.5
635.31,1168.8
635.838,1175.6
636.365,1180.9
636.893,1185.0
637.421,1185.7
637.948,1181.4
638.476,1192.6
639.003,1191.7
639.531,1193.7
640.058,1202.9
640.585,1210.3
641.113,1215.1
641.64,1221.0
642.167,1222.6
642.694,1230.6
643.221,1227.0
643.748,1228.0
644.275,1231.9
644.802,1239.7
645.329,1240.0
645.856,1235.9
646.382,1241.9
646.909,1245.8
647.436,1238.7
647.962,1237.4
648.489,1243.8
649.016,1242.3
649.542,1235.9
650.069,1230.0
650.595,1226.0
651.121,1234.6
651.648,1228.9
652.174,1240.2
652.7,1238.9
653.227,1230.0
653.753,1233.6
654.279,1222.7
654.805,1224.4
655.331,1219.4
655.857,1221.5
656.383,1207.8
656.909,1201.1
657.435,1198.7
657.961,1179.4
658.487,1173.2
659.013,1171.5
659.538,1166.2
660.064,1152.7
660.59,1139.6
661.116,1127.9
661.641,1109.8
662.167,1102.7
662.692,1094.5
663.087,1089.7