File: spectra/VLFR_08-PLA_nobio_Raman_ab5f37ae.csv
cm-1,Intensity
-123.878,1854.65
-105.821,1856.4
-87.8007,1857.0
-69.8161,1855.4
-51.8675,1855.7
-33.9547,1857.5
-16.0776,1873.55
1.76388,2823.65
19.5698,1858.25
37.3403,1856.8
55.0755,2018.1
72.7754,2441.05
90.4402,2366.7
108.07,2349.6
125.665,2315.3
143.225,2295.35
160.75,2299.8
178.241,2296.5
195.697,2326.45
213.119,2289.9
230.506,2296.05
247.859,2335.0
265.178,2304.25
282.463,2336.1
299.713,2360.45
316.93,2345.3
334.113,2329.2
351.263,2343.9
368.379,2370.15
385.461,2384.7
402.51,2443.95
419.526,2418.25
436.508,2383.8
453.458,2363.65
470.374,2379.6
487.257,2386.35
504.107,2404.5
520.925,2408.75
537.71,2407.95
554.462,2425.65
571.182,2423.35
587.87,2409.1
604.525,2436.9
621.148,2458.6
637.739,2450.65
654.297,2469.75
670.824,2493.4
687.319,2491.45
703.782,2509.55
720.213,2492.95
736.613,2503.55
752.981,2546.4
769.317,2529.4
785.623,2530.95
801.897,2544.3
818.139,2548.05
834.351,2556.15
850.532,2605.65
866.681,2796.55
882.8,2738.4
898.888,2627.8
914.945,2618.95
930.972,2603.0
946.968,2602.6
962.934,2618.6
978.869,2629.6
994.774,2623.45
1010.65,2650.1
1026.49,2676.3
1042.31,2728.95
1058.09,2700.65
1073.85,2705.65
1089.57,2741.05
1105.27,2744.85
1120.93,2810.6
1136.57,2780.0
1152.18,2733.4
1167.75,2725.0
1183.3,2738.7
1198.82,2760.5
1214.31,2762.95
1229.77,2750.45
1245.2,2788.7
1260.6,2787.15
1275.97,2787.0
1291.32,2817.5
1306.63,2871.6
1321.92,2846.55
1337.18,2826.25
1352.41,2857.55
1367.61,2853.25
1382.78,2878.65
1397.93,2846.85
1413.05,2846.9
1428.14,2875.15
1443.2,2971.85
1458.23,2997.3
1473.23,2920.35
1488.21,2877.3
1503.16,2865.55
1518.08,2838.65
1532.97,2881.45
1547.84,2902.0
1562.68,2905.15
1577.49,2922.35
1592.27,2969.35
1607.03,2906.05
1621.76,2936.95
1636.46,2928.6
1651.14,3011.05
1665.78,2933.0
1680.41,2949.15
1695.0,2979.65
1709.57,2968.7
1724.11,2950.45
1738.62,3028.6
1753.11,3085.85
1767.57,3172.15
1782.01,3089.0
1796.41,3029.05
1810.8,3004.05
1825.15,3056.1
1839.48,3010.7
1853.79,3000.55
1868.06,3038.6
1882.31,3048.75
1896.54,3068.2
1910.74,3089.45
1924.91,3053.25
1939.06,3070.4
1953.19,3078.2
1967.28,3085.75
1981.35,3074.8
1995.4,3113.9
2009.42,3092.35
2023.42,3102.85
2037.39,3131.4
2051.33,3172.05
2065.25,3115.6
2079.15,3107.55
2093.01,3149.1
2106.86,3129.6
2120.68,3150.15
2134.47,3162.65
2148.24,3183.2
2161.99,3187.35
2175.71,3194.45
2189.41,3238.9
2203.08,3196.75
2216.73,3194.15
2230.35,3178.85
2243.95,3229.9
2257.52,3204.65
2271.07,3221.25
2284.6,3193.25
2298.1,3186.75
2311.58,3191.4
2325.03,3250.95
2338.46,3265.25
2351.87,3255.8
2365.25,3258.6
2378.61,3217.75
2391.94,3236.9
2405.26,3304.35
2418.54,3260.15
2431.81,3313.15
2445.05,3265.65
2458.27,3266.25
2471.46,3248.2
2484.63,3309.15
2497.78,3303.4
2510.9,3272.9
2524.0,3316.2
2537.08,3290.15
2550.14,3264.65
2563.17,3273.5
2576.18,3331.6
2589.17,3264.25
2602.13,3359.0
2615.07,3313.2
2627.99,3352.65
2640.89,3351.2
2653.76,3410.9
2666.61,3329.15
2679.44,3330.3
2692.25,3405.1
2705.03,3338.2
2717.79,3351.9
2730.53,3408.15
2743.25,3408.95
2755.94,3377.75
2768.61,3362.6
2781.27,3411.6
2793.89,3379.15
2806.5,3338.6
2819.09,3383.1
2831.65,3352.05
2844.19,3348.8
2856.71,3456.75
2869.21,3414.95
2881.69,3483.65
2894.14,3629.9
2906.58,3539.8
2918.99,3562.45
2931.38,3693.5
2943.75,4327.2
2956.1,4021.3
2968.42,3639.2
2980.73,3687.25
2993.01,3800.4
3005.28,3838.85
3017.52,3681.5
3029.74,3579.95
3041.94,3414.05
3054.12,3423.6
3066.28,3351.5
3078.42,3468.6
3090.54,3468.95
3102.63,3454.65
3114.71,3395.85
3126.77,3421.25
3138.8,3361.1
3150.82,3475.05
3162.81,3410.0
3174.78,3447.4
3186.74,3418.9
3198.67,3404.85
3210.58,3393.3
3222.47,3371.65
3234.35,3424.5
3246.2,3314.3
3258.03,3434.1
3269.84,3362.6
3281.64,3452.0
3293.41,3403.8
3305.16,3349.65
3316.89,3335.75
3328.61,3401.0
3340.3,3351.85
3351.97,3349.25
3363.63,3378.5
3375.26,3338.9
3386.88,3375.6
3398.47,3272.25
3410.05,3277.65
3421.6,3300.7
3433.14,3298.95
3444.66,3266.15
3456.15,3334.45
3467.63,3244.5
3479.09,3259.45
3490.53,3263.4
3501.96,3198.5
3513.36,3240.2
3524.74,3282.05
3536.11,3159.2
3547.45,3136.3
3558.78,3191.85
3570.09,3276.45
3581.37,3174.55
3592.64,3219.75
3603.9,3141.65
3615.13,3149.6
3626.34,3080.35
3637.54,3136.65
3648.72,3098.45
3659.87,3094.95
3665.45,2980.75