File: spectra/VLFR_01-LDPE_bio_Raman_a6618530.csv
nm,Intensity
528.626,1868.5
529.132,1867.1
529.637,1866.6
530.143,1868.3
530.648,1867.5
531.153,1869.1
531.658,1897.9
532.164,3357.2
532.669,1868.3
533.174,1868.2
533.679,2012.0
534.184,2541.8
534.689,2515.0
535.194,2433.8
535.699,2345.2
536.203,2272.2
536.708,2234.6
537.213,2212.5
537.717,2203.3
538.222,2179.4
538.726,2173.7
539.231,2155.9
539.735,2160.3
540.239,2151.0
540.744,2159.1
541.248,2153.8
541.752,2161.1
542.256,2161.9
542.76,2155.2
543.264,2151.2
543.768,2156.9
544.272,2152.1
544.776,2157.6
545.28,2141.1
545.784,2152.6
546.287,2149.1
546.791,2167.2
547.294,2175.7
547.798,2171.4
548.301,2176.9
548.805,2158.1
549.308,2158.6
549.811,2159.2
550.315,2165.7
550.818,2164.9
551.321,2171.8
551.824,2176.1
552.327,2179.8
552.83,2176.3
553.333,2187.3
553.835,2196.6
554.338,2205.9
554.841,2202.7
555.343,2210.9
555.846,2215.9
556.349,2217.8
556.851,2245.3
557.353,2262.0
557.856,2276.0
558.358,2274.9
558.86,2260.9
559.362,2262.0
559.864,2279.6
560.366,2257.4
560.868,2271.7
561.37,2280.8
561.872,2306.1
562.374,2297.9
562.876,2318.6
563.377,2330.8
563.879,2490.7
564.38,2409.0
564.882,2372.6
565.383,2339.6
565.885,2447.4
566.386,2409.7
566.887,2321.0
567.388,2325.1
567.889,2307.7
568.391,2322.9
568.892,2338.2
569.392,2333.7
569.893,2374.4
570.394,2376.0
570.895,2405.8
571.395,2633.9
571.896,2521.3
572.397,2444.9
572.897,2417.9
573.397,2411.0
573.898,2414.1
574.398,2395.3
574.898,2398.0
575.398,2498.3
575.898,2648.6
576.398,2854.4
576.898,2732.9
577.398,2572.4
577.898,2517.7
578.398,2501.7
578.897,2522.9
579.397,2519.0
579.896,2570.2
580.396,2575.9
580.895,2605.0
581.395,2629.9
581.894,2651.0
582.393,2688.9
582.892,2698.2
583.391,2718.8
583.89,2768.3
584.389,2795.5
584.888,2794.6
585.387,2796.9
585.886,2817.1
586.384,2838.5
586.883,2851.2
587.381,2887.8
587.88,2935.6
588.378,2978.3
588.876,2963.7
589.375,3012.7
589.873,3034.3
590.371,3054.4
590.869,3094.2
591.367,3151.3
591.865,3142.3
592.363,3151.3
592.86,3192.3
593.358,3201.2
593.856,3212.2
594.353,3246.5
594.851,3302.2
595.348,3336.7
595.845,3405.3
596.342,3442.6
596.84,3475.1
597.337,3591.5
597.834,3591.1
598.331,3691.5
598.828,3761.7
599.324,3793.2
599.821,3817.4
600.318,3790.8
600.814,3842.8
601.311,3860.4
601.807,3834.6
602.304,3776.2
602.8,3756.6
603.296,3729.0
603.792,3687.2
604.288,3644.5
604.784,3575.9
605.28,3486.2
605.776,3479.0
606.272,3435.7
606.767,3357.2
607.263,3339.8
607.759,3259.8
608.254,3219.2
608.749,3166.7
609.245,3173.3
609.74,3149.1
610.235,3137.8
610.73,3083.8
611.225,3082.5
611.72,3016.3
612.215,2988.0
612.71,2990.3
613.204,2982.6
613.699,2957.6
614.194,2931.1
614.688,2910.5
615.182,2884.7
615.677,2879.2
616.171,2862.4
616.665,2878.6
617.159,2827.1
617.653,2839.8
618.147,2842.9
618.641,2829.4
619.135,2819.2
619.628,2834.6
620.122,2807.5
620.615,2792.5
621.109,2805.6
621.602,2844.9
622.095,2912.3
622.589,2849.8
623.082,2774.0
623.575,2756.8
624.068,2736.7
624.561,2749.5
625.053,2772.9
625.546,2715.6
626.039,2817.9
626.531,3022.9
627.024,4357.6
627.516,4501.1
628.008,4191.3
628.501,4903.8
628.993,4325.1
629.485,3958.5
629.977,3816.4
630.469,3771.7
630.96,3324.5
631.452,3013.0
631.944,2917.1
632.435,2845.6
632.927,2785.3
633.418,2740.6
633.91,2718.8
634.401,2715.1
634.892,2704.2
635.383,2671.4
635.874,2677.1
636.365,2663.8
636.856,2662.8
637.346,2674.4
637.837,2665.0
638.327,2675.9
638.818,2686.3
639.308,2661.2
639.799,2669.7
640.289,2673.9
640.779,2671.0
641.269,2670.1
641.759,2660.6
642.249,2688.3
642.738,2671.1
643.228,2681.3
643.718,2706.1
644.207,2702.4
644.697,2736.0
645.186,2696.8
645.675,2702.8
646.164,2702.8
646.653,2683.9
647.142,2710.0
647.631,2713.3
648.12,2699.0
648.609,2678.1
649.098,2678.5
649.586,2685.8
650.075,2675.6
650.563,2675.7
651.051,2670.2
651.539,2676.2
652.027,2654.3
652.515,2635.8
653.003,2644.1
653.491,2646.5
653.979,2653.1
654.467,2639.0
654.954,2637.4
655.442,2604.2
655.929,2629.0
656.416,2615.5
656.904,2562.6
657.391,2581.8
657.878,2539.9
658.365,2524.4
658.851,2498.5
659.338,2498.4
659.825,2472.2
660.311,2474.9
660.798,2440.1
661.041,2451.3