File: spectra/VLFR_08-PLA_bio_Raman_a9279bd1.csv
nm,Intensity
526.495,828.9
527.042,828.4
527.589,829.5
528.136,828.9
528.682,828.8
529.229,827.5
529.775,828.5
530.321,828.3
530.867,828.6
531.413,829.0
531.959,830.5
532.505,830.1
533.051,827.9
533.596,830.9
534.141,1050.8
534.687,996.0
535.232,955.9
535.777,933.1
536.321,926.4
536.866,930.0
537.41,916.4
537.955,912.6
538.499,901.2
539.043,896.4
539.587,895.3
540.131,886.1
540.675,910.9
541.219,909.6
541.762,898.3
542.305,889.2
542.849,894.1
543.392,919.4
543.935,926.4
544.478,906.0
545.02,893.5
545.563,891.4
546.106,885.2
546.648,888.3
547.19,894.6
547.732,886.3
548.274,890.0
548.816,892.5
549.358,893.3
549.9,891.8
550.441,892.7
550.983,891.4
551.524,897.9
552.065,900.4
552.606,907.7
553.147,902.5
553.688,900.3
554.229,912.0
554.769,900.4
555.31,892.2
555.85,892.4
556.391,893.0
556.931,894.2
557.471,916.0
558.011,1046.0
558.551,933.3
559.09,909.5
559.63,906.4
560.169,902.2
560.709,900.2
561.248,893.5
561.787,894.6
562.326,891.7
562.865,907.3
563.404,944.5
563.943,923.1
564.481,909.9
565.02,936.3
565.558,926.9
566.096,960.3
566.634,920.6
567.172,903.8
567.71,912.0
568.248,912.8
568.786,908.7
569.324,913.8
569.861,905.4
570.399,909.4
570.936,910.1
571.473,926.3
572.01,928.3
572.547,919.4
573.084,920.5
573.621,928.3
574.158,922.0
574.694,936.6
575.231,913.9
575.767,915.3
576.303,932.8
576.84,995.9
577.376,936.6
577.912,915.0
578.448,912.5
578.984,912.6
579.519,915.0
580.055,910.4
580.59,913.0
581.126,910.6
581.661,913.1
582.196,910.1
582.731,911.0
583.267,916.4
583.801,910.2
584.336,910.8
584.871,913.8
585.406,911.9
585.94,913.8
586.475,933.0
587.009,966.9
587.543,993.2
588.078,940.6
588.612,915.7
589.146,918.9
589.68,916.2
590.214,910.3
590.747,913.3
591.281,913.9
591.815,912.3
592.348,913.9
592.881,910.7
593.415,907.7
593.948,908.9
594.481,910.1
595.014,910.9
595.547,913.8
596.08,912.5
596.613,911.2
597.146,912.3
597.678,913.5
598.211,914.1
598.743,914.3
599.276,910.3
599.808,914.8
600.34,915.2
600.872,913.5
601.404,910.4
601.936,913.7
602.468,910.5
603.0,913.5
603.532,917.0
604.064,912.9
604.595,907.7
605.127,907.5
605.658,912.5
606.189,909.3
606.721,906.8
607.252,908.5
607.783,910.0
608.314,908.5
608.845,911.1
609.376,906.5
609.907,907.9
610.438,910.8
610.968,906.2
611.499,908.6
612.029,906.0
612.56,909.8
613.09,911.8
613.621,908.5
614.151,909.4
614.681,906.0
615.211,910.0
615.741,911.6
616.271,911.2
616.801,909.4
617.331,915.0
617.861,911.4
618.39,906.7
618.92,908.3
619.45,913.0
619.979,911.0
620.509,908.1
621.038,908.8
621.567,912.4
622.096,909.8
622.626,921.5
623.155,925.8
623.684,921.5
624.213,912.2
624.742,914.5
625.271,908.7
625.799,911.0
626.328,911.1
626.857,911.9
627.386,914.0
627.914,923.2
628.443,1001.1
628.971,984.8
629.5,981.5
630.028,992.5
630.556,1057.8
631.084,1492.8
631.613,1205.2
632.141,1053.0
632.669,1029.3
633.197,1140.5
633.725,1099.0
634.253,990.2
634.781,935.3
635.308,915.1
635.836,908.9
636.364,906.1
636.891,907.3
637.419,903.7
637.947,904.7
638.474,899.7
639.002,902.8
639.529,900.9
640.056,897.9
640.584,903.6
641.111,902.3
641.638,902.6
642.165,902.0
642.692,899.1
643.219,902.4
643.746,897.6
644.273,895.5
644.8,896.9
645.327,894.7
645.854,891.9
646.381,893.7
646.908,891.4
647.434,892.4
647.961,891.7
648.488,890.2
649.014,893.7
649.541,890.3
650.067,890.2
650.594,887.9
651.12,888.9
651.646,888.7
652.173,889.5
652.699,889.9
653.225,888.0
653.752,889.1
654.278,888.3
654.804,887.0
655.33,888.1
655.856,886.1
656.382,890.4
656.908,891.0
657.434,891.8
657.96,885.1
658.486,886.7
659.012,887.3
659.538,886.6
660.064,882.4
660.589,883.6
661.115,885.9
661.641,883.4
662.166,883.6
662.692,883.8
663.086,881.8