File: spectra/VLFR_06-PET_bio_Raman_55c0449b.csv
nm,Intensity
528.635,1840.0
529.14,1840.9
529.645,1841.8
530.151,1843.2
530.656,1844.2
531.161,1846.6
531.666,1893.6
532.171,4046.6
532.676,1851.9
533.181,1864.1
533.686,4715.7
534.191,10998.2
534.696,8840.6
535.201,6424.8
535.705,4738.3
536.21,3617.2
536.715,3169.7
537.219,2997.8
537.724,2910.6
538.228,2938.1
538.733,2922.3
539.237,2966.9
539.741,3195.5
540.246,2960.5
540.75,2679.7
541.254,2555.2
541.758,2563.8
542.262,2557.3
542.766,2578.0
543.27,2564.1
543.774,2641.4
544.278,2572.6
544.781,2569.9
545.285,2585.7
545.789,2607.6
546.292,2630.9
546.796,2611.5
547.299,2636.4
547.803,2660.0
548.306,2671.8
548.809,2687.7
549.313,2673.7
549.816,2677.5
550.319,2956.4
550.822,3535.3
551.325,2779.2
551.828,2774.5
552.331,2773.6
552.834,3432.5
553.337,2838.9
553.839,2846.6
554.342,2862.4
554.845,2896.4
555.347,3256.7
555.85,3574.7
556.352,3709.0
556.854,3801.5
557.357,5199.2
557.859,4474.0
558.361,4044.5
558.863,3597.6
559.365,3246.6
559.867,3145.4
560.369,3088.6
560.871,3187.9
561.373,3257.6
561.875,3325.3
562.377,3457.3
562.878,3591.0
563.38,3547.6
563.881,3378.4
564.383,3464.5
564.884,4013.3
565.386,4686.7
565.887,5045.9
566.388,3967.4
566.889,3534.7
567.391,3876.5
567.892,4118.9
568.393,3585.7
568.893,3559.7
569.394,3619.7
569.895,3935.9
570.396,4589.2
570.897,6068.3
571.397,7229.2
571.898,5420.8
572.398,4281.7
572.899,3893.3
573.399,3832.5
573.899,4067.7
574.399,3992.1
574.9,3996.2
575.4,4444.0
575.9,4002.0
576.4,4415.5
576.899,4362.4
577.399,3989.1
577.899,3895.7
578.399,3945.9
578.898,3876.4
579.398,3999.9
579.897,3977.5
580.397,4114.1
580.896,4391.6
581.396,4730.7
581.895,10809.5
582.394,9523.2
582.893,4450.3
583.392,4237.1
583.891,4293.4
584.39,4365.4
584.889,4533.1
585.387,6238.7
585.886,11233.7
586.385,8594.5
586.883,4959.6
587.382,4572.9
587.88,4384.2
588.379,4337.9
588.877,4368.2
589.375,4296.2
589.873,4338.2
590.371,4274.8
590.869,4326.5
591.367,4274.5
591.865,4329.0
592.363,4301.7
592.86,4351.4
593.358,4374.2
593.856,4349.7
594.353,4404.3
594.851,4344.9
595.348,4432.0
595.845,4444.1
596.342,4468.5
596.84,4506.4
597.337,4488.1
597.834,4401.3
598.331,4477.5
598.827,4456.8
599.324,4436.2
599.821,4474.6
600.318,4464.5
600.814,4485.7
601.311,4481.8
601.807,4513.6
602.303,4535.8
602.8,4517.1
603.296,4518.9
603.792,4506.7
604.288,4526.0
604.784,4575.7
605.28,4488.0
605.776,4471.0
606.272,4547.5
606.767,4601.6
607.263,4585.9
607.758,4559.4
608.254,4567.2
608.749,4564.6
609.244,4551.0
609.74,4542.4
610.235,4654.1
610.73,4580.5
611.225,4521.6
611.72,4638.1
612.215,4638.3
612.709,4579.8
613.204,4638.7
613.699,4639.3
614.193,4630.3
614.688,4664.2
615.182,4654.9
615.676,4657.2
616.171,4671.5
616.665,4695.0
617.159,4731.5
617.653,4818.0
618.147,4825.4
618.641,4794.4
619.134,4833.3
619.628,4729.5
620.122,4771.2
620.615,4763.4
621.109,4810.0
621.602,4879.1
622.095,4777.8
622.588,4928.8
623.082,4864.7
623.575,4835.4
624.068,4920.7
624.56,4963.1
625.053,4974.1
625.546,4993.4
626.039,4960.4
626.531,4958.0
627.024,4999.3
627.516,5032.8
628.008,5122.7
628.501,5232.4
628.993,5504.9
629.485,5436.4
629.977,5402.9
630.469,5465.2
630.961,6025.3
631.452,7150.9
631.944,7398.0
632.436,6643.1
632.927,6264.6
633.418,6145.6
633.91,5873.9
634.401,5799.4
634.892,5621.5
635.383,5788.2
635.874,6442.3
636.365,7768.8
636.856,7146.4
637.347,6029.3
637.837,5782.7
638.328,5783.6
638.818,5602.5
639.309,5601.9
639.799,5648.4
640.289,5577.2
640.78,5544.5
641.27,5627.7
641.76,5624.5
642.249,5686.7
642.739,5654.9
643.229,5583.3
643.719,5661.4
644.208,5724.6
644.698,5579.3
645.187,5600.8
645.676,5669.3
646.165,5750.8
646.655,5647.5
647.144,5659.7
647.633,5695.0
648.121,5772.9
648.61,5577.1
649.099,5779.0
649.587,5546.0
650.076,5559.0
650.564,5736.7
651.053,5591.9
651.541,5398.9
652.029,5457.7
652.517,5469.6
653.005,5447.2
653.493,5278.6
653.981,5303.7
654.468,5464.8
654.956,5518.2
655.444,5236.2
655.931,5316.1
656.418,5194.2
656.906,5218.6
657.393,5195.7
657.88,5124.5
658.367,5084.3
658.854,5159.0
659.341,4985.7
659.827,4922.0
660.314,4980.8
660.8,4923.7
661.044,4860.1