File: spectra/VLFR_08-PLA_bio_Raman_23b24765.csv
nm,Intensity
528.637,1836.1
529.143,1837.3
529.648,1836.8
530.153,1838.7
530.659,1838.5
531.164,1839.8
531.669,1932.9
532.174,5196.4
532.679,1841.9
533.184,1842.3
533.689,2328.9
534.194,3406.9
534.699,3129.2
535.203,2862.5
535.708,2723.9
536.213,2660.7
536.717,2699.3
537.222,2620.5
537.726,2624.7
538.231,2525.0
538.735,2456.7
539.24,2483.3
539.744,2399.0
540.248,2485.5
540.752,2600.9
541.256,2557.9
541.761,2490.8
542.265,2469.4
542.769,2475.7
543.272,2672.6
543.776,2772.3
544.28,2610.9
544.784,2471.2
545.288,2422.9
545.791,2420.9
546.295,2411.2
546.798,2445.7
547.302,2439.2
547.805,2452.0
548.308,2470.2
548.812,2482.4
549.315,2519.0
549.818,2479.0
550.321,2484.2
550.824,2508.5
551.327,2542.9
551.83,2589.0
552.333,2619.1
552.836,2621.5
553.339,2558.6
553.842,2687.5
554.344,2635.0
554.847,2580.5
555.349,2537.6
555.852,2527.3
556.354,2526.3
556.857,2551.5
557.359,2722.2
557.861,3749.1
558.363,3278.2
558.866,2749.3
559.368,2688.5
559.87,2630.6
560.372,2612.9
560.873,2593.4
561.375,2546.6
561.877,2573.1
562.379,2594.7
562.88,2749.6
563.382,3051.0
563.883,2821.4
564.385,2691.1
564.886,2929.8
565.388,2924.6
565.889,3127.6
566.39,3023.9
566.891,2693.0
567.392,2648.6
567.893,2780.2
568.394,2702.5
568.895,2751.2
569.396,2718.4
569.897,2690.1
570.398,2734.7
570.898,2698.6
571.399,2906.1
571.899,2964.1
572.4,2860.0
572.9,2875.9
573.4,2911.4
573.901,2864.6
574.401,2926.2
574.901,2797.0
575.401,2716.5
575.901,2801.5
576.401,3256.3
576.901,3516.0
577.401,2902.3
577.9,2758.5
578.4,2743.3
578.9,2704.2
579.399,2725.1
579.899,2707.2
580.398,2747.0
580.897,2718.6
581.397,2723.9
581.896,2684.5
582.395,2710.7
582.894,2750.6
583.393,2707.3
583.892,2739.5
584.391,2723.9
584.889,2730.0
585.388,2718.8
585.887,2739.0
586.385,2865.9
586.884,3270.3
587.382,3503.0
587.881,3112.8
588.379,2811.5
588.877,2731.4
589.375,2721.5
589.874,2702.1
590.372,2739.7
590.87,2701.7
591.367,2723.2
591.865,2704.4
592.363,2709.2
592.861,2706.7
593.358,2691.3
593.856,2690.1
594.353,2691.9
594.851,2693.2
595.348,2713.4
595.845,2700.4
596.342,2715.1
596.84,2698.1
597.337,2700.8
597.833,2725.1
598.33,2702.2
598.827,2693.3
599.324,2705.0
599.821,2677.9
600.317,2734.4
600.814,2708.6
601.31,2708.1
601.807,2701.8
602.303,2736.1
602.799,2698.3
603.295,2691.7
603.791,2736.9
604.287,2690.9
604.783,2707.0
605.279,2687.7
605.775,2686.7
606.271,2696.3
606.766,2717.2
607.262,2675.6
607.757,2724.2
608.253,2674.3
608.748,2691.9
609.243,2710.2
609.738,2684.2
610.233,2683.2
610.729,2691.9
611.223,2706.5
611.718,2691.7
612.213,2686.6
612.708,2666.3
613.202,2696.5
613.697,2665.7
614.192,2679.7
614.686,2665.7
615.18,2673.5
615.675,2691.3
616.169,2683.5
616.663,2699.9
617.157,2687.1
617.651,2680.4
618.145,2648.6
618.638,2660.8
619.132,2662.8
619.626,2634.8
620.119,2663.8
620.613,2624.9
621.106,2646.3
621.599,2642.1
622.093,2675.8
622.586,2763.6
623.079,2795.4
623.572,2745.6
624.065,2704.4
624.558,2675.0
625.05,2662.1
625.543,2637.7
626.036,2632.8
626.528,2659.0
627.02,2653.0
627.513,2682.3
628.005,2939.3
628.497,3435.6
628.989,3240.5
629.481,3288.8
629.973,3300.5
630.465,4032.5
630.957,7184.5
631.449,5628.3
631.94,4024.2
632.432,3722.0
632.923,4478.2
633.414,4669.0
633.906,3795.2
634.397,2996.1
634.888,2733.9
635.379,2648.8
635.87,2578.3
636.361,2574.1
636.852,2565.0
637.342,2562.2
637.833,2523.8
638.323,2515.2
638.814,2527.9
639.304,2490.7
639.794,2502.2
640.285,2485.7
640.775,2501.3
641.265,2509.7
641.755,2490.0
642.244,2510.2
642.734,2463.9
643.224,2472.8
643.713,2481.1
644.203,2446.4
644.692,2445.9
645.181,2439.6
645.671,2461.1
646.16,2400.2
646.649,2411.2
647.138,2386.4
647.627,2413.2
648.115,2388.3
648.604,2371.5
649.093,2384.2
649.581,2385.0
650.07,2365.9
650.558,2365.8
651.046,2347.1
651.534,2347.9
652.023,2363.0
652.511,2325.2
652.998,2318.6
653.486,2329.8
653.974,2335.2
654.462,2308.5
654.949,2291.2
655.437,2292.0
655.924,2279.6
656.411,2286.9
656.898,2298.7
657.385,2277.8
657.872,2275.6
658.359,2279.2
658.846,2257.7
659.333,2232.7
659.82,2231.9
660.306,2247.8
660.793,2238.6
661.036,2219.0