File: spectra/VLFR_01-LDPE_bio_Raman_5bdce56f.csv
nm,Intensity
526.495,829.64
527.042,829.64
527.589,828.82
528.136,829.34
528.682,829.46
529.229,828.48
529.775,829.18
530.321,829.04
530.867,828.68
531.413,829.46
531.959,831.32
532.505,829.6
533.051,829.2
533.596,829.6
534.141,876.1
534.687,869.34
535.232,861.36
535.777,853.8
536.321,850.18
536.866,848.58
537.41,847.52
537.955,848.42
538.499,848.18
539.043,848.16
539.587,844.64
540.131,842.92
540.675,842.9
541.219,841.88
541.762,842.0
542.305,842.62
542.849,842.16
543.392,842.1
543.935,841.2
544.478,841.02
545.02,840.24
545.563,841.22
546.106,840.02
546.648,840.82
547.19,839.92
547.732,840.18
548.274,840.16
548.816,840.2
549.358,839.92
549.9,840.22
550.441,840.38
550.983,840.58
551.524,840.6
552.065,840.38
552.606,841.44
553.147,841.6
553.688,842.94
554.229,843.46
554.769,842.64
555.31,843.24
555.85,844.34
556.391,845.96
556.931,847.18
557.471,848.24
558.011,848.62
558.551,849.76
559.09,848.38
559.63,848.68
560.169,848.4
560.709,848.62
561.248,849.0
561.787,850.98
562.326,851.76
562.865,853.12
563.404,857.08
563.943,886.94
564.481,867.94
565.02,867.06
565.558,863.64
566.096,893.78
566.634,865.72
567.172,865.28
567.71,866.0
568.248,863.1
568.786,866.02
569.324,868.86
569.861,870.44
570.399,873.74
570.936,879.96
571.473,931.88
572.01,900.2
572.547,888.72
573.084,887.26
573.621,888.18
574.158,893.92
574.694,893.8
575.231,897.34
575.767,922.66
576.303,982.8
576.84,956.8
577.376,939.74
577.912,925.38
578.448,925.88
578.984,931.86
579.519,936.78
580.055,943.0
580.59,948.0
581.126,954.7
581.661,959.66
582.196,966.86
582.731,976.22
583.267,983.84
583.801,993.38
584.336,999.88
584.871,1004.66
585.406,1015.52
585.94,1024.88
586.475,1035.9
587.009,1046.54
587.543,1054.02
588.078,1062.38
588.612,1071.94
589.146,1079.5
589.68,1086.04
590.214,1095.02
590.747,1102.98
591.281,1107.64
591.815,1107.98
592.348,1110.22
592.881,1112.6
593.415,1113.46
593.948,1113.32
594.481,1115.56
595.014,1116.02
595.547,1121.98
596.08,1125.98
596.613,1130.98
597.146,1137.3
597.678,1145.38
598.211,1154.06
598.743,1159.94
599.276,1166.44
599.808,1168.46
600.34,1169.42
600.872,1164.0
601.404,1162.8
601.936,1159.98
602.468,1155.2
603.0,1148.7
603.532,1140.68
604.064,1129.72
604.595,1116.8
605.127,1100.92
605.658,1087.42
606.189,1077.84
606.721,1069.44
607.252,1059.5
607.783,1053.24
608.314,1046.16
608.845,1040.92
609.376,1032.8
609.907,1027.06
610.438,1023.5
610.968,1016.46
611.499,1014.08
612.029,1009.26
612.56,1008.46
613.09,1005.1
613.621,1002.76
614.151,1000.66
614.681,994.44
615.211,990.78
615.741,987.02
616.271,984.84
616.801,983.24
617.331,984.78
617.861,982.54
618.39,981.4
618.92,978.34
619.45,975.58
619.979,975.56
620.509,973.08
621.038,975.34
621.567,980.88
622.096,992.3
622.626,994.2
623.155,973.6
623.684,969.92
624.213,965.58
624.742,966.24
625.271,968.48
625.799,973.58
626.328,988.98
626.857,1140.6
627.386,1429.38
627.914,1244.16
628.443,1386.98
628.971,1270.56
629.5,1203.6
630.028,1139.62
630.556,1118.9
631.084,1042.88
631.613,997.14
632.141,978.66
632.669,971.76
633.197,965.78
633.725,966.54
634.253,964.14
634.781,966.38
635.308,966.68
635.836,967.28
636.364,968.34
636.891,969.68
637.419,970.2
637.947,970.42
638.474,971.56
639.002,974.54
639.529,976.04
640.056,977.54
640.584,979.16
641.111,981.86
641.638,981.72
642.165,983.18
642.692,985.08
643.219,983.52
643.746,984.6
644.273,984.84
644.8,984.76
645.327,985.32
645.854,985.64
646.381,985.84
646.908,983.64
647.434,986.52
647.961,986.88
648.488,986.36
649.014,984.04
649.541,980.88
650.067,983.34
650.594,982.24
651.12,984.18
651.646,983.62
652.173,985.2
652.699,982.0
653.225,984.36
653.752,984.32
654.278,983.18
654.804,982.6
655.33,980.04
655.856,981.1
656.382,978.3
656.908,977.0
657.434,974.06
657.96,970.52
658.486,969.36
659.012,962.74
659.538,963.36
660.064,959.14
660.589,953.72
661.115,947.16
661.641,941.52
662.166,939.38
662.692,936.06
663.086,932.14