File: spectra/VLFR_02-HDPE_bio_Raman_5c41bfe2.csv
nm,Intensity
528.629,1853.25
529.134,1853.35
529.639,1852.8
530.145,1853.75
530.65,1853.25
531.155,1854.35
531.66,1879.8
532.165,2862.6
532.67,1853.85
533.175,1852.55
533.68,1860.25
534.185,1874.05
534.69,1874.25
535.195,1878.9
535.699,1875.85
536.204,1873.5
536.709,1876.65
537.213,1876.9
537.718,1879.05
538.222,1881.35
538.727,1880.7
539.231,1877.75
539.735,1880.2
540.239,1884.2
540.744,1881.4
541.248,1881.3
541.752,1883.35
542.256,1885.35
542.76,1884.3
543.264,1882.25
543.768,1887.35
544.271,1884.95
544.775,1885.55
545.279,1886.35
545.783,1885.65
546.286,1887.95
546.79,1890.5
547.293,1887.6
547.797,1889.4
548.3,1892.85
548.803,1890.0
549.306,1891.55
549.81,1891.35
550.313,1895.45
550.816,1892.6
551.319,1890.7
551.822,1896.15
552.325,1898.45
552.828,1895.6
553.33,1895.55
553.833,1898.3
554.336,1897.25
554.838,1899.6
555.341,1902.75
555.843,1902.95
556.346,1899.8
556.848,1903.6
557.35,1903.75
557.853,1904.1
558.355,1904.25
558.857,1902.65
559.359,1904.55
559.861,1910.3
560.363,1902.85
560.865,1908.95
561.367,1909.35
561.869,1910.7
562.37,1909.45
562.872,1914.0
563.374,1907.55
563.875,1914.5
564.376,1905.65
564.878,1912.45
565.379,1909.3
565.881,1915.3
566.382,1921.1
566.883,1914.1
567.384,1913.1
567.885,1914.3
568.386,1917.55
568.887,1918.85
569.388,1917.7
569.888,1918.0
570.389,1917.4
570.89,1916.65
571.39,1929.6
571.891,1928.15
572.391,1916.85
572.892,1922.3
573.392,1919.95
573.892,1919.5
574.393,1922.3
574.893,1923.3
575.393,1931.0
575.893,1932.1
576.393,1929.6
576.893,1927.65
577.392,1924.4
577.892,1930.35
578.392,1921.55
578.891,1921.7
579.391,1926.8
579.89,1926.05
580.39,1930.75
580.889,1933.0
581.388,1931.65
581.888,1927.25
582.387,1931.85
582.886,1932.4
583.385,1929.35
583.884,1929.75
584.383,1928.65
584.881,1931.4
585.38,1926.55
585.879,1928.1
586.377,1933.95
586.876,1931.3
587.374,1936.7
587.873,1931.05
588.371,1929.45
588.869,1934.3
589.368,1930.95
589.866,1938.35
590.364,1938.3
590.862,1930.5
591.36,1936.9
591.857,1932.5
592.355,1943.45
592.853,1933.05
593.35,1937.05
593.848,1935.65
594.345,1937.7
594.843,1935.35
595.34,1941.3
595.837,1941.0
596.335,1941.85
596.832,1937.0
597.329,1939.65
597.826,1944.45
598.323,1939.4
598.819,1942.15
599.316,1940.75
599.813,1941.9
600.309,1942.7
600.806,1950.0
601.302,1938.95
601.799,1945.3
602.295,1946.0
602.791,1942.75
603.288,1940.8
603.784,1939.85
604.28,1942.65
604.776,1944.55
605.272,1941.3
605.767,1941.95
606.263,1938.7
606.759,1943.8
607.254,1942.5
607.75,1943.0
608.245,1941.9
608.74,1944.45
609.236,1944.7
609.731,1934.2
610.226,1944.9
610.721,1944.05
611.216,1944.25
611.711,1950.0
612.206,1941.8
612.7,1939.05
613.195,1940.65
613.69,1943.2
614.184,1936.2
614.679,1944.8
615.173,1939.3
615.667,1942.0
616.161,1943.05
616.656,1941.2
617.15,1944.05
617.644,1943.45
618.137,1938.65
618.631,1944.05
619.125,1943.45
619.619,1948.6
620.112,1942.4
620.606,1941.8
621.099,1939.35
621.592,1945.45
622.086,1943.9
622.579,1939.5
623.072,1943.35
623.565,1940.85
624.058,1943.4
624.551,1938.4
625.043,1930.55
625.536,1933.55
626.029,1939.0
626.521,1945.85
627.014,1983.1
627.506,1967.65
627.998,1959.05
628.49,1978.2
628.983,1956.9
629.475,1962.7
629.966,1946.6
630.458,1950.5
630.95,1938.3
631.442,1938.95
631.933,1935.35
632.425,1938.9
632.916,1938.6
633.408,1935.15
633.899,1931.05
634.39,1930.05
634.881,1939.8
635.372,1938.05
635.863,1926.15
636.354,1930.25
636.845,1932.05
637.336,1930.65
637.826,1924.85
638.317,1924.45
638.807,1929.2
639.298,1929.75
639.788,1929.6
640.278,1927.45
640.768,1923.9
641.258,1924.3
641.748,1922.8
642.238,1924.85
642.728,1924.65
643.217,1922.7
643.707,1925.1
644.197,1923.55
644.686,1929.9
645.175,1918.7
645.664,1919.5
646.154,1916.1
646.643,1916.35
647.132,1920.05
647.621,1924.4
648.109,1917.9
648.598,1918.4
649.087,1916.4
649.575,1924.5
650.064,1912.7
650.552,1918.0
651.04,1919.7
651.528,1915.0
652.017,1916.8
652.505,1916.15
652.992,1915.1
653.48,1917.2
653.968,1910.85
654.456,1911.8
654.943,1910.95
655.431,1911.7
655.918,1914.1
656.405,1914.9
656.893,1905.3
657.38,1910.75
657.867,1908.85
658.354,1906.95
658.84,1905.3
659.327,1903.9
659.814,1902.35
660.3,1903.25
660.787,1900.4
661.03,1903.85