File: spectra/VLFR_06-PET_bio_Raman_cd2211c6.csv
nm,Intensity
528.637,1839.1
529.143,1838.6
529.648,1839.6
530.153,1839.6
530.659,1841.4
531.164,1844.4
531.669,1903.6
532.174,4840.5
532.679,1850.2
533.184,1868.1
533.689,5676.1
534.194,12543.9
534.699,9968.8
535.203,7048.6
535.708,5015.9
536.213,3783.2
536.717,3328.7
537.222,3087.4
537.726,2975.1
538.231,3021.2
538.735,2974.3
539.24,3038.9
539.744,3319.5
540.248,3036.1
540.752,2721.7
541.256,2624.7
541.761,2592.9
542.265,2588.5
542.769,2607.5
543.272,2587.3
543.776,2692.4
544.28,2611.8
544.784,2610.6
545.288,2632.8
545.791,2662.5
546.295,2649.6
546.798,2702.3
547.302,2713.2
547.805,2693.6
548.308,2735.4
548.812,2725.2
549.315,2695.6
549.818,2746.7
550.321,3069.5
550.824,3613.7
551.327,2855.3
551.83,2873.4
552.333,2932.2
552.836,3633.0
553.339,2933.6
553.842,2973.9
554.344,2975.6
554.847,3020.8
555.349,3425.0
555.852,3790.3
556.354,3970.9
556.857,4068.0
557.359,5770.0
557.861,4666.3
558.363,4314.4
558.866,3888.0
559.368,3362.1
559.87,3330.9
560.372,3309.9
560.873,3356.4
561.375,3475.6
561.877,3567.1
562.379,3625.6
562.88,3895.1
563.382,3763.1
563.883,3642.5
564.385,3730.0
564.886,4310.5
565.388,5043.0
565.889,5496.8
566.39,4276.7
566.891,3803.7
567.392,4294.3
567.893,4462.6
568.394,3834.3
568.895,3835.3
569.396,3975.6
569.897,4315.7
570.398,5204.1
570.898,6864.9
571.399,7926.0
571.899,5978.4
572.4,4746.0
572.9,4206.0
573.4,4113.6
573.901,4419.9
574.401,4268.6
574.901,4361.5
575.401,4825.1
575.901,4513.1
576.401,4907.2
576.901,4779.4
577.401,4433.7
577.9,4263.0
578.4,4275.5
578.9,4304.6
579.399,4389.2
579.899,4457.2
580.398,4500.0
580.897,4784.6
581.397,5237.5
581.896,12784.2
582.395,10465.5
582.894,4971.2
583.393,4591.7
583.892,4621.5
584.391,4862.4
584.889,5002.6
585.388,7129.7
585.887,13045.2
586.385,9677.8
586.884,5490.7
587.382,4909.2
587.881,4940.2
588.379,4802.2
588.877,4843.9
589.375,4756.2
589.874,4749.3
590.372,4771.4
590.87,4639.9
591.367,4677.4
591.865,4716.3
592.363,4728.7
592.861,4729.4
593.358,4819.2
593.856,4829.5
594.353,4885.2
594.851,4770.1
595.348,4842.1
595.845,4892.1
596.342,4886.1
596.84,4893.2
597.337,4933.2
597.833,4946.7
598.33,4916.2
598.827,4877.1
599.324,4869.3
599.821,4936.7
600.317,5002.3
600.814,4967.6
601.31,4964.5
601.807,5008.5
602.303,5013.8
602.799,5041.4
603.295,5050.2
603.791,5059.8
604.287,5055.5
604.783,5043.6
605.279,5121.0
605.775,5012.0
606.271,5077.6
606.766,5116.4
607.262,5003.7
607.757,5164.8
608.253,5113.6
608.748,5079.2
609.243,5117.3
609.738,5125.7
610.233,5075.0
610.729,5127.4
611.223,5077.3
611.718,5120.5
612.213,5198.2
612.708,5090.2
613.202,5120.3
613.697,5201.6
614.192,5277.4
614.686,5327.9
615.18,5246.2
615.675,5333.2
616.169,5298.2
616.663,5326.7
617.157,5334.3
617.651,5498.9
618.145,5390.6
618.638,5434.0
619.132,5457.0
619.626,5339.7
620.119,5319.7
620.613,5358.0
621.106,5287.3
621.599,5417.4
622.093,5480.0
622.586,5373.8
623.079,5532.2
623.572,5371.2
624.065,5692.6
624.558,5604.2
625.05,5752.1
625.543,5635.4
626.036,5547.5
626.528,5628.3
627.02,5570.6
627.513,5775.7
628.005,5890.4
628.497,6106.5
628.989,6303.7
629.481,6318.6
629.973,6235.2
630.465,6145.1
630.957,6867.8
631.449,8178.6
631.94,8448.5
632.432,7472.9
632.923,7166.7
633.414,7160.9
633.906,6855.5
634.397,6467.0
634.888,6457.1
635.379,6706.5
635.87,7500.7
636.361,9182.6
636.852,8330.3
637.342,6815.6
637.833,6641.6
638.323,6599.3
638.814,6436.5
639.304,6622.4
639.794,6439.2
640.285,6414.4
640.775,6507.1
641.265,6431.3
641.755,6502.5
642.244,6801.9
642.734,6484.1
643.224,6440.3
643.713,6570.8
644.203,6593.8
644.692,6533.0
645.181,6483.4
645.671,6574.6
646.16,6366.8
646.649,6475.4
647.138,6571.0
647.627,6654.7
648.115,6500.7
648.604,6352.5
649.093,6360.6
649.581,6415.8
650.07,6320.8
650.558,6362.0
651.046,6431.7
651.534,6285.8
652.023,6418.4
652.511,6192.3
652.998,6244.3
653.486,6058.2
653.974,6178.2
654.462,6135.7
654.949,6145.6
655.437,6144.3
655.924,6012.6
656.411,5983.3
656.898,5962.3
657.385,6006.4
657.872,5861.5
658.359,5890.8
658.846,5819.3
659.333,5670.6
659.82,5600.7
660.306,5737.9
660.793,5687.0
661.036,5618.5