File: spectra/VLFR_02-HDPE_nobio_Raman_877c6ecd.csv
nm,Intensity
526.5,830.1
527.047,830.0
527.594,828.6
528.14,828.7
528.687,827.7
529.233,829.3
529.779,829.2
530.325,828.1
530.871,830.1
531.417,828.8
531.962,831.6
532.508,829.6
533.053,828.3
533.599,827.9
534.144,883.7
534.689,874.9
535.234,865.8
535.778,855.6
536.323,852.8
536.867,849.5
537.412,849.9
537.956,847.8
538.5,847.8
539.044,845.7
539.588,843.8
540.132,841.8
540.675,842.8
541.219,841.4
541.762,839.9
542.305,841.3
542.848,839.6
543.391,840.1
543.934,839.5
544.477,839.7
545.02,839.4
545.562,840.5
546.105,839.0
546.647,838.6
547.189,838.9
547.731,838.8
548.273,837.5
548.815,838.4
549.356,840.5
549.898,840.5
550.439,838.2
550.981,839.2
551.522,839.4
552.063,838.5
552.604,838.4
553.145,839.9
553.686,841.9
554.226,841.2
554.767,841.6
555.307,842.8
555.848,844.8
556.388,843.2
556.928,845.1
557.468,846.2
558.008,848.4
558.547,849.7
559.087,847.0
559.626,845.4
560.166,848.2
560.705,846.2
561.244,846.7
561.783,847.8
562.322,848.7
562.861,852.5
563.4,854.8
563.939,934.6
564.477,872.6
565.015,864.4
565.554,862.6
566.092,1016.1
566.63,865.7
567.168,852.9
567.706,850.8
568.244,850.6
568.781,851.7
569.319,850.7
569.857,850.9
570.394,856.5
570.931,860.9
571.468,987.9
572.005,876.9
572.542,853.9
573.079,849.8
573.616,851.3
574.153,859.1
574.689,849.4
575.226,859.2
575.762,944.8
576.298,937.2
576.834,906.5
577.371,881.5
577.907,857.0
578.442,850.5
578.978,849.4
579.514,846.8
580.049,847.1
580.585,845.9
581.12,848.8
581.656,847.6
582.191,848.5
582.726,849.9
583.261,849.0
583.796,851.3
584.331,851.2
584.865,849.2
585.4,849.5
585.935,852.1
586.469,851.8
587.004,851.5
587.538,851.3
588.072,851.1
588.606,851.4
589.14,851.1
589.674,851.6
590.208,851.0
590.742,853.1
591.275,854.3
591.809,853.7
592.342,855.1
592.876,855.6
593.409,858.0
593.942,855.5
594.476,856.8
595.009,857.4
595.542,858.7
596.075,862.2
596.607,859.5
597.14,861.9
597.673,862.0
598.205,863.9
598.738,864.2
599.27,864.1
599.803,868.1
600.335,867.5
600.867,864.2
601.399,865.6
601.931,864.9
602.463,866.7
602.995,864.8
603.527,864.4
604.058,863.4
604.59,862.2
605.122,861.7
605.653,863.4
606.184,860.4
606.716,862.9
607.247,859.4
607.778,862.6
608.309,860.2
608.84,858.9
609.371,861.0
609.902,861.2
610.433,862.7
610.964,866.5
611.494,864.1
612.025,861.1
612.556,861.7
613.086,856.1
613.616,858.1
614.147,857.4
614.677,859.2
615.207,858.4
615.737,859.6
616.267,859.3
616.797,860.0
617.327,860.6
617.857,865.0
618.387,860.8
618.917,862.8
619.446,863.8
619.976,866.3
620.505,864.9
621.035,867.4
621.564,872.7
622.093,882.4
622.623,881.4
623.152,868.3
623.681,864.1
624.21,864.6
624.739,865.2
625.268,868.0
625.797,873.4
626.326,887.8
626.855,1034.3
627.383,1376.5
627.912,1158.0
628.441,1234.2
628.969,1208.0
629.498,1140.1
630.026,1060.9
630.554,1042.7
631.083,944.0
631.611,888.1
632.139,874.2
632.667,867.6
633.195,864.0
633.724,860.5
634.252,859.0
634.779,856.1
635.307,856.2
635.835,853.7
636.363,855.3
636.891,854.1
637.418,852.8
637.946,851.0
638.474,853.8
639.001,851.2
639.529,848.3
640.056,852.3
640.583,849.8
641.111,849.0
641.638,850.5
642.165,852.3
642.692,850.1
643.22,850.1
643.747,851.5
644.274,850.4
644.801,849.7
645.328,850.5
645.854,850.6
646.381,853.0
646.908,851.4
647.435,848.8
647.962,850.4
648.488,851.2
649.015,849.7
649.542,851.2
650.068,849.2
650.595,849.3
651.121,850.5
651.648,850.5
652.174,850.8
652.7,851.3
653.227,851.0
653.753,849.9
654.279,849.8
654.805,852.0
655.331,852.4
655.858,848.0
656.384,848.6
656.91,849.2
657.436,849.5
657.962,846.2
658.488,849.3
659.013,847.7
659.539,848.9
660.065,849.8
660.591,848.6
661.117,847.8
661.642,846.0
662.168,846.4
662.694,846.4
663.088,846.8