File: spectra/VLFR_02-HDPE_nobio_Raman_480d23c3.csv
nm,Intensity
526.5,828.3
527.047,828.5
527.594,829.8
528.14,828.6
528.687,828.7
529.233,829.1
529.779,829.9
530.325,827.8
530.871,828.1
531.417,829.2
531.962,834.7
532.508,829.6
533.053,829.0
533.599,829.7
534.144,855.4
534.689,854.2
535.234,854.2
535.778,851.8
536.323,849.3
536.867,847.1
537.412,849.8
537.956,854.2
538.5,853.2
539.044,851.8
539.588,851.6
540.132,852.2
540.675,852.0
541.219,850.8
541.762,849.3
542.305,851.4
542.848,850.2
543.391,848.8
543.934,850.1
544.477,851.6
545.02,851.8
545.562,851.0
546.105,848.5
546.647,849.9
547.189,847.7
547.731,852.9
548.273,851.0
548.815,852.2
549.356,854.0
549.898,850.9
550.439,850.1
550.981,852.7
551.522,851.8
552.063,854.4
552.604,853.3
553.145,853.5
553.686,852.2
554.226,854.5
554.767,855.5
555.307,853.6
555.848,855.2
556.388,854.8
556.928,850.8
557.468,853.0
558.008,855.6
558.547,854.1
559.087,855.1
559.626,855.6
560.166,855.1
560.705,853.5
561.244,856.0
561.783,855.5
562.322,857.2
562.861,857.2
563.4,857.9
563.939,867.8
564.477,860.2
565.015,860.3
565.554,860.5
566.092,871.4
566.63,861.1
567.168,859.7
567.706,862.7
568.244,859.3
568.781,859.3
569.319,859.6
569.857,861.1
570.394,865.0
570.931,864.4
571.468,877.3
572.005,868.6
572.542,863.7
573.079,868.2
573.616,867.7
574.153,869.5
574.689,864.4
575.226,865.1
575.762,872.7
576.298,882.7
576.834,874.9
577.371,870.4
577.907,868.6
578.442,868.6
578.978,871.2
579.514,869.9
580.049,870.9
580.585,872.7
581.12,871.3
581.656,870.9
582.191,871.7
582.726,870.4
583.261,867.8
583.796,871.2
584.331,867.3
584.865,871.3
585.4,869.0
585.935,869.6
586.469,867.4
587.004,869.3
587.538,872.6
588.072,873.4
588.606,871.8
589.14,873.5
589.674,872.0
590.208,874.1
590.742,876.2
591.275,874.5
591.809,874.9
592.342,873.8
592.876,876.0
593.409,873.8
593.942,874.5
594.476,873.7
595.009,877.0
595.542,875.6
596.075,876.7
596.607,876.2
597.14,877.0
597.673,880.4
598.205,876.6
598.738,877.6
599.27,876.1
599.803,879.5
600.335,879.4
600.867,881.1
601.399,879.1
601.931,881.3
602.463,880.5
602.995,880.3
603.527,879.0
604.058,878.1
604.59,879.3
605.122,878.0
605.653,880.9
606.184,879.0
606.716,878.6
607.247,875.5
607.778,873.8
608.309,874.9
608.84,876.2
609.371,876.9
609.902,875.7
610.433,876.6
610.964,875.9
611.494,877.0
612.025,878.0
612.556,878.9
613.086,875.6
613.616,879.9
614.147,880.5
614.677,878.3
615.207,877.6
615.737,878.1
616.267,878.0
616.797,879.0
617.327,879.8
617.857,882.7
618.387,880.6
618.917,879.5
619.446,878.4
619.976,881.0
620.505,880.9
621.035,880.3
621.564,883.5
622.093,891.4
622.623,885.8
623.152,884.1
623.681,880.9
624.21,882.4
624.739,881.4
625.268,881.5
625.797,881.5
626.326,887.2
626.855,927.4
627.383,984.3
627.912,942.4
628.441,967.9
628.969,945.8
629.498,927.9
630.026,918.0
630.554,913.2
631.083,895.1
631.611,883.1
632.139,883.6
632.667,884.6
633.195,882.4
633.724,885.0
634.252,881.4
634.779,880.7
635.307,880.8
635.835,878.3
636.363,879.9
636.891,880.2
637.418,879.7
637.946,878.7
638.474,879.6
639.001,879.0
639.529,879.3
640.056,880.1
640.583,878.0
641.111,880.3
641.638,877.9
642.165,880.6
642.692,879.6
643.22,878.3
643.747,878.3
644.274,877.6
644.801,877.0
645.328,875.9
645.854,878.3
646.381,879.4
646.908,880.3
647.435,877.3
647.962,877.5
648.488,880.3
649.015,876.4
649.542,879.5
650.068,877.4
650.595,874.9
651.121,878.5
651.648,875.4
652.174,877.5
652.7,879.1
653.227,878.2
653.753,879.0
654.279,876.7
654.805,874.9
655.331,877.4
655.858,879.3
656.384,877.1
656.91,878.6
657.436,880.2
657.962,876.7
658.488,880.1
659.013,878.5
659.539,875.6
660.065,881.5
660.591,878.5
661.117,876.8
661.642,878.6
662.168,874.6
662.694,876.2
663.088,875.0