File: spectra/VLFR_08-PLA_bio_Raman_ce1097ca.csv
nm,Intensity
528.626,1864.7
529.132,1866.6
529.637,1867.2
530.143,1866.3
530.648,1866.6
531.153,1868.6
531.658,1898.0
532.164,5296.7
532.669,1869.9
533.174,1870.1
533.679,2016.4
534.184,2691.2
534.689,2611.3
535.194,2583.0
535.699,2529.4
536.203,2447.1
536.708,2466.5
537.213,2406.3
537.717,2438.9
538.222,2434.5
538.726,2397.7
539.231,2415.5
539.735,2403.0
540.239,2403.6
540.744,2469.5
541.248,2462.5
541.752,2441.1
542.256,2441.9
542.76,2466.6
543.264,2535.9
543.768,2608.4
544.272,2547.8
544.776,2507.7
545.28,2475.7
545.784,2495.2
546.287,2506.8
546.791,2505.5
547.294,2536.7
547.798,2547.2
548.301,2548.4
548.805,2553.1
549.308,2532.9
549.811,2549.0
550.315,2565.3
550.818,2589.5
551.321,2614.3
551.824,2619.5
552.327,2630.2
552.83,2611.8
553.333,2635.8
553.835,2645.6
554.338,2639.4
554.841,2641.7
555.343,2623.5
555.846,2597.9
556.349,2608.7
556.851,2629.8
557.353,2663.8
557.856,2914.2
558.358,2900.6
558.86,2693.4
559.362,2694.9
559.864,2680.2
560.366,2674.0
560.868,2688.3
561.37,2662.3
561.872,2674.8
562.374,2693.2
562.876,2713.1
563.377,2795.5
563.879,2729.0
564.38,2721.2
564.882,2744.9
565.383,2761.7
565.885,2815.9
566.386,2819.2
566.887,2702.0
567.388,2682.3
567.889,2716.7
568.391,2705.3
568.892,2736.8
569.392,2738.3
569.893,2755.7
570.394,2744.4
570.895,2739.9
571.395,2829.3
571.896,2812.2
572.397,2781.4
572.897,2737.1
573.397,2750.8
573.898,2769.3
574.398,2770.5
574.898,2744.1
575.398,2724.0
575.898,2788.6
576.398,2901.2
576.898,2991.8
577.398,2805.9
577.898,2702.8
578.398,2661.3
578.897,2679.9
579.397,2736.3
579.896,2723.7
580.396,2689.0
580.895,2691.7
581.395,2698.1
581.894,2857.2
582.393,2702.7
582.892,2698.2
583.391,2669.4
583.89,2706.4
584.389,2687.9
584.888,2661.5
585.387,2658.5
585.886,2662.8
586.384,2685.0
586.883,2756.1
587.381,2864.5
587.88,2781.0
588.378,2670.8
588.876,2650.9
589.375,2657.8
589.873,2648.4
590.371,2665.1
590.869,2654.8
591.367,2638.9
591.865,2658.1
592.363,2655.4
592.86,2654.7
593.358,2638.2
593.856,2629.8
594.353,2648.9
594.851,2640.9
595.348,2630.7
595.845,2652.9
596.342,2672.8
596.84,2658.9
597.337,2667.2
597.834,2666.6
598.331,2650.2
598.828,2653.5
599.324,2673.5
599.821,2671.1
600.318,2671.4
600.814,2653.3
601.311,2669.6
601.807,2675.7
602.304,2651.4
602.8,2663.0
603.296,2664.8
603.792,2640.5
604.288,2659.5
604.784,2680.0
605.28,2677.0
605.776,2661.5
606.272,2666.6
606.767,2663.9
607.263,2681.0
607.759,2650.6
608.254,2646.8
608.749,2665.2
609.245,2659.8
609.74,2651.5
610.235,2646.0
610.73,2655.1
611.225,2650.3
611.72,2677.6
612.215,2640.8
612.71,2634.9
613.204,2672.4
613.699,2645.9
614.194,2628.1
614.688,2625.6
615.182,2625.1
615.677,2614.9
616.171,2613.0
616.665,2612.6
617.159,2640.6
617.653,2618.6
618.147,2610.9
618.641,2600.1
619.135,2613.7
619.628,2604.3
620.122,2601.0
620.615,2597.1
621.109,2591.6
621.602,2593.6
622.095,2601.9
622.589,2612.1
623.082,2602.9
623.575,2588.5
624.068,2585.7
624.561,2582.6
625.053,2582.3
625.546,2537.4
626.039,2566.4
626.531,2567.5
627.024,2573.8
627.516,2626.9
628.008,2677.0
628.501,2835.5
628.993,2772.0
629.485,2797.4
629.977,2790.0
630.469,2937.3
630.96,3799.2
631.452,3569.2
631.944,3039.2
632.435,2840.1
632.927,2926.7
633.418,3083.7
633.91,2875.8
634.401,2643.1
634.892,2514.1
635.383,2491.0
635.874,2470.9
636.365,2472.8
636.856,2469.7
637.346,2467.8
637.837,2438.1
638.327,2468.5
638.818,2447.5
639.308,2438.9
639.799,2452.1
640.289,2442.9
640.779,2412.1
641.269,2419.9
641.759,2433.2
642.249,2426.4
642.738,2426.1
643.228,2401.5
643.718,2418.2
644.207,2420.1
644.697,2401.2
645.186,2388.3
645.675,2399.0
646.164,2390.7
646.653,2395.9
647.142,2366.5
647.631,2353.1
648.12,2363.5
648.609,2343.3
649.098,2345.3
649.586,2339.9
650.075,2347.4
650.563,2334.9
651.051,2328.0
651.539,2309.7
652.027,2320.4
652.515,2294.0
653.003,2304.8
653.491,2284.0
653.979,2284.3
654.467,2273.0
654.954,2286.0
655.442,2289.8
655.929,2270.0
656.416,2267.7
656.904,2263.1
657.391,2256.2
657.878,2252.2
658.365,2243.7
658.851,2234.2
659.338,2238.9
659.825,2209.7
660.311,2227.0
660.798,2215.0
661.041,2218.6