File: spectra/VLFR_08-PLA_bio_Raman_8070ea4d.csv
nm,Intensity
528.626,1860.3
529.132,1862.2
529.637,1862.9
530.143,1863.7
530.648,1863.1
531.153,1863.9
531.658,1911.9
532.164,4986.1
532.669,1865.8
533.174,1865.9
533.679,2104.2
534.184,2761.1
534.689,2624.5
535.194,2528.6
535.699,2445.6
536.203,2413.4
536.708,2439.7
537.213,2387.8
537.717,2402.6
538.222,2353.2
538.726,2360.4
539.231,2353.1
539.735,2311.9
540.239,2352.3
540.744,2395.1
541.248,2403.8
541.752,2365.3
542.256,2369.7
542.76,2379.2
543.264,2454.4
543.768,2507.2
544.272,2443.8
544.776,2368.3
545.28,2356.2
545.784,2384.0
546.287,2352.1
546.791,2367.9
547.294,2366.2
547.798,2373.3
548.301,2404.7
548.805,2391.1
549.308,2392.0
549.811,2388.7
550.315,2413.1
550.818,2432.8
551.321,2450.5
551.824,2449.5
552.327,2484.9
552.83,2477.0
553.333,2458.1
553.835,2485.1
554.338,2497.9
554.841,2473.7
555.343,2438.6
555.846,2462.2
556.349,2455.4
556.851,2455.5
557.353,2551.0
557.856,3023.4
558.358,2850.7
558.86,2580.7
559.362,2550.7
559.864,2520.1
560.366,2522.7
560.868,2503.6
561.37,2492.9
561.872,2519.0
562.374,2519.2
562.876,2575.4
563.377,2714.7
563.879,2609.3
564.38,2538.8
564.882,2670.3
565.383,2678.2
565.885,2773.6
566.386,2723.6
566.887,2546.7
567.388,2562.0
567.889,2606.8
568.391,2574.1
568.892,2592.5
569.392,2592.2
569.893,2568.2
570.394,2563.2
570.895,2582.8
571.395,2687.2
571.896,2733.2
572.397,2656.0
572.897,2663.2
573.397,2687.2
573.898,2642.0
574.398,2673.2
574.898,2627.7
575.398,2592.7
575.898,2615.4
576.398,2828.2
576.898,2991.1
577.398,2707.8
577.898,2616.4
578.398,2592.4
578.897,2580.7
579.397,2598.6
579.896,2594.4
580.396,2605.4
580.895,2595.6
581.395,2606.6
581.894,2589.0
582.393,2612.2
582.892,2592.6
583.391,2607.7
583.89,2599.5
584.389,2593.7
584.888,2600.6
585.387,2608.9
585.886,2614.9
586.384,2651.0
586.883,2810.8
587.381,2961.2
587.88,2820.9
588.378,2603.1
588.876,2586.5
589.375,2580.2
589.873,2579.4
590.371,2598.9
590.869,2586.1
591.367,2579.5
591.865,2568.4
592.363,2608.5
592.86,2573.3
593.358,2583.1
593.856,2538.9
594.353,2586.2
594.851,2582.8
595.348,2576.5
595.845,2588.5
596.342,2607.3
596.84,2594.2
597.337,2592.1
597.834,2567.8
598.331,2602.0
598.828,2572.3
599.324,2591.3
599.821,2579.4
600.318,2567.8
600.814,2582.4
601.311,2572.8
601.807,2570.1
602.304,2595.9
602.8,2578.2
603.296,2550.1
603.792,2558.7
604.288,2543.5
604.784,2583.6
605.28,2542.2
605.776,2542.8
606.272,2546.6
606.767,2547.4
607.263,2574.4
607.759,2546.3
608.254,2562.3
608.749,2540.9
609.245,2555.1
609.74,2562.8
610.235,2554.5
610.73,2578.8
611.225,2561.7
611.72,2541.3
612.215,2538.5
612.71,2551.7
613.204,2533.7
613.699,2517.4
614.194,2564.2
614.688,2533.5
615.182,2536.6
615.677,2524.5
616.171,2522.1
616.665,2530.4
617.159,2542.6
617.653,2516.2
618.147,2524.0
618.641,2512.7
619.135,2523.2
619.628,2531.8
620.122,2521.5
620.615,2524.4
621.109,2504.7
621.602,2499.1
622.095,2501.0
622.589,2555.2
623.082,2573.8
623.575,2557.7
624.068,2520.1
624.561,2510.1
625.053,2490.1
625.546,2501.9
626.039,2511.1
626.531,2512.6
627.024,2501.3
627.516,2506.9
628.008,2622.7
628.501,2841.4
628.993,2734.6
629.485,2776.8
629.977,2790.4
630.469,3072.7
630.96,4441.8
631.452,3832.0
631.944,3119.5
632.435,2961.2
632.927,3229.9
633.418,3379.0
633.91,3002.2
634.401,2663.2
634.892,2513.5
635.383,2471.5
635.874,2453.4
636.365,2424.2
636.856,2420.8
637.346,2435.9
637.837,2418.0
638.327,2414.0
638.818,2414.2
639.308,2406.3
639.799,2396.4
640.289,2388.0
640.779,2392.1
641.269,2394.4
641.759,2390.1
642.249,2396.7
642.738,2377.5
643.228,2392.8
643.718,2360.4
644.207,2366.6
644.697,2343.3
645.186,2335.2
645.675,2368.5
646.164,2342.8
646.653,2335.0
647.142,2319.2
647.631,2297.1
648.12,2287.5
648.609,2307.2
649.098,2310.3
649.586,2301.5
650.075,2297.0
650.563,2310.2
651.051,2285.5
651.539,2295.3
652.027,2270.5
652.515,2264.6
653.003,2268.1
653.491,2264.7
653.979,2252.4
654.467,2243.4
654.954,2247.5
655.442,2246.7
655.929,2226.5
656.416,2225.2
656.904,2208.1
657.391,2226.3
657.878,2216.1
658.365,2198.5
658.851,2222.2
659.338,2195.4
659.825,2175.9
660.311,2182.9
660.798,2171.9
661.041,2169.3