File: spectra/VLFR_01-LDPE_nobio_Raman_9eee28dd.csv
nm,Intensity
526.5,828.5
527.047,829.0
527.594,828.9
528.14,829.1
528.687,829.6
529.233,829.1
529.779,828.2
530.325,829.4
530.871,828.2
531.417,829.0
531.962,832.4
532.508,829.0
533.053,829.1
533.599,831.4
534.144,885.3
534.689,877.6
535.234,868.3
535.778,857.4
536.323,851.3
536.867,854.9
537.412,850.4
537.956,849.9
538.5,847.2
539.044,845.8
539.588,844.1
540.132,843.9
540.675,841.6
541.219,843.3
541.762,844.3
542.305,842.7
542.848,843.0
543.391,844.2
543.934,842.1
544.477,842.7
545.02,840.4
545.562,839.9
546.105,841.3
546.647,840.5
547.189,841.5
547.731,840.3
548.273,841.2
548.815,841.9
549.356,841.1
549.898,840.4
550.439,841.3
550.981,840.0
551.522,839.7
552.063,840.4
552.604,841.3
553.145,842.9
553.686,843.0
554.226,843.5
554.767,845.1
555.307,842.0
555.848,845.3
556.388,848.0
556.928,846.9
557.468,851.0
558.008,852.2
558.547,850.9
559.087,849.8
559.626,848.3
560.166,852.1
560.705,849.9
561.244,849.8
561.783,851.8
562.322,854.0
562.861,855.5
563.4,857.8
563.939,898.3
564.477,872.0
565.015,867.3
565.554,866.0
566.092,901.3
566.63,868.4
567.168,862.5
567.706,868.8
568.244,865.1
568.781,865.9
569.319,868.1
569.857,870.5
570.394,875.3
570.931,884.5
571.468,946.9
572.005,908.7
572.542,895.0
573.079,895.0
573.616,901.6
574.153,909.3
574.689,908.7
575.226,923.1
575.762,950.6
576.298,1030.8
576.834,1004.4
577.371,998.5
577.907,982.1
578.442,992.8
578.978,1009.8
579.514,1022.7
580.049,1039.8
580.585,1062.3
581.12,1076.1
581.656,1092.1
582.191,1111.5
582.726,1126.5
583.261,1142.7
583.796,1165.2
584.331,1175.6
584.865,1185.4
585.4,1204.3
585.935,1217.8
586.469,1252.0
587.004,1268.0
587.538,1286.5
588.072,1312.5
588.606,1328.4
589.14,1352.6
589.674,1371.6
590.208,1393.9
590.742,1404.4
591.275,1427.6
591.809,1443.2
592.342,1455.1
592.876,1461.3
593.409,1472.0
593.942,1478.1
594.476,1488.5
595.009,1498.1
595.542,1510.1
596.075,1520.3
596.607,1542.8
597.14,1559.0
597.673,1573.3
598.205,1594.8
598.738,1625.7
599.27,1636.9
599.803,1656.3
600.335,1648.7
600.867,1650.9
601.399,1650.0
601.931,1648.2
602.463,1627.8
602.995,1609.6
603.527,1599.7
604.058,1557.0
604.59,1518.2
605.122,1497.7
605.653,1469.1
606.184,1430.1
606.716,1402.9
607.247,1379.8
607.778,1364.5
608.309,1340.9
608.84,1320.9
609.371,1312.8
609.902,1285.5
610.433,1271.2
610.964,1267.3
611.494,1252.7
612.025,1241.8
612.556,1239.1
613.086,1229.6
613.616,1220.0
614.147,1206.6
614.677,1194.7
615.207,1184.4
615.737,1178.5
616.267,1163.1
616.797,1164.4
617.327,1162.8
617.857,1153.9
618.387,1148.0
618.917,1140.6
619.446,1139.5
619.976,1131.7
620.505,1131.9
621.035,1130.4
621.564,1128.8
622.093,1142.8
622.623,1148.9
623.152,1117.9
623.681,1113.5
624.21,1106.2
624.739,1112.2
625.268,1114.2
625.797,1118.1
626.326,1132.7
626.855,1311.8
627.383,1641.8
627.912,1433.6
628.441,1606.9
628.969,1468.2
629.498,1391.8
630.026,1313.4
630.554,1299.8
631.083,1194.6
631.611,1147.3
632.139,1137.9
632.667,1132.0
633.195,1118.7
633.724,1127.8
634.252,1135.3
634.779,1126.1
635.307,1132.5
635.835,1140.2
636.363,1134.0
636.891,1153.1
637.418,1143.2
637.946,1154.1
638.474,1153.8
639.001,1156.2
639.529,1162.4
640.056,1161.9
640.583,1175.5
641.111,1178.7
641.638,1179.3
642.165,1185.1
642.692,1188.6
643.22,1193.3
643.747,1187.3
644.274,1190.3
644.801,1195.1
645.328,1194.4
645.854,1197.4
646.381,1202.6
646.908,1206.1
647.435,1197.6
647.962,1201.1
648.488,1196.5
649.015,1195.2
649.542,1199.0
650.068,1197.5
650.595,1198.6
651.121,1201.4
651.648,1199.1
652.174,1200.9
652.7,1203.7
653.227,1212.4
653.753,1206.0
654.279,1204.9
654.805,1202.0
655.331,1205.7
655.858,1193.6
656.384,1185.8
656.91,1191.8
657.436,1179.4
657.962,1169.2
658.488,1170.4
659.013,1154.8
659.539,1146.2
660.065,1138.3
660.591,1121.4
661.117,1108.6
661.642,1099.3
662.168,1088.8
662.694,1083.5
663.088,1078.6