File: spectra/VLFR_08-PLA_nobio_Raman_e16d71bf.csv
nm,Intensity
526.532,833.3
527.079,834.1
527.625,833.45
528.172,833.55
528.718,832.8
529.265,833.4
529.811,832.8
530.357,833.6
530.903,833.05
531.449,834.1
531.994,844.05
532.54,833.7
533.085,833.5
533.63,836.55
534.176,964.0
534.721,941.7
535.266,931.1
535.81,928.15
536.355,924.05
536.9,926.1
537.444,923.3
537.988,925.25
538.533,920.55
539.077,922.6
539.621,920.85
540.165,921.05
540.708,928.5
541.252,928.35
541.795,925.25
542.339,928.0
542.882,927.65
543.425,937.85
543.968,943.25
544.511,933.25
545.054,931.55
545.597,929.75
546.139,932.8
546.682,935.3
547.224,933.2
547.766,935.65
548.308,936.05
548.85,939.5
549.392,938.5
549.934,942.1
550.475,945.0
551.017,946.45
551.558,943.75
552.1,949.9
552.641,949.3
553.182,949.9
553.723,949.25
554.264,950.35
554.804,951.0
555.345,946.55
555.885,948.1
556.426,949.85
556.966,952.55
557.506,956.7
558.046,1015.15
558.586,960.2
559.126,956.4
559.665,956.0
560.205,956.7
560.745,953.4
561.284,955.45
561.823,958.45
562.362,956.9
562.901,966.8
563.44,979.45
563.979,968.1
564.518,966.7
565.056,979.05
565.595,976.05
566.133,990.85
566.671,972.25
567.21,966.65
567.748,970.15
568.285,971.5
568.823,974.55
569.361,971.7
569.899,973.55
570.436,972.6
570.974,975.1
571.511,980.85
572.048,981.15
572.585,982.3
573.122,986.3
573.659,986.7
574.196,984.75
574.733,988.35
575.269,982.55
575.806,980.85
576.342,989.05
576.878,1014.95
577.414,990.2
577.951,988.85
578.486,981.9
579.022,985.25
579.558,986.8
580.094,985.55
580.629,985.3
581.165,981.55
581.7,984.7
582.236,986.1
582.771,984.85
583.306,985.1
583.841,987.7
584.376,988.45
584.911,989.55
585.445,988.9
585.98,991.65
586.514,999.2
587.049,1011.6
587.583,1021.1
588.117,997.95
588.651,989.65
589.186,988.3
589.72,987.7
590.253,987.55
590.787,988.8
591.321,988.55
591.854,988.95
592.388,988.55
592.921,990.55
593.455,987.7
593.988,985.7
594.521,981.95
595.054,986.55
595.587,986.55
596.12,987.65
596.653,988.0
597.186,988.2
597.718,988.4
598.251,990.55
598.783,987.65
599.316,990.95
599.848,990.7
600.38,987.6
600.912,986.05
601.444,987.3
601.976,982.25
602.508,983.7
603.04,986.7
603.572,985.6
604.103,983.55
604.635,979.3
605.167,983.2
605.698,979.45
606.229,979.85
606.761,978.0
607.292,982.6
607.823,980.05
608.354,983.1
608.885,982.5
609.416,981.1
609.947,977.55
610.477,977.65
611.008,976.0
611.539,976.35
612.069,979.75
612.6,977.5
613.13,979.0
613.66,980.85
614.19,977.3
614.721,981.2
615.251,977.1
615.781,982.75
616.311,976.95
616.841,976.65
617.37,980.75
617.9,977.15
618.43,977.9
618.96,971.9
619.489,975.2
620.019,973.0
620.548,976.8
621.077,976.5
621.607,973.45
622.136,975.55
622.665,976.95
623.194,981.7
623.723,980.0
624.252,972.7
624.781,972.4
625.31,974.8
625.839,970.7
626.368,972.1
626.896,973.0
627.425,974.75
627.953,976.55
628.482,1012.9
629.01,1002.1
629.539,1003.25
630.067,1005.15
630.596,1038.75
631.124,1238.35
631.652,1094.9
632.18,1033.5
632.708,1028.4
633.236,1068.85
633.764,1049.1
634.292,997.85
634.82,975.6
635.348,967.25
635.876,963.25
636.403,963.9
636.931,963.15
637.459,959.65
637.986,959.75
638.514,960.85
639.041,962.25
639.568,958.85
640.096,958.1
640.623,957.5
641.15,959.7
641.678,956.55
642.205,960.8
642.732,954.9
643.259,952.9
643.786,951.0
644.313,951.75
644.84,947.4
645.367,947.6
645.894,947.4
646.421,945.95
646.948,945.85
647.474,944.35
648.001,950.2
648.528,941.5
649.054,942.75
649.581,944.05
650.108,942.0
650.634,942.15
651.161,938.55
651.687,938.7
652.214,940.4
652.74,938.55
653.266,937.55
653.793,937.65
654.319,938.45
654.845,936.1
655.371,935.35
655.897,937.05
656.424,935.9
656.95,938.05
657.476,935.2
658.002,938.05
658.528,932.45
659.054,931.9
659.58,930.8
660.106,934.45
660.631,932.05
661.157,930.5
661.683,930.85
662.209,926.1
662.735,930.0
663.129,927.0