File: spectra/VLFR_01-LDPE_nobio_Raman_59dc1f12.csv
nm,Intensity
526.486,829.4
527.033,829.8
527.579,829.9
528.126,830.7
528.672,829.9
529.219,831.0
529.765,830.2
530.311,830.0
530.857,829.1
531.403,829.0
531.948,830.4
532.494,829.0
533.039,830.8
533.585,830.2
534.13,917.8
534.675,904.5
535.22,891.0
535.764,877.9
536.309,873.6
536.854,870.3
537.398,866.7
537.942,868.1
538.486,863.3
539.03,863.2
539.574,860.8
540.118,860.2
540.662,858.6
541.205,857.9
541.749,857.4
542.292,856.2
542.835,855.3
543.378,854.6
543.921,859.7
544.464,854.4
545.006,852.1
545.549,853.6
546.091,852.8
546.634,854.0
547.176,851.3
547.718,853.1
548.26,852.3
548.802,850.6
549.343,850.1
549.885,849.7
550.426,851.3
550.968,850.3
551.509,853.4
552.05,851.6
552.591,852.4
553.132,852.3
553.673,851.6
554.214,853.6
554.754,853.7
555.295,854.7
555.835,855.0
556.375,857.3
556.915,859.4
557.455,861.4
557.995,860.6
558.535,864.5
559.075,860.6
559.614,858.7
560.154,858.7
560.693,860.3
561.232,860.4
561.772,857.8
562.311,859.7
562.85,864.9
563.388,864.9
563.927,911.8
564.466,884.2
565.004,881.8
565.543,871.5
566.081,915.5
566.619,874.6
567.157,869.1
567.695,872.4
568.233,864.8
568.771,865.7
569.309,867.2
569.846,867.2
570.384,871.1
570.921,877.9
571.458,943.9
571.995,902.7
572.532,881.2
573.069,873.5
573.606,877.3
574.143,879.7
574.68,871.0
575.216,876.9
575.753,910.6
576.289,1000.8
576.825,958.6
577.361,924.6
577.897,885.4
578.433,881.2
578.969,885.8
579.505,883.4
580.041,887.1
580.576,884.8
581.112,888.8
581.647,891.3
582.183,894.8
582.718,896.7
583.253,898.4
583.788,900.4
584.323,903.5
584.858,906.7
585.392,908.4
585.927,917.1
586.462,923.0
586.996,927.5
587.53,929.6
588.065,936.2
588.599,942.3
589.133,948.1
589.667,952.0
590.201,960.0
590.735,969.0
591.268,972.2
591.802,981.3
592.335,981.1
592.869,990.7
593.402,996.8
593.936,1007.8
594.469,1012.3
595.002,1028.2
595.535,1044.1
596.068,1051.8
596.601,1073.5
597.133,1077.3
597.666,1097.7
598.199,1117.2
598.731,1130.2
599.264,1143.7
599.796,1148.4
600.328,1149.2
600.86,1158.7
601.393,1154.4
601.925,1154.2
602.457,1152.2
602.988,1141.0
603.52,1142.2
604.052,1130.8
604.583,1109.6
605.115,1099.4
605.646,1080.9
606.178,1069.7
606.709,1061.7
607.24,1048.8
607.771,1047.0
608.302,1031.7
608.833,1031.0
609.364,1020.3
609.895,1015.7
610.426,1013.9
610.957,1009.2
611.487,1002.4
612.018,999.4
612.548,997.1
613.078,995.9
613.609,990.0
614.139,983.6
614.669,983.6
615.199,977.3
615.729,982.1
616.259,974.4
616.789,974.3
617.319,976.0
617.849,970.7
618.378,969.9
618.908,967.7
619.437,969.0
619.967,968.5
620.496,964.7
621.025,964.5
621.555,978.1
622.084,998.6
622.613,997.7
623.142,963.6
623.671,958.3
624.2,955.9
624.729,952.1
625.258,950.6
625.786,956.7
626.315,985.6
626.844,1198.1
627.372,1711.7
627.901,1400.2
628.429,1566.8
628.957,1430.1
629.486,1329.1
630.014,1224.3
630.542,1193.8
631.07,1066.2
631.598,975.3
632.126,954.0
632.654,938.5
633.182,933.4
633.71,930.2
634.237,926.8
634.765,919.9
635.293,923.0
635.82,921.7
636.348,920.7
636.875,922.5
637.403,924.5
637.93,920.5
638.458,922.5
638.985,923.9
639.512,922.6
640.039,927.2
640.566,927.9
641.093,930.7
641.62,933.8
642.147,935.7
642.674,937.8
643.201,935.1
643.728,938.2
644.255,938.9
644.781,940.1
645.308,937.7
645.835,945.0
646.361,945.3
646.888,949.8
647.414,948.0
647.941,949.6
648.467,954.1
648.993,957.9
649.52,957.9
650.046,960.6
650.572,959.7
651.098,961.6
651.625,963.9
652.151,963.5
652.677,970.2
653.203,972.1
653.729,972.5
654.255,975.4
654.78,976.6
655.306,973.1
655.832,974.1
656.358,968.3
656.884,968.8
657.409,964.6
657.935,964.0
658.461,957.6
658.986,956.5
659.512,956.6
660.037,951.0
660.563,948.5
661.088,942.1
661.614,936.6
662.139,926.1
662.664,928.6
663.058,921.5