File: spectra/VLFR_02-HDPE_bio_Raman_b32f3c52.csv
nm,Intensity
528.626,1863.3
529.132,1863.1
529.637,1863.1
530.143,1864.2
530.648,1865.8
531.153,1865.8
531.658,1892.0
532.164,3650.2
532.669,1865.6
533.174,1874.0
533.679,2901.1
534.184,6442.0
534.689,5195.6
535.194,4378.9
535.699,4093.0
536.203,4452.4
536.708,2950.1
537.213,2779.8
537.717,2699.1
538.222,2636.6
538.726,2619.8
539.231,2635.7
539.735,2812.4
540.239,2965.1
540.744,2620.3
541.248,2562.5
541.752,2529.2
542.256,2539.0
542.76,2545.6
543.264,2566.7
543.768,2627.2
544.272,2556.6
544.776,2535.7
545.28,2524.7
545.784,2545.5
546.287,2568.5
546.791,2585.0
547.294,2602.1
547.798,2580.3
548.301,2593.5
548.805,2657.8
549.308,2583.6
549.811,2580.7
550.315,2769.5
550.818,3295.2
551.321,2679.5
551.824,2639.4
552.327,2635.5
552.83,2969.7
553.333,2612.1
553.835,2613.8
554.338,2642.6
554.841,2665.3
555.343,2785.4
555.846,2944.0
556.349,2942.5
556.851,2979.3
557.353,3992.8
557.856,3858.2
558.358,3007.0
558.86,2851.2
559.362,2771.1
559.864,2744.1
560.366,2745.3
560.868,2785.9
561.37,2906.7
561.872,3361.7
562.374,3123.8
562.876,2930.1
563.377,2921.0
563.879,2948.4
564.38,3030.6
564.882,3898.4
565.383,3831.1
565.885,3811.2
566.386,3258.6
566.887,2984.4
567.388,3070.0
567.889,3416.3
568.391,3122.2
568.892,3000.6
569.392,3054.0
569.893,3154.6
570.394,3528.4
570.895,5012.0
571.395,6558.9
571.896,4356.3
572.397,3576.1
572.897,3203.2
573.397,3184.0
573.898,3231.7
574.398,3179.5
574.898,3297.4
575.398,3858.5
575.898,3452.4
576.398,3495.7
576.898,3654.7
577.398,3408.5
577.898,3267.6
578.398,3259.4
578.897,3267.3
579.397,3261.0
579.896,3312.1
580.396,3398.8
580.895,3576.0
581.395,3924.5
581.894,9470.8
582.393,9490.7
582.892,3803.5
583.391,3546.4
583.89,3463.0
584.389,3597.0
584.888,3630.7
585.387,4416.1
585.886,8978.6
586.384,6528.2
586.883,4098.8
587.381,3726.8
587.88,3624.2
588.378,3564.3
588.876,3543.7
589.375,3572.4
589.873,3606.9
590.371,3593.4
590.869,3582.7
591.367,3617.6
591.865,3635.3
592.363,3611.3
592.86,3638.2
593.358,3681.0
593.856,3688.7
594.353,3699.1
594.851,3735.1
595.348,3786.2
595.845,3795.9
596.342,3802.5
596.84,3803.8
597.337,3860.9
597.834,3852.8
598.331,3900.5
598.828,3937.0
599.324,3928.2
599.821,3966.3
600.318,3958.3
600.814,3982.1
601.311,3944.5
601.807,3985.0
602.304,4014.3
602.8,4058.5
603.296,3996.2
603.792,4017.7
604.288,4022.4
604.784,4067.9
605.28,4067.1
605.776,4066.1
606.272,4088.0
606.767,4073.5
607.263,4148.1
607.759,4113.6
608.254,4156.9
608.749,4162.5
609.245,4157.2
609.74,4214.9
610.235,4157.8
610.73,4208.1
611.225,4259.9
611.72,4287.0
612.215,4251.8
612.71,4302.2
613.204,4396.9
613.699,4411.8
614.194,4494.8
614.688,4444.7
615.182,4550.3
615.677,4634.2
616.171,4658.1
616.665,4589.3
617.159,4760.8
617.653,4744.9
618.147,4814.5
618.641,4853.3
619.135,4860.0
619.628,4857.4
620.122,4852.4
620.615,4990.3
621.109,4914.5
621.602,4964.3
622.095,5045.6
622.589,5053.0
623.082,5014.4
623.575,5054.3
624.068,5128.1
624.561,5139.2
625.053,5160.4
625.546,5121.3
626.039,5210.8
626.531,5273.8
627.024,5590.2
627.516,5563.5
628.008,5537.8
628.501,5807.1
628.993,5664.3
629.485,5722.8
629.977,5555.7
630.469,5465.1
630.96,5634.9
631.452,5856.1
631.944,6164.3
632.435,5789.0
632.927,5677.5
633.418,5609.5
633.91,5345.0
634.401,5170.7
634.892,5125.9
635.383,5237.4
635.874,5488.2
636.365,6277.7
636.856,5776.8
637.346,5130.9
637.837,4947.6
638.327,4935.8
638.818,4811.3
639.308,4879.1
639.799,4723.2
640.289,4687.6
640.779,4695.1
641.269,4656.0
641.759,4567.8
642.249,4667.0
642.738,4543.1
643.228,4592.3
643.718,4409.0
644.207,4446.5
644.697,4310.7
645.186,4390.3
645.675,4347.3
646.164,4330.8
646.653,4311.9
647.142,4205.1
647.631,4165.2
648.12,4130.2
648.609,4118.2
649.098,4101.3
649.586,4006.5
650.075,3996.9
650.563,3975.2
651.051,3939.5
651.539,3844.7
652.027,3825.3
652.515,3801.5
653.003,3783.6
653.491,3758.2
653.979,3672.7
654.467,3662.5
654.954,3677.0
655.442,3602.9
655.929,3630.0
656.416,3527.0
656.904,3537.1
657.391,3525.7
657.878,3484.7
658.365,3417.9
658.851,3458.2
659.338,3352.8
659.825,3327.8
660.311,3300.1
660.798,3273.0
661.041,3335.5