File: spectra/VLFR_01-LDPE_bio_Raman_a94ccc1d.csv
nm,Intensity
526.508,829.4
527.055,830.6
527.602,830.1
528.149,829.5
528.695,830.5
529.241,826.9
529.787,829.5
530.334,829.0
530.879,829.5
531.425,829.1
531.971,838.6
532.516,831.7
533.062,829.0
533.607,830.4
534.152,853.8
534.697,850.9
535.242,847.3
535.786,844.3
536.331,843.7
536.876,843.7
537.42,845.0
537.964,842.4
538.508,843.1
539.052,844.2
539.596,845.1
540.14,842.2
540.683,843.8
541.227,840.9
541.77,843.2
542.313,842.3
542.856,843.2
543.399,842.4
543.942,842.4
544.485,842.1
545.027,841.7
545.57,841.0
546.112,842.8
546.654,841.2
547.196,841.3
547.738,843.5
548.28,842.5
548.822,841.3
549.363,842.6
549.905,843.8
550.446,842.4
550.988,844.2
551.529,843.6
552.07,843.0
552.611,843.8
553.152,843.6
553.692,843.7
554.233,844.1
554.773,843.8
555.314,843.3
555.854,845.0
556.394,845.2
556.934,845.1
557.474,846.1
558.014,846.4
558.553,847.5
559.093,845.4
559.632,848.0
560.172,845.9
560.711,847.0
561.25,847.8
561.789,847.0
562.328,846.9
562.867,848.1
563.406,849.9
563.944,857.9
564.483,851.4
565.021,853.7
565.559,851.1
566.098,860.7
566.636,851.2
567.174,849.6
567.711,850.8
568.249,850.3
568.787,853.8
569.324,851.4
569.862,852.4
570.399,853.6
570.936,853.2
571.474,868.4
572.011,859.6
572.548,858.2
573.084,855.2
573.621,854.5
574.158,855.8
574.694,856.1
575.231,857.0
575.767,864.8
576.303,879.3
576.84,873.1
577.376,869.7
577.912,867.3
578.447,863.9
578.983,866.7
579.519,868.7
580.054,871.3
580.59,871.3
581.125,871.9
581.661,874.9
582.196,880.4
582.731,882.6
583.266,887.5
583.801,887.0
584.336,891.4
584.87,893.3
585.405,900.0
585.94,899.8
586.474,910.3
587.008,912.6
587.543,916.5
588.077,920.6
588.611,929.0
589.145,931.6
589.679,931.3
590.213,935.9
590.747,941.2
591.28,942.1
591.814,945.6
592.347,950.8
592.881,947.0
593.414,952.9
593.947,955.9
594.48,958.5
595.014,966.4
595.547,963.7
596.079,977.1
596.612,980.8
597.145,981.9
597.678,988.1
598.21,999.1
598.743,1006.0
599.275,1011.9
599.807,1019.5
600.34,1015.2
600.872,1017.1
601.404,1019.2
601.936,1019.7
602.468,1010.6
603.0,1003.9
603.532,1003.4
604.063,1002.0
604.595,989.0
605.126,981.0
605.658,974.9
606.189,967.2
606.721,959.4
607.252,955.3
607.783,951.6
608.314,945.9
608.845,939.8
609.376,943.7
609.907,937.3
610.438,931.0
610.968,932.1
611.499,931.9
612.03,928.1
612.56,924.4
613.091,922.0
613.621,925.1
614.151,918.7
614.681,919.2
615.212,915.5
615.742,911.4
616.272,911.4
616.802,909.9
617.332,908.8
617.861,913.0
618.391,910.2
618.921,907.5
619.45,904.1
619.98,906.7
620.509,906.3
621.039,904.1
621.568,904.0
622.097,909.2
622.627,904.8
623.156,900.9
623.685,900.3
624.214,897.0
624.743,897.8
625.272,899.2
625.801,899.3
626.33,906.9
626.858,945.0
627.387,1039.5
627.916,979.7
628.444,1025.2
628.973,989.8
629.501,970.6
630.029,942.6
630.558,941.9
631.086,913.6
631.614,903.9
632.142,901.3
632.67,896.1
633.198,895.8
633.726,896.2
634.254,896.4
634.782,896.5
635.31,897.1
635.838,897.5
636.365,900.0
636.893,897.8
637.421,902.2
637.948,903.8
638.476,901.6
639.003,900.9
639.531,907.0
640.058,906.1
640.585,903.4
641.113,909.6
641.64,911.9
642.167,910.9
642.694,911.3
643.221,908.0
643.748,911.4
644.275,909.7
644.802,912.1
645.329,910.5
645.856,910.4
646.382,910.5
646.909,913.7
647.436,915.4
647.962,914.5
648.489,914.2
649.016,911.0
649.542,912.9
650.069,911.5
650.595,912.6
651.121,914.4
651.648,913.1
652.174,913.5
652.7,916.3
653.227,913.9
653.753,917.0
654.279,918.8
654.805,913.7
655.331,913.2
655.857,916.0
656.383,911.3
656.909,912.2
657.435,911.9
657.961,908.2
658.487,906.9
659.013,905.7
659.538,901.3
660.064,902.3
660.59,896.4
661.116,893.8
661.641,896.6
662.167,893.0
662.692,891.3
663.087,892.2