File: spectra/VLFR_02-HDPE_bio_Raman_15967531.csv
nm,Intensity
528.626,1870.7
529.132,1866.3
529.637,1868.8
530.143,1869.2
530.648,1868.4
531.153,1871.9
531.658,1901.6
532.164,4125.4
532.669,1870.7
533.174,1871.6
533.679,1957.9
534.184,2252.1
534.689,2297.4
535.194,2264.9
535.699,2117.4
536.203,2059.4
536.708,2055.9
537.213,2039.8
537.717,2050.4
538.222,2028.1
538.726,2023.6
539.231,2008.0
539.735,2007.6
540.239,1996.8
540.744,1994.7
541.248,2003.1
541.752,2000.8
542.256,2001.6
542.76,2003.7
543.264,2003.3
543.768,2003.6
544.272,1998.9
544.776,2005.2
545.28,1992.7
545.784,1999.2
546.287,1997.5
546.791,2002.5
547.294,1993.9
547.798,2002.1
548.301,2005.9
548.805,1996.3
549.308,1997.7
549.811,2004.3
550.315,2000.1
550.818,2008.1
551.321,2008.2
551.824,2008.9
552.327,2010.5
552.83,1997.1
553.333,2028.4
553.835,2022.3
554.338,2024.5
554.841,2028.9
555.343,2034.5
555.846,2041.4
556.349,2049.4
556.851,2050.8
557.353,2069.3
557.856,2085.1
558.358,2087.5
558.86,2069.2
559.362,2064.4
559.864,2077.1
560.366,2065.7
560.868,2074.4
561.37,2076.4
561.872,2072.9
562.374,2094.5
562.876,2109.0
563.377,2138.8
563.879,2702.6
564.38,2269.9
564.882,2215.0
565.383,2171.8
565.885,2388.0
566.386,2500.2
566.887,2150.5
567.388,2290.8
567.889,2124.8
568.391,2116.2
568.892,2112.6
569.392,2136.3
569.893,2128.6
570.394,2156.9
570.895,2212.8
571.395,3031.3
571.896,2436.8
572.397,2228.9
572.897,2175.7
573.397,2171.4
573.898,2254.0
574.398,2184.5
574.898,2201.5
575.398,2531.4
575.898,2611.8
576.398,3144.6
576.898,2841.1
577.398,2571.5
577.898,2355.7
578.398,2336.6
578.897,2372.0
579.397,2388.4
579.896,2441.2
580.396,2438.0
580.895,2484.4
581.395,2525.8
581.894,2535.3
582.393,2556.5
582.892,2563.0
583.391,2577.7
583.89,2558.2
584.389,2550.5
584.888,2538.4
585.387,2524.9
585.886,2494.8
586.384,2504.8
586.883,2466.0
587.381,2451.9
587.88,2404.6
588.378,2416.5
588.876,2372.1
589.375,2382.5
589.873,2365.9
590.371,2351.8
590.869,2363.4
591.367,2372.0
591.865,2321.0
592.363,2346.1
592.86,2311.2
593.358,2331.0
593.856,2299.9
594.353,2309.8
594.851,2295.7
595.348,2288.6
595.845,2303.6
596.342,2288.8
596.84,2308.3
597.337,2302.4
597.834,2288.4
598.331,2283.0
598.828,2303.1
599.324,2297.3
599.821,2322.7
600.318,2306.7
600.814,2307.6
601.311,2318.3
601.807,2356.9
602.304,2348.6
602.8,2323.0
603.296,2320.3
603.792,2330.1
604.288,2327.8
604.784,2337.3
605.28,2300.8
605.776,2318.9
606.272,2305.3
606.767,2300.5
607.263,2274.3
607.759,2282.5
608.254,2287.5
608.749,2286.1
609.245,2282.9
609.74,2276.5
610.235,2277.2
610.73,2283.8
611.225,2285.7
611.72,2256.9
612.215,2274.1
612.71,2248.7
613.204,2254.8
613.699,2253.9
614.194,2251.9
614.688,2250.0
615.182,2256.7
615.677,2260.8
616.171,2257.1
616.665,2297.7
617.159,2331.4
617.653,2341.0
618.147,2335.0
618.641,2315.7
619.135,2344.0
619.628,2384.6
620.122,2347.4
620.615,2369.1
621.109,2432.8
621.602,2548.7
622.095,2798.8
622.589,2698.3
623.082,2449.1
623.575,2367.3
624.068,2357.9
624.561,2356.1
625.053,2374.5
625.546,2417.0
626.039,2593.4
626.531,3513.5
627.024,8818.3
627.516,7939.4
628.008,6539.1
628.501,10305.0
628.993,5844.4
629.485,4957.5
629.977,4290.0
630.469,4024.0
630.96,3153.7
631.452,2551.2
631.944,2416.7
632.435,2360.0
632.927,2343.6
633.418,2343.2
633.91,2302.5
634.401,2272.5
634.892,2253.4
635.383,2263.9
635.874,2229.5
636.365,2226.4
636.856,2213.3
637.346,2197.8
637.837,2174.1
638.327,2179.2
638.818,2140.6
639.308,2141.0
639.799,2140.5
640.289,2136.2
640.779,2127.6
641.269,2120.6
641.759,2114.1
642.249,2112.5
642.738,2103.2
643.228,2091.7
643.718,2095.9
644.207,2100.0
644.697,2093.7
645.186,2093.0
645.675,2079.0
646.164,2074.8
646.653,2073.7
647.142,2062.0
647.631,2071.0
648.12,2065.0
648.609,2043.4
649.098,2055.0
649.586,2057.6
650.075,2055.7
650.563,2053.6
651.051,2044.2
651.539,2048.2
652.027,2043.0
652.515,2037.7
653.003,2044.0
653.491,2042.5
653.979,2039.3
654.467,2037.1
654.954,2029.8
655.442,2036.6
655.929,2030.3
656.416,2012.1
656.904,2021.1
657.391,2028.4
657.878,2023.4
658.365,2015.9
658.851,2017.7
659.338,2004.9
659.825,2012.4
660.311,2023.7
660.798,2005.5
661.041,2013.4