File: spectra/VLFR_07-PET_nobio_Raman_5ef0ce3e.csv
nm,Intensity
791.588,8009.6
792.685,7647.8
793.781,7454.1
794.878,7338.0
795.975,7319.5
797.071,7370.7
798.168,7318.5
799.264,7315.9
800.36,7223.6
801.456,7288.8
802.552,7296.1
803.648,7172.2
804.744,7109.9
805.84,7073.9
806.936,6996.0
808.031,6941.9
809.127,6895.2
810.222,6919.0
811.317,6792.6
812.412,6710.0
813.507,6698.6
814.602,6628.8
815.697,6584.5
816.792,6567.2
817.887,6508.2
818.981,6499.9
820.076,6418.3
821.17,6391.4
822.265,6336.7
823.359,6286.0
824.453,6340.7
825.547,6327.6
826.641,6239.0
827.735,6176.0
828.828,6188.1
829.922,6136.9
831.016,6102.8
832.109,6037.2
833.202,6027.7
834.295,5964.0
835.388,5995.5
836.481,5919.5
837.574,5979.8
838.667,5927.0
839.76,5879.9
840.852,5950.5
841.945,5856.2
843.037,5833.2
844.129,5781.9
845.221,5704.4
846.314,5600.7
847.405,5658.5
848.497,5560.3
849.589,5564.8
850.681,5507.3
851.772,5534.8
852.863,5485.2
853.955,5471.5
855.046,5455.3
856.137,5388.0
857.228,5379.4
858.318,5438.4
859.409,5454.7
860.5,5445.3
861.59,5387.8
862.681,5279.6
863.771,5289.6
864.861,5327.6
865.951,5272.0
867.041,5236.4
868.131,5215.2
869.22,5242.8
870.31,5232.0
871.399,5283.4
872.488,5334.7
873.578,5323.5
874.667,5248.4
875.756,5187.1
876.845,5151.1
877.933,5146.3
879.022,5062.8
880.11,5112.9
881.199,5091.6
882.287,5055.5
883.375,5041.7
884.463,5046.9
885.551,5017.3
886.639,4999.0
887.726,4968.8
888.814,4968.5
889.901,4959.9
890.988,4899.5
892.075,4914.5
893.162,4874.3
894.249,4864.2
895.336,4798.3
896.423,4812.2
897.509,4906.8
898.595,5113.0
899.682,4899.8
900.768,4716.6
901.854,4696.4
902.94,4694.3
904.025,4652.4
905.111,4694.8
906.196,4698.1
907.282,4798.2
908.367,4817.3
909.452,4667.1
910.537,4593.4
911.622,4531.3
912.706,4507.8
913.791,4472.8
914.875,4467.2
915.959,4446.6
917.044,4432.9
918.128,4420.6
919.211,4391.0
920.295,4387.3
921.379,4363.7
922.462,4363.4
923.546,4330.1
924.629,4315.0
925.712,4301.1
926.795,4262.0
927.877,4265.6
928.96,4245.6
930.043,4219.4
931.125,4218.6
932.207,4201.5
933.289,4180.7
934.371,4176.7
935.453,4159.2
936.535,4137.3
937.616,4134.9
938.697,4121.4
939.779,4125.1
940.86,4096.6
941.941,4096.4
943.022,4080.5
944.102,4067.4
945.183,4058.0
946.263,4048.4
947.343,4049.3
948.423,4040.9
949.503,4014.2
950.583,4013.1
951.663,4013.9
952.742,4000.9
953.822,3993.9
954.901,3988.7
955.98,3986.4
957.059,3971.5
958.137,3974.0
959.216,3957.8
960.294,3955.2
961.373,3951.5
962.451,3944.6
963.529,3932.0
964.607,3930.1
965.684,3929.7
966.762,3931.0
967.839,3916.3
968.917,3918.1
969.994,3910.7
971.071,3903.3
972.147,3902.5
973.224,3889.3
974.3,3895.6
975.377,3888.5
976.453,3881.9
977.529,3879.4
978.605,3873.9
979.68,3870.0
980.756,3869.0
981.831,3866.2
982.907,3861.4
983.982,3858.5
985.057,3854.8
986.131,3852.9
987.206,3848.7
988.28,3847.5
989.355,3845.7
990.429,3840.6
991.503,3835.1
992.576,3835.3
993.65,3829.2
994.723,3827.8
995.797,3829.3
996.87,3825.6
997.943,3821.6
999.016,3819.0
1000.09,3816.9
1001.16,3815.4
1002.23,3812.6
1003.31,3811.1
1004.38,3809.7
1005.45,3807.3
1006.52,3803.6
1007.59,3804.1
1008.66,3798.2
1009.73,3797.3
1010.81,3799.5
1011.88,3797.8
1012.95,3796.4
1014.02,3795.2
1015.09,3792.7
1016.16,3789.9
1017.23,3789.1
1018.3,3788.7
1019.37,3785.6
1020.44,3787.2
1021.51,3788.0
1022.58,3791.4
1023.64,3787.4
1024.71,3787.2
1025.78,3781.3
1026.85,3779.8
1027.92,3778.8
1028.99,3779.8
1030.05,3776.9
1031.12,3774.2
1032.19,3775.0
1033.26,3776.5
1034.32,3776.5
1035.39,3778.7
1036.46,3778.3
1037.52,3773.3
1038.59,3772.5
1039.66,3770.8
1040.72,3770.7
1041.79,3769.2
1042.86,3769.6
1043.92,3769.3
1044.99,3767.1
1046.05,3767.5
1047.12,3765.0
1048.18,3767.0
1049.25,3763.6
1050.31,3765.9
1051.37,3767.5
1052.44,3765.0
1053.5,3766.5
1054.57,3763.3
1055.63,3766.0
1056.69,3762.6
1057.76,3765.4
1058.82,3762.9
1059.88,3764.2
1060.95,3764.1
1062.01,3763.3
1063.07,3763.9
1064.13,3762.0
1065.19,3763.1
1066.26,3762.9
1067.32,3763.2
1068.11,3763.5