File: spectra/VLFR_02-HDPE_bio_Raman_af3c26e0.csv
nm,Intensity
526.508,830.5
527.055,829.9
527.602,830.9
528.149,831.3
528.695,830.7
529.241,829.5
529.787,829.3
530.334,828.7
530.879,829.0
531.425,830.9
531.971,833.8
532.516,830.0
533.062,831.1
533.607,830.0
534.152,853.2
534.697,853.3
535.242,852.6
535.786,844.9
536.331,840.7
536.876,838.6
537.42,840.6
537.964,839.0
538.508,839.2
539.052,837.9
539.596,838.0
540.14,837.5
540.683,835.5
541.227,835.7
541.77,834.6
542.313,836.7
542.856,838.8
543.399,835.8
543.942,837.2
544.485,836.1
545.027,836.2
545.57,835.2
546.112,836.6
546.654,836.4
547.196,836.0
547.738,835.3
548.28,835.6
548.822,837.1
549.363,835.1
549.905,836.6
550.446,836.9
550.988,835.0
551.529,835.3
552.07,835.6
552.611,835.9
553.152,836.1
553.692,838.0
554.233,836.3
554.773,836.9
555.314,838.6
555.854,838.4
556.394,839.2
556.934,837.8
557.474,837.9
558.014,839.7
558.553,839.5
559.093,839.5
559.632,839.1
560.172,840.3
560.711,838.8
561.25,839.5
561.789,840.1
562.328,841.3
562.867,840.4
563.406,842.3
563.944,870.3
564.483,847.6
565.021,845.5
565.559,842.6
566.098,863.0
566.636,842.4
567.174,842.3
567.711,846.4
568.249,840.0
568.787,838.8
569.324,841.0
569.862,843.2
570.399,842.2
570.936,845.6
571.474,888.4
572.011,853.6
572.548,845.3
573.084,843.7
573.621,841.4
574.158,846.5
574.694,841.4
575.231,843.8
575.767,857.5
576.303,903.3
576.84,874.2
577.376,864.4
577.912,847.5
578.447,845.5
578.983,843.8
579.519,846.5
580.054,845.0
580.59,846.0
581.125,847.1
581.661,847.7
582.196,848.1
582.731,847.9
583.266,848.9
583.801,849.1
584.336,850.9
584.87,853.9
585.405,854.1
585.94,854.7
586.474,854.8
587.008,857.9
587.543,857.8
588.077,855.9
588.611,860.7
589.145,859.4
589.679,862.8
590.213,863.0
590.747,864.0
591.28,864.1
591.814,865.5
592.347,864.8
592.881,868.6
593.414,865.7
593.947,867.1
594.48,870.2
595.014,870.3
595.547,873.3
596.079,872.6
596.612,876.2
597.145,873.1
597.678,874.5
598.21,876.0
598.743,881.4
599.275,883.0
599.807,885.2
600.34,881.5
600.872,882.8
601.404,884.4
601.936,884.2
602.468,885.3
603.0,886.5
603.532,881.7
604.063,886.2
604.595,883.1
605.126,879.9
605.658,881.8
606.189,876.5
606.721,877.2
607.252,878.9
607.783,873.1
608.314,874.5
608.845,875.7
609.376,875.7
609.907,873.8
610.438,870.4
610.968,870.4
611.499,868.3
612.03,867.9
612.56,868.8
613.091,866.9
613.621,869.6
614.151,869.7
614.681,867.6
615.212,865.4
615.742,866.3
616.272,866.3
616.802,866.3
617.332,870.1
617.861,871.2
618.391,871.4
618.921,869.6
619.45,870.4
619.98,869.6
620.509,870.0
621.039,873.5
621.568,881.7
622.097,899.0
622.627,893.3
623.156,875.5
623.685,869.4
624.214,867.4
624.743,865.0
625.272,870.4
625.801,873.2
626.33,894.2
626.858,1068.0
627.387,1359.9
627.916,1141.8
628.444,1293.6
628.973,1138.9
629.501,1076.6
630.029,999.5
630.558,989.6
631.086,917.3
631.614,880.1
632.142,869.1
632.67,865.5
633.198,863.3
633.726,862.7
634.254,860.6
634.782,860.3
635.31,859.2
635.838,855.9
636.365,856.0
636.893,856.1
637.421,856.3
637.948,856.0
638.476,854.4
639.003,855.4
639.531,853.5
640.058,853.0
640.585,853.0
641.113,855.8
641.64,854.5
642.167,856.1
642.694,854.8
643.221,855.0
643.748,855.7
644.275,857.1
644.802,853.8
645.329,855.3
645.856,856.3
646.382,857.0
646.909,855.1
647.436,856.3
647.962,856.0
648.489,857.4
649.016,857.6
649.542,856.7
650.069,857.3
650.595,857.0
651.121,855.6
651.648,856.9
652.174,856.9
652.7,857.5
653.227,858.5
653.753,856.7
654.279,857.6
654.805,856.7
655.331,858.6
655.857,858.0
656.383,857.1
656.909,859.6
657.435,858.3
657.961,856.2
658.487,859.8
659.013,857.0
659.538,853.6
660.064,856.7
660.59,856.8
661.116,855.1
661.641,854.2
662.167,854.5
662.692,852.9
663.087,852.9