File: spectra/VLFR_02-HDPE_nobio_Raman_fe1d40ad.csv
nm,Intensity
526.5,828.9
527.047,828.6
527.594,828.8
528.14,829.5
528.687,828.9
529.233,829.6
529.779,829.7
530.325,829.3
530.871,828.4
531.417,829.5
531.962,836.0
532.508,830.0
533.053,829.2
533.599,829.3
534.144,850.4
534.689,846.2
535.234,846.4
535.778,840.9
536.323,839.1
536.867,837.9
537.412,837.1
537.956,838.3
538.5,838.6
539.044,837.2
539.588,836.5
540.132,836.7
540.675,835.8
541.219,835.7
541.762,837.3
542.305,835.5
542.848,836.0
543.391,835.8
543.934,835.5
544.477,835.1
545.02,836.4
545.562,835.2
546.105,836.5
546.647,835.9
547.189,836.0
547.731,835.4
548.273,836.6
548.815,835.5
549.356,835.6
549.898,836.2
550.439,836.1
550.981,835.3
551.522,835.3
552.063,836.6
552.604,837.1
553.145,836.2
553.686,836.7
554.226,836.9
554.767,836.4
555.307,838.0
555.848,837.4
556.388,835.8
556.928,836.3
557.468,837.1
558.008,838.1
558.547,837.3
559.087,838.4
559.626,836.9
560.166,838.3
560.705,837.7
561.244,835.6
561.783,838.4
562.322,837.8
562.861,837.5
563.4,839.5
563.939,857.5
564.477,843.3
565.015,842.4
565.554,841.1
566.092,856.6
566.63,838.9
567.168,839.1
567.706,841.3
568.244,837.5
568.781,838.6
569.319,838.7
569.857,840.7
570.394,840.7
570.931,840.5
571.468,872.9
572.005,846.4
572.542,840.4
573.079,838.4
573.616,840.5
574.153,842.6
574.689,838.6
575.226,840.5
575.762,849.0
576.298,879.5
576.834,861.7
577.371,854.7
577.907,843.3
578.442,841.7
578.978,840.4
579.514,841.7
580.049,840.3
580.585,842.7
581.12,840.1
581.656,840.2
582.191,841.9
582.726,841.2
583.261,843.0
583.796,844.4
584.331,845.3
584.865,846.0
585.4,846.6
585.935,846.2
586.469,847.9
587.004,849.8
587.538,848.9
588.072,850.1
588.606,852.4
589.14,854.9
589.674,854.1
590.208,854.8
590.742,855.6
591.275,855.1
591.809,857.7
592.342,857.1
592.876,858.0
593.409,861.3
593.942,861.0
594.476,860.8
595.009,861.5
595.542,862.1
596.075,864.4
596.607,863.9
597.14,863.4
597.673,866.1
598.205,864.9
598.738,866.5
599.27,864.7
599.803,867.3
600.335,866.3
600.867,870.2
601.399,868.2
601.931,869.3
602.463,871.2
602.995,868.6
603.527,868.2
604.058,868.0
604.59,869.2
605.122,867.3
605.653,864.4
606.184,866.0
606.716,863.6
607.247,863.7
607.778,864.9
608.309,861.6
608.84,863.5
609.371,864.6
609.902,864.0
610.433,859.9
610.964,859.8
611.494,858.3
612.025,861.4
612.556,859.6
613.086,858.8
613.616,862.4
614.147,858.5
614.677,859.5
615.207,859.7
615.737,856.0
616.267,856.1
616.797,859.0
617.327,858.2
617.857,861.0
618.387,859.2
618.917,855.5
619.446,857.8
619.976,859.7
620.505,855.3
621.035,858.0
621.564,860.9
622.093,867.6
622.623,867.5
623.152,859.3
623.681,855.9
624.21,858.4
624.739,857.5
625.268,855.7
625.797,858.3
626.326,866.3
626.855,947.7
627.383,1073.3
627.912,982.6
628.441,1062.1
628.969,979.7
629.498,950.6
630.026,917.0
630.554,908.6
631.083,876.6
631.611,859.7
632.139,854.6
632.667,852.8
633.195,850.5
633.724,848.7
634.252,850.2
634.779,849.2
635.307,848.9
635.835,850.2
636.363,847.2
636.891,848.3
637.418,847.2
637.946,847.9
638.474,847.5
639.001,847.2
639.529,846.7
640.056,849.7
640.583,850.1
641.111,848.7
641.638,846.3
642.165,847.9
642.692,847.9
643.22,847.3
643.747,847.7
644.274,848.8
644.801,848.4
645.328,846.7
645.854,847.1
646.381,850.4
646.908,851.6
647.435,850.2
647.962,849.5
648.488,849.5
649.015,848.0
649.542,850.2
650.068,848.4
650.595,849.5
651.121,848.7
651.648,849.8
652.174,848.1
652.7,848.3
653.227,847.1
653.753,847.6
654.279,847.7
654.805,846.8
655.331,848.4
655.858,846.2
656.384,848.0
656.91,848.7
657.436,846.5
657.962,846.8
658.488,845.3
659.013,843.7
659.539,846.9
660.065,848.0
660.591,846.6
661.117,843.8
661.642,844.8
662.168,842.9
662.694,842.7
663.088,842.3