File: spectra/VLFR_06-PET_bio_Raman_fa04f318.csv
nm,Intensity
526.549,831.4
527.096,832.25
527.643,832.15
528.19,832.65
528.737,830.75
529.283,833.3
529.83,831.7
530.376,831.75
530.922,831.85
531.468,832.9
532.014,842.35
532.559,832.1
533.105,831.55
533.65,846.55
534.196,1858.5
534.741,1582.45
535.286,1320.8
535.83,1168.7
536.375,1079.1
536.92,1045.8
537.464,1029.15
538.008,1028.2
538.553,1038.7
539.097,1039.75
539.641,1051.25
540.184,1059.35
540.728,1028.7
541.271,1024.15
541.815,1018.0
542.358,1023.65
542.901,1025.15
543.444,1020.6
543.987,1027.45
544.53,1028.15
545.072,1031.8
545.615,1029.5
546.157,1031.8
546.699,1034.55
547.242,1032.55
547.784,1036.0
548.325,1030.35
548.867,1036.65
549.409,1037.8
549.95,1036.1
550.492,1057.15
551.033,1047.95
551.574,1042.25
552.115,1042.0
552.656,1054.55
553.197,1057.6
553.737,1046.7
554.278,1046.6
554.818,1049.95
555.358,1065.25
555.899,1098.4
556.439,1104.8
556.979,1115.5
557.518,1234.85
558.058,1131.4
558.598,1123.6
559.137,1090.1
559.677,1066.2
560.216,1079.1
560.755,1079.25
561.294,1082.5
561.833,1087.6
562.372,1099.95
562.91,1115.15
563.449,1112.95
563.987,1107.8
564.526,1116.45
565.064,1163.45
565.602,1210.1
566.14,1206.05
566.678,1136.8
567.216,1131.9
567.754,1200.75
568.291,1143.0
568.829,1146.75
569.366,1146.3
569.904,1177.55
570.441,1221.45
570.978,1328.25
571.515,1405.1
572.052,1291.65
572.589,1200.75
573.125,1184.25
573.662,1197.1
574.199,1220.45
574.735,1211.15
575.271,1242.55
575.807,1218.35
576.344,1250.65
576.88,1261.55
577.415,1235.8
577.951,1230.6
578.487,1239.25
579.023,1238.55
579.558,1247.35
580.094,1257.25
580.629,1257.25
581.164,1279.7
581.699,1366.05
582.234,2330.8
582.769,1318.8
583.304,1285.2
583.839,1289.85
584.374,1298.85
584.908,1314.0
585.443,1420.45
585.977,1843.55
586.511,1594.3
587.046,1364.95
587.58,1322.95
588.114,1315.45
588.648,1315.95
589.182,1315.75
589.716,1310.15
590.249,1314.2
590.783,1319.0
591.316,1321.95
591.85,1325.45
592.383,1321.5
592.917,1326.8
593.45,1322.6
593.983,1332.35
594.516,1331.85
595.049,1327.85
595.582,1340.9
596.115,1342.55
596.647,1341.6
597.18,1346.45
597.712,1342.1
598.245,1348.15
598.777,1355.2
599.31,1352.65
599.842,1348.1
600.374,1350.95
600.906,1349.25
601.438,1343.65
601.97,1349.7
602.502,1350.35
603.034,1354.4
603.565,1359.0
604.097,1353.8
604.628,1350.4
605.16,1347.8
605.691,1340.7
606.223,1341.6
606.754,1337.3
607.285,1339.95
607.816,1342.75
608.347,1347.4
608.878,1347.55
609.409,1352.65
609.94,1349.05
610.47,1352.75
611.001,1352.6
611.532,1351.7
612.062,1354.95
612.593,1361.8
613.123,1369.45
613.653,1370.2
614.184,1377.6
614.714,1381.35
615.244,1374.1
615.774,1375.65
616.304,1383.25
616.834,1382.45
617.364,1394.45
617.894,1395.8
618.423,1403.5
618.953,1397.0
619.482,1396.2
620.012,1392.15
620.541,1396.2
621.071,1397.4
621.6,1396.85
622.13,1404.35
622.659,1412.6
623.188,1418.1
623.717,1425.1
624.246,1433.05
624.775,1438.2
625.304,1438.0
625.833,1434.75
626.362,1427.0
626.89,1440.9
627.419,1450.75
627.948,1460.35
628.476,1477.5
629.005,1499.9
629.533,1504.4
630.061,1498.55
630.59,1501.85
631.118,1561.75
631.646,1682.0
632.175,1667.65
632.703,1599.8
633.231,1591.8
633.759,1563.2
634.287,1547.6
634.815,1541.4
635.342,1556.45
635.87,1620.4
636.398,1739.6
636.926,1717.9
637.453,1603.6
637.981,1570.55
638.509,1583.25
639.036,1578.15
639.563,1579.0
640.091,1581.65
640.618,1592.8
641.146,1586.15
641.673,1598.75
642.2,1604.9
642.727,1615.8
643.254,1605.25
643.781,1606.85
644.309,1606.0
644.836,1607.1
645.362,1607.0
645.889,1612.35
646.416,1617.35
646.943,1628.2
647.47,1626.1
647.997,1631.95
648.523,1630.95
649.05,1632.75
649.577,1632.25
650.103,1626.95
650.63,1627.5
651.156,1635.5
651.683,1640.2
652.209,1632.55
652.735,1638.45
653.262,1641.05
653.788,1637.9
654.314,1654.4
654.841,1638.4
655.367,1652.05
655.893,1643.45
656.419,1645.65
656.945,1648.65
657.471,1650.1
657.997,1642.45
658.523,1658.0
659.049,1658.1
659.575,1658.55
660.101,1654.8
660.627,1644.55
661.153,1643.3
661.679,1629.8
662.205,1636.55
662.731,1645.5
663.125,1624.9