File: spectra/VLFR_08-PLA_bio_Raman_d1469299.csv
nm,Intensity
526.508,827.7
527.055,827.7
527.602,827.4
528.149,829.1
528.695,828.6
529.241,829.9
529.787,828.2
530.334,827.8
530.879,830.0
531.425,826.4
531.971,838.6
532.516,831.3
533.062,828.4
533.607,829.2
534.152,950.6
534.697,927.3
535.242,912.3
535.786,904.4
536.331,903.0
536.876,901.1
537.42,897.7
537.964,899.5
538.508,893.2
539.052,892.1
539.596,891.7
540.14,889.6
540.683,898.8
541.227,900.1
541.77,898.2
542.313,892.8
542.856,900.3
543.399,905.8
543.942,911.4
544.485,902.2
545.027,896.3
545.57,896.4
546.112,895.5
546.654,899.7
547.196,900.8
547.738,894.8
548.28,901.5
548.822,902.0
549.363,902.3
549.905,903.3
550.446,906.1
550.988,905.8
551.529,907.6
552.07,909.5
552.611,909.8
553.152,908.9
553.692,910.9
554.233,913.6
554.773,910.8
555.314,910.4
555.854,908.6
556.394,907.6
556.934,911.9
557.474,921.9
558.014,971.2
558.553,924.7
559.093,916.0
559.632,916.4
560.172,913.6
560.711,914.9
561.25,911.6
561.789,916.4
562.328,915.3
562.867,921.2
563.406,933.0
563.944,929.5
564.483,923.8
565.021,933.4
565.559,928.5
566.098,946.7
566.636,928.2
567.174,919.7
567.711,923.8
568.249,928.6
568.787,929.3
569.324,927.8
569.862,924.0
570.399,927.3
570.936,929.5
571.474,939.3
572.011,937.8
572.548,934.8
573.084,936.6
573.621,934.4
574.158,939.0
574.694,943.6
575.231,929.7
575.767,931.2
576.303,944.4
576.84,971.2
577.376,949.1
577.912,933.8
578.447,931.6
578.983,933.3
579.519,934.6
580.054,932.0
580.59,929.7
581.125,932.2
581.661,934.0
582.196,934.5
582.731,936.4
583.266,935.2
583.801,933.6
584.336,936.8
584.87,934.9
585.405,939.3
585.94,938.0
586.474,944.6
587.008,959.8
587.543,977.6
588.077,947.3
588.611,939.9
589.145,934.8
589.679,937.3
590.213,938.0
590.747,942.4
591.28,941.2
591.814,940.3
592.347,937.5
592.881,936.3
593.414,938.6
593.947,939.1
594.48,936.3
595.014,937.5
595.547,940.3
596.079,939.2
596.612,937.5
597.145,940.9
597.678,939.3
598.21,936.4
598.743,940.3
599.275,940.9
599.807,940.0
600.34,938.8
600.872,942.1
601.404,938.2
601.936,940.6
602.468,938.3
603.0,936.4
603.532,941.2
604.063,935.1
604.595,932.1
605.126,935.7
605.658,931.9
606.189,933.4
606.721,930.6
607.252,936.1
607.783,934.5
608.314,936.1
608.845,931.2
609.376,934.6
609.907,933.8
610.438,937.8
610.968,928.0
611.499,931.7
612.03,936.7
612.56,937.1
613.091,938.6
613.621,937.8
614.151,937.4
614.681,936.6
615.212,932.7
615.742,934.0
616.272,930.5
616.802,937.4
617.332,939.2
617.861,931.8
618.391,934.5
618.921,932.9
619.45,933.9
619.98,935.6
620.509,930.5
621.039,934.6
621.568,937.2
622.097,933.8
622.627,937.6
623.156,944.4
623.685,938.5
624.214,936.6
624.743,934.0
625.272,932.1
625.801,931.5
626.33,934.8
626.858,936.3
627.387,933.1
627.916,938.3
628.444,981.8
628.973,972.3
629.501,967.3
630.029,977.3
630.558,1006.6
631.086,1236.8
631.614,1096.8
632.142,1007.3
632.67,1000.3
633.198,1064.7
633.726,1042.9
634.254,976.3
634.782,942.6
635.31,935.1
635.838,932.1
636.365,928.1
636.893,929.1
637.421,923.7
637.948,925.8
638.476,923.8
639.003,927.0
639.531,923.4
640.058,921.8
640.585,923.3
641.113,925.9
641.64,926.4
642.167,917.5
642.694,922.2
643.221,921.5
643.748,920.4
644.275,915.9
644.802,914.8
645.329,914.9
645.856,913.4
646.382,913.4
646.909,912.8
647.436,917.8
647.962,917.0
648.489,911.5
649.016,913.1
649.542,912.8
650.069,912.9
650.595,912.1
651.121,912.0
651.648,909.7
652.174,915.7
652.7,910.2
653.227,912.9
653.753,909.7
654.279,906.9
654.805,907.6
655.331,910.1
655.857,908.3
656.383,908.8
656.909,906.0
657.435,906.7
657.961,907.9
658.487,904.6
659.013,907.2
659.538,905.2
660.064,909.7
660.59,904.2
661.116,900.0
661.641,905.8
662.167,901.9
662.692,904.0
663.087,903.7