File: spectra/VLFR_07-PET_nobio_Raman_755c3207.csv
nm,Intensity
791.377,11011.0
792.477,10023.4
793.576,9444.58
794.676,9048.58
795.775,8991.16
796.874,8869.0
797.973,8881.76
799.072,8799.28
800.171,8737.56
801.27,8766.7
802.368,8829.36
803.467,8544.8
804.565,8472.16
805.664,8341.94
806.762,8245.98
807.86,8191.0
808.958,8173.64
810.056,8058.56
811.153,8039.86
812.251,7970.92
813.349,7903.22
814.446,7844.96
815.543,7734.44
816.64,7635.48
817.737,7554.92
818.834,7583.68
819.931,7525.36
821.028,7505.52
822.125,7414.76
823.221,7263.08
824.317,7212.26
825.414,7330.94
826.51,7288.04
827.606,7066.82
828.702,6968.84
829.797,6952.08
830.893,7134.42
831.988,6849.8
833.084,6840.7
834.179,6773.16
835.274,6700.44
836.369,6727.4
837.464,6783.78
838.559,6742.4
839.654,6709.22
840.748,6857.28
841.843,6896.1
842.937,6643.38
844.031,6531.52
845.125,6424.24
846.219,6306.58
847.313,6247.74
848.407,6232.58
849.5,6242.22
850.593,6191.28
851.687,6172.8
852.78,6186.72
853.873,6156.12
854.966,6164.72
856.059,6064.74
857.151,5969.9
858.244,6127.38
859.336,6138.7
860.428,6194.78
861.52,6064.76
862.612,5941.06
863.704,5932.04
864.796,5948.36
865.888,5850.08
866.979,5807.74
868.07,5717.36
869.162,5740.96
870.253,5808.88
871.344,5899.74
872.434,6020.48
873.525,6028.8
874.615,5882.58
875.706,5693.4
876.796,5609.06
877.886,5563.46
878.976,5548.94
880.066,5496.22
881.156,5496.82
882.245,5509.16
883.335,5475.5
884.424,5431.0
885.513,5429.16
886.602,5362.98
887.691,5345.72
888.78,5324.78
889.868,5246.98
890.957,5251.28
892.045,5250.76
893.133,5186.36
894.221,5143.58
895.309,5116.92
896.397,5099.56
897.484,5270.82
898.571,5726.54
899.659,5415.4
900.746,4997.3
901.833,4957.64
902.92,4875.16
904.006,4932.16
905.093,4876.24
906.179,4952.5
907.266,5256.84
908.352,5305.16
909.438,5022.1
910.523,4840.38
911.609,4735.22
912.695,4696.34
913.78,4679.86
914.865,4629.76
915.95,4612.76
917.035,4610.94
918.12,4608.12
919.204,4565.16
920.289,4539.7
921.373,4526.5
922.457,4484.46
923.541,4481.76
924.625,4452.46
925.709,4435.26
926.792,4412.5
927.876,4408.52
928.959,4364.24
930.042,4317.24
931.125,4334.52
932.208,4302.34
933.29,4280.14
934.373,4268.24
935.455,4269.82
936.537,4230.7
937.619,4203.9
938.701,4207.26
939.782,4183.18
940.864,4179.52
941.945,4163.12
943.026,4160.12
944.107,4136.4
945.188,4121.72
946.269,4113.8
947.349,4089.74
948.43,4083.62
949.51,4073.86
950.59,4063.88
951.67,4061.86
952.75,4045.16
953.829,4033.68
954.909,4022.86
955.988,4018.96
957.067,4002.72
958.146,3997.6
959.224,3994.16
960.303,3979.9
961.381,3967.0
962.459,3969.34
963.537,3956.54
964.615,3943.66
965.693,3944.24
966.771,3942.66
967.848,3933.28
968.925,3924.88
970.002,3914.8
971.079,3913.28
972.156,3902.38
973.232,3906.14
974.309,3897.7
975.385,3883.74
976.461,3882.72
977.537,3878.74
978.612,3873.28
979.688,3865.86
980.763,3865.66
981.838,3859.84
982.913,3852.28
983.988,3852.38
985.063,3844.6
986.137,3844.0
987.211,3838.68
988.285,3835.88
989.359,3834.36
990.433,3824.56
991.506,3821.8
992.58,3819.88
993.653,3815.24
994.726,3809.12
995.799,3810.28
996.872,3803.14
997.944,3800.54
999.016,3800.74
1000.09,3798.28
1001.16,3791.34
1002.23,3787.68
1003.3,3788.56
1004.38,3784.44
1005.45,3782.86
1006.52,3780.44
1007.59,3778.24
1008.66,3774.12
1009.73,3771.44
1010.8,3770.64
1011.87,3770.84
1012.94,3768.0
1014.01,3765.42
1015.08,3766.48
1016.15,3764.2
1017.22,3762.48
1018.29,3761.0
1019.36,3758.64
1020.42,3757.94
1021.49,3762.98
1022.56,3766.16
1023.63,3763.2
1024.7,3759.04
1025.76,3755.84
1026.83,3752.14
1027.9,3749.82
1028.97,3744.86
1030.03,3744.52
1031.1,3742.18
1032.17,3741.7
1033.23,3742.56
1034.3,3745.32
1035.36,3746.64
1036.43,3745.54
1037.5,3741.58
1038.56,3736.84
1039.63,3735.74
1040.69,3733.22
1041.76,3733.8
1042.82,3732.6
1043.89,3731.68
1044.95,3731.28
1046.01,3729.78
1047.08,3730.1
1048.14,3729.0
1049.2,3727.88
1050.27,3728.2
1051.33,3728.92
1052.39,3729.32
1053.46,3727.18
1054.52,3727.58
1055.58,3728.14
1056.64,3727.06
1057.7,3726.22
1058.77,3725.92
1059.83,3726.54
1060.89,3726.56
1061.95,3724.74
1063.01,3724.8
1064.07,3726.08
1065.13,3725.52
1066.19,3724.64
1067.25,3724.56
1068.05,3724.0