File: spectra/VLFR_02-HDPE_bio_Raman_9e77d582.csv
nm,Intensity
528.626,1862.8
529.132,1863.2
529.637,1863.1
530.143,1863.0
530.648,1864.3
531.153,1866.2
531.658,1922.3
532.164,5882.6
532.669,1868.6
533.174,1866.3
533.679,1970.4
534.184,2296.6
534.689,2306.9
535.194,2355.2
535.699,2318.6
536.203,2293.6
536.708,2217.3
537.213,2273.7
537.717,2254.1
538.222,2241.6
538.726,2209.1
539.231,2199.2
539.735,2190.8
540.239,2193.5
540.744,2222.0
541.248,2204.4
541.752,2208.7
542.256,2208.1
542.76,2201.6
543.264,2208.9
543.768,2275.9
544.272,2385.8
544.776,2217.2
545.28,2218.8
545.784,2255.3
546.287,2502.0
546.791,2339.4
547.294,2250.9
547.798,2244.8
548.301,2248.0
548.805,2254.1
549.308,2287.2
549.811,2305.6
550.315,2382.3
550.818,2268.8
551.321,2235.1
551.824,2280.1
552.327,2250.8
552.83,2248.7
553.333,2264.5
553.835,2277.9
554.338,2264.7
554.841,2292.2
555.343,2279.6
555.846,2273.8
556.349,2288.6
556.851,2289.6
557.353,2299.2
557.856,2297.2
558.358,2325.4
558.86,2280.4
559.362,2302.3
559.864,2299.0
560.366,2300.6
560.868,2312.2
561.37,2333.3
561.872,2520.1
562.374,4451.7
562.876,2397.1
563.377,2368.8
563.879,2770.7
564.38,2462.7
564.882,2411.2
565.383,2423.3
565.885,2671.7
566.386,2941.4
566.887,2426.4
567.388,2411.8
567.889,2353.4
568.391,2341.4
568.892,2343.0
569.392,2343.6
569.893,2346.8
570.394,2369.4
570.895,2380.2
571.395,3016.7
571.896,2552.2
572.397,2398.2
572.897,2360.5
573.397,2350.4
573.898,2415.7
574.398,2330.0
574.898,2346.4
575.398,2724.4
575.898,2659.9
576.398,2912.0
576.898,2748.2
577.398,2541.0
577.898,2398.6
578.398,2341.4
578.897,2369.8
579.397,2363.2
579.896,2367.4
580.396,2374.2
580.895,2376.7
581.395,2377.0
581.894,2394.3
582.393,2389.8
582.892,2383.3
583.391,2403.4
583.89,2414.0
584.389,2394.9
584.888,2404.3
585.387,2399.8
585.886,2412.1
586.384,2410.8
586.883,2414.4
587.381,2417.3
587.88,2433.7
588.378,2410.6
588.876,2381.7
589.375,2378.6
589.873,2390.8
590.371,2422.1
590.869,2411.8
591.367,2421.6
591.865,2429.7
592.363,2419.2
592.86,2418.4
593.358,2422.7
593.856,2425.9
594.353,2429.3
594.851,2425.9
595.348,2462.5
595.845,2452.4
596.342,2482.9
596.84,2477.1
597.337,2506.8
597.834,2484.5
598.331,2516.0
598.828,2538.4
599.324,2552.0
599.821,2583.3
600.318,2563.4
600.814,2556.9
601.311,2570.4
601.807,2575.7
602.304,2563.2
602.8,2546.2
603.296,2541.0
603.792,2550.0
604.288,2536.0
604.784,2540.4
605.28,2525.8
605.776,2513.2
606.272,2485.4
606.767,2498.3
607.263,2487.0
607.759,2455.0
608.254,2454.8
608.749,2450.8
609.245,2434.1
609.74,2444.3
610.235,2433.4
610.73,2448.8
611.225,2458.5
611.72,2432.0
612.215,2405.2
612.71,2421.3
613.204,2400.9
613.699,2401.2
614.194,2395.8
614.688,2402.0
615.182,2393.3
615.677,2412.3
616.171,2371.3
616.665,2414.5
617.159,2410.0
617.653,2420.5
618.147,2458.5
618.641,2420.2
619.135,2422.6
619.628,2454.2
620.122,2426.7
620.615,2477.7
621.109,2463.5
621.602,2532.4
622.095,2638.4
622.589,2597.4
623.082,2466.8
623.575,2437.9
624.068,2427.8
624.561,2406.2
625.053,2439.2
625.546,2437.7
626.039,2552.5
626.531,3038.1
627.024,5660.7
627.516,5605.6
628.008,4711.8
628.501,6478.0
628.993,4564.1
629.485,4160.1
629.977,3625.9
630.469,3457.8
630.96,2906.8
631.452,2546.3
631.944,2445.0
632.435,2405.7
632.927,2382.5
633.418,2359.3
633.91,2357.2
634.401,2343.8
634.892,2349.6
635.383,2314.9
635.874,2297.2
636.365,2309.3
636.856,2300.2
637.346,2300.1
637.837,2294.6
638.327,2295.2
638.818,2294.7
639.308,2287.6
639.799,2286.0
640.289,2273.7
640.779,2264.9
641.269,2280.2
641.759,2271.1
642.249,2271.8
642.738,2277.9
643.228,2246.3
643.718,2273.8
644.207,2282.9
644.697,2265.1
645.186,2278.1
645.675,2273.0
646.164,2267.1
646.653,2274.5
647.142,2274.4
647.631,2265.9
648.12,2267.5
648.609,2287.1
649.098,2329.0
649.586,2395.0
650.075,2415.8
650.563,2378.2
651.051,2310.5
651.539,2241.5
652.027,2254.5
652.515,2239.8
653.003,2221.9
653.491,2238.2
653.979,2232.3
654.467,2189.5
654.954,2198.0
655.442,2194.1
655.929,2188.4
656.416,2138.5
656.904,2174.4
657.391,2175.8
657.878,2178.3
658.365,2164.2
658.851,2162.1
659.338,2150.8
659.825,2164.2
660.311,2152.2
660.798,2155.1
661.041,2140.5