File: spectra/VLFR_02-HDPE_bio_Raman_50c96371.csv
nm,Intensity
526.495,829.05
527.042,829.6
527.589,828.85
528.136,828.45
528.682,828.75
529.229,830.0
529.775,828.25
530.321,829.9
530.867,828.95
531.413,829.45
531.959,830.55
532.505,828.8
533.051,830.6
533.596,829.9
534.141,941.8
534.687,921.5
535.232,901.8
535.777,886.85
536.321,879.55
536.866,874.9
537.41,873.25
537.955,872.4
538.499,867.5
539.043,862.55
539.587,859.05
540.131,858.15
540.675,857.7
541.219,854.9
541.762,853.1
542.305,853.9
542.849,854.0
543.392,851.9
543.935,854.0
544.478,851.0
545.02,850.7
545.563,850.15
546.106,849.55
546.648,850.45
547.19,848.55
547.732,848.4
548.274,849.25
548.816,848.45
549.358,848.4
549.9,847.7
550.441,848.35
550.983,848.5
551.524,847.65
552.065,848.55
552.606,850.85
553.147,851.95
553.688,856.1
554.229,855.05
554.769,854.0
555.31,859.25
555.85,861.4
556.391,861.5
556.931,865.9
557.471,869.6
558.011,873.45
558.551,876.8
559.09,874.5
559.63,872.35
560.169,872.65
560.709,872.7
561.248,875.35
561.787,876.4
562.326,881.55
562.865,887.4
563.404,898.75
563.943,983.0
564.481,930.1
565.02,923.85
565.558,917.85
566.096,1033.9
566.634,931.8
567.172,921.75
567.71,923.7
568.248,924.65
568.786,927.6
569.324,937.4
569.861,947.8
570.399,957.75
570.936,980.05
571.473,1140.15
572.01,1040.4
572.547,1024.55
573.084,1034.3
573.621,1049.1
574.158,1078.6
574.694,1083.65
575.231,1117.95
575.767,1212.2
576.303,1353.6
576.84,1324.4
577.376,1320.5
577.912,1323.55
578.448,1372.15
578.984,1428.25
579.519,1481.35
580.055,1546.85
580.59,1606.45
581.126,1671.55
581.661,1727.8
582.196,1788.2
582.731,1849.5
583.267,1905.8
583.801,1942.3
584.336,1983.05
584.871,2026.45
585.406,2066.5
585.94,2097.45
586.475,2150.9
587.009,2199.05
587.543,2249.9
588.078,2291.55
588.612,2327.85
589.146,2375.5
589.68,2435.8
590.214,2482.6
590.747,2538.2
591.281,2573.0
591.815,2603.6
592.348,2624.4
592.881,2631.5
593.415,2619.75
593.948,2635.95
594.481,2646.95
595.014,2662.0
595.547,2659.8
596.08,2660.15
596.613,2670.95
597.146,2671.6
597.678,2692.05
598.211,2715.75
598.743,2735.05
599.276,2753.6
599.808,2746.7
600.34,2732.6
600.872,2707.75
601.404,2694.7
601.936,2673.15
602.468,2640.8
603.0,2598.95
603.532,2560.4
604.064,2493.15
604.595,2441.55
605.127,2360.15
605.658,2279.65
606.189,2223.25
606.721,2165.2
607.252,2112.05
607.783,2068.55
608.314,2033.15
608.845,1988.75
609.376,1955.25
609.907,1917.4
610.438,1886.3
610.968,1853.8
611.499,1821.1
612.029,1811.15
612.56,1791.55
613.09,1772.7
613.621,1755.5
614.151,1736.1
614.681,1712.9
615.211,1686.65
615.741,1664.6
616.271,1643.55
616.801,1626.05
617.331,1620.5
617.861,1609.75
618.39,1596.05
618.92,1571.95
619.45,1560.95
619.979,1548.9
620.509,1544.45
621.038,1544.3
621.567,1552.2
622.096,1572.0
622.626,1573.4
623.155,1544.75
623.684,1530.65
624.213,1532.4
624.742,1534.75
625.271,1539.55
625.799,1550.75
626.328,1580.25
626.857,1842.2
627.386,2394.55
627.914,2073.6
628.443,2329.15
628.971,2216.85
629.5,2095.25
630.028,1960.05
630.556,1933.75
631.084,1787.1
631.613,1684.25
632.141,1667.0
632.669,1653.45
633.197,1661.45
633.725,1665.95
634.253,1668.1
634.781,1677.5
635.308,1683.05
635.836,1696.75
636.364,1703.8
636.891,1711.1
637.419,1715.15
637.947,1712.8
638.474,1732.65
639.002,1738.1
639.529,1736.4
640.056,1749.65
640.584,1759.8
641.111,1770.55
641.638,1784.65
642.165,1780.2
642.692,1791.55
643.219,1790.95
643.746,1788.45
644.273,1787.6
644.8,1786.2
645.327,1782.7
645.854,1782.9
646.381,1790.1
646.908,1780.25
647.434,1773.4
647.961,1769.6
648.488,1759.65
649.014,1750.85
649.541,1743.25
650.067,1724.45
650.594,1724.15
651.12,1713.7
651.646,1701.2
652.173,1708.7
652.699,1708.3
653.225,1697.6
653.752,1690.05
654.278,1688.25
654.804,1672.05
655.33,1668.5
655.856,1655.05
656.382,1633.4
656.908,1624.6
657.434,1607.75
657.96,1589.75
658.486,1572.95
659.012,1553.2
659.538,1526.7
660.064,1508.95
660.589,1484.75
661.115,1459.55
661.641,1432.75
662.166,1409.95
662.692,1396.9
663.086,1372.7