File: spectra/VLFR_08-PLA_bio_Raman_c6f799d1.csv
nm,Intensity
528.626,1862.4
529.132,1864.2
529.637,1863.8
530.143,1864.4
530.648,1865.9
531.153,1868.4
531.658,1909.9
532.164,4639.2
532.669,1867.5
533.174,1866.5
533.679,2156.8
534.184,2986.8
534.689,3065.2
535.194,3112.8
535.699,3159.9
536.203,3144.3
536.708,3218.8
537.213,3287.8
537.717,3374.8
538.222,3309.2
538.726,3350.2
539.231,3377.3
539.735,3412.8
540.239,3435.2
540.744,3456.2
541.248,3517.4
541.752,3577.1
542.256,3605.8
542.76,3570.8
543.264,3632.4
543.768,3650.8
544.272,3716.0
544.776,3785.7
545.28,3784.9
545.784,3816.3
546.287,3809.0
546.791,3884.2
547.294,3940.6
547.798,3949.6
548.301,3990.6
548.805,4109.2
549.308,4078.1
549.811,4044.0
550.315,4250.9
550.818,4215.3
551.321,4234.6
551.824,4303.6
552.327,4302.7
552.83,4294.9
553.333,4296.3
553.835,4441.6
554.338,4456.1
554.841,4502.5
555.343,4508.2
555.846,4509.6
556.349,4528.4
556.851,4526.7
557.353,4577.9
557.856,4637.6
558.358,4575.9
558.86,4594.0
559.362,4664.2
559.864,4669.5
560.366,4752.8
560.868,4796.0
561.37,4841.4
561.872,4830.8
562.374,4854.3
562.876,4852.2
563.377,4896.0
563.879,4864.2
564.38,4901.1
564.882,4985.9
565.383,4976.8
565.885,5049.4
566.386,5118.2
566.887,5095.8
567.388,5138.3
567.889,5095.2
568.391,5250.2
568.892,5166.0
569.392,5203.4
569.893,5213.7
570.394,5243.8
570.895,5325.5
571.395,5387.7
571.896,5445.6
572.397,5416.8
572.897,5417.7
573.397,5381.2
573.898,5432.4
574.398,5458.9
574.898,5544.1
575.398,5548.0
575.898,5633.6
576.398,5617.5
576.898,5661.6
577.398,5505.8
577.898,5693.6
578.398,5602.9
578.897,5667.3
579.397,5710.7
579.896,5748.1
580.396,5627.2
580.895,5688.6
581.395,5696.4
581.894,5799.6
582.393,5605.7
582.892,5541.2
583.391,5684.5
583.89,5618.4
584.389,5694.3
584.888,5498.2
585.387,5525.8
585.886,5466.4
586.384,5548.0
586.883,5592.4
587.381,5561.8
587.88,5631.0
588.378,5601.2
588.876,5561.0
589.375,5422.0
589.873,5520.5
590.371,5451.8
590.869,5559.2
591.367,5479.1
591.865,5569.2
592.363,5567.4
592.86,5559.1
593.358,5475.0
593.856,5509.9
594.353,5575.0
594.851,5470.9
595.348,5520.2
595.845,5561.6
596.342,5549.3
596.84,5595.3
597.337,5555.1
597.834,5563.7
598.331,5547.7
598.828,5498.5
599.324,5594.0
599.821,5532.4
600.318,5586.3
600.814,5576.4
601.311,5538.9
601.807,5564.8
602.304,5513.0
602.8,5656.1
603.296,5567.5
603.792,5532.2
604.288,5659.3
604.784,5459.9
605.28,5509.9
605.776,5560.1
606.272,5565.4
606.767,5536.8
607.263,5535.1
607.759,5535.9
608.254,5521.3
608.749,5611.5
609.245,5598.9
609.74,5511.2
610.235,5471.0
610.73,5475.9
611.225,5550.7
611.72,5450.8
612.215,5406.4
612.71,5488.9
613.204,5520.1
613.699,5517.4
614.194,5524.9
614.688,5513.9
615.182,5509.2
615.677,5378.7
616.171,5606.8
616.665,5533.5
617.159,5404.9
617.653,5309.8
618.147,5555.7
618.641,5411.8
619.135,5519.2
619.628,5504.7
620.122,5420.7
620.615,5448.3
621.109,5443.7
621.602,5382.0
622.095,5345.5
622.589,5374.8
623.082,5248.4
623.575,5228.0
624.068,5259.1
624.561,5280.5
625.053,5104.6
625.546,5304.0
626.039,5164.4
626.531,5082.1
627.024,5130.3
627.516,5186.2
628.008,5191.1
628.501,5126.8
628.993,5146.5
629.485,5111.0
629.977,5131.6
630.469,5118.3
630.96,5143.1
631.452,5153.5
631.944,5043.7
632.435,5064.8
632.927,4978.8
633.418,4952.7
633.91,4963.0
634.401,4968.8
634.892,4918.4
635.383,4745.2
635.874,4717.2
636.365,4738.5
636.856,4771.6
637.346,4694.2
637.837,4649.5
638.327,4662.0
638.818,4679.3
639.308,4661.5
639.799,4558.0
640.289,4532.4
640.779,4565.0
641.269,4538.6
641.759,4501.3
642.249,4491.3
642.738,4412.0
643.228,4434.0
643.718,4456.2
644.207,4397.6
644.697,4301.0
645.186,4360.9
645.675,4410.0
646.164,4328.8
646.653,4376.0
647.142,4191.4
647.631,4220.5
648.12,4304.6
648.609,4221.7
649.098,4223.6
649.586,4200.0
650.075,4132.3
650.563,4156.9
651.051,4075.8
651.539,3992.9
652.027,3916.9
652.515,3915.0
653.003,3925.3
653.491,3875.8
653.979,3896.0
654.467,3822.7
654.954,3727.9
655.442,3752.5
655.929,3743.5
656.416,3630.1
656.904,3626.2
657.391,3651.8
657.878,3526.2
658.365,3558.9
658.851,3478.3
659.338,3540.3
659.825,3443.8
660.311,3436.6
660.798,3417.1
661.041,3367.5