File: spectra/VLFR_06-PET_bio_Raman_b4413bef.csv
nm,Intensity
528.626,1865.3
529.132,1865.3
529.637,1865.6
530.143,1866.1
530.648,1867.7
531.153,1869.3
531.658,1910.8
532.164,6024.2
532.669,1872.7
533.174,1877.2
533.679,3343.0
534.184,6910.5
534.689,5630.7
535.194,4611.7
535.699,3719.3
536.203,3248.0
536.708,3024.3
537.213,2958.7
537.717,2934.0
538.222,2950.6
538.726,2967.9
539.231,3023.7
539.735,3095.1
540.239,3022.3
540.744,2936.0
541.248,2876.8
541.752,2888.0
542.256,2910.7
542.76,2940.0
543.264,2901.9
543.768,2971.5
544.272,2949.9
544.776,2965.8
545.28,3022.4
545.784,2988.5
546.287,3013.3
546.791,3035.2
547.294,3070.3
547.798,3078.0
548.301,3093.9
548.805,3118.5
549.308,3122.6
549.811,3121.9
550.315,3258.0
550.818,3617.0
551.321,3189.6
551.824,3195.7
552.327,3247.7
552.83,3522.5
553.333,3203.4
553.835,3270.9
554.338,3276.4
554.841,3340.2
555.343,3451.7
555.846,3630.8
556.349,3765.4
556.851,3777.7
557.353,4425.5
557.856,4147.6
558.358,3892.5
558.86,3780.9
559.362,3539.9
559.864,3534.5
560.366,3562.7
560.868,3600.8
561.37,3627.6
561.872,3643.0
562.374,3714.8
562.876,3829.8
563.377,3785.0
563.879,3742.3
564.38,3801.6
564.882,4022.9
565.383,4317.6
565.885,4603.7
566.386,4116.7
566.887,3871.8
567.388,4072.7
567.889,4225.9
568.391,3907.1
568.892,3908.7
569.392,3980.2
569.893,4142.5
570.394,4512.7
570.895,5299.9
571.395,5805.6
571.896,5024.7
572.397,4430.9
572.897,4190.9
573.397,4203.4
573.898,4302.4
574.398,4347.1
574.898,4345.2
575.398,4594.1
575.898,4362.2
576.398,4627.3
576.898,4584.6
577.398,4386.1
577.898,4381.0
578.398,4370.3
578.897,4375.7
579.397,4433.2
579.896,4457.0
580.396,4514.6
580.895,4617.1
581.395,4833.5
581.894,7790.2
582.393,7492.9
582.892,4703.2
583.391,4627.5
583.89,4677.4
584.389,4655.0
584.888,4856.5
585.387,5539.0
585.886,8013.5
586.384,6853.6
586.883,5041.7
587.381,4789.5
587.88,4784.1
588.378,4721.2
588.876,4713.1
589.375,4751.9
589.873,4708.0
590.371,4660.8
590.869,4729.0
591.367,4743.1
591.865,4784.7
592.363,4829.6
592.86,4836.1
593.358,4788.9
593.856,4811.8
594.353,4766.1
594.851,4801.9
595.348,4898.7
595.845,4881.8
596.342,4898.1
596.84,4965.6
597.337,4871.5
597.834,4964.2
598.331,5019.3
598.828,4971.4
599.324,5031.3
599.821,4972.4
600.318,5113.6
600.814,5057.1
601.311,5074.9
601.807,5146.2
602.304,5074.8
602.8,5099.8
603.296,5148.2
603.792,5166.0
604.288,5131.4
604.784,5140.0
605.28,5185.7
605.776,5149.3
606.272,5193.0
606.767,5274.5
607.263,5208.2
607.759,5245.2
608.254,5227.2
608.749,5340.4
609.245,5297.7
609.74,5372.8
610.235,5362.2
610.73,5375.9
611.225,5328.4
611.72,5360.8
612.215,5415.8
612.71,5347.5
613.204,5379.9
613.699,5346.6
614.194,5407.9
614.688,5429.3
615.182,5472.8
615.677,5410.5
616.171,5504.5
616.665,5480.7
617.159,5527.4
617.653,5678.2
618.147,5464.7
618.641,5640.0
619.135,5535.4
619.628,5536.6
620.122,5610.5
620.615,5595.4
621.109,5525.7
621.602,5492.5
622.095,5540.5
622.589,5512.9
623.082,5612.6
623.575,5585.4
624.068,5660.5
624.561,5626.6
625.053,5579.7
625.546,5664.8
626.039,5684.5
626.531,5519.1
627.024,5636.7
627.516,5792.5
628.008,5736.5
628.501,5864.6
628.993,5865.9
629.485,6004.2
629.977,5875.6
630.469,5926.7
630.96,6123.4
631.452,6715.5
631.944,6919.4
632.435,6465.8
632.927,6427.2
633.418,6128.1
633.91,6252.7
634.401,5977.6
634.892,5940.3
635.383,6021.1
635.874,6529.7
636.365,7177.7
636.856,6861.1
637.346,6294.1
637.837,6004.6
638.327,6076.9
638.818,6095.2
639.308,6094.3
639.799,5950.9
640.289,5938.5
640.779,5924.3
641.269,6077.1
641.759,5884.1
642.249,6046.1
642.738,5968.6
643.228,5905.2
643.718,5909.1
644.207,6065.8
644.697,5936.4
645.186,6054.8
645.675,6079.0
646.164,6018.5
646.653,6032.4
647.142,5948.3
647.631,5831.9
648.12,5740.8
648.609,5934.3
649.098,5829.7
649.586,5679.8
650.075,5813.7
650.563,5798.6
651.051,5694.8
651.539,5644.4
652.027,5794.3
652.515,5794.8
653.003,5772.0
653.491,5716.8
653.979,5596.3
654.467,5497.8
654.954,5650.6
655.442,5604.0
655.929,5634.0
656.416,5430.9
656.904,5396.2
657.391,5523.6
657.878,5350.7
658.365,5276.2
658.851,5279.7
659.338,5232.2
659.825,5144.7
660.311,5196.7
660.798,5164.3
661.041,5127.7