File: spectra/VLFR_06-PET_nobio_Raman_5ab4bb37.csv
nm,Intensity
526.5,829.5
527.047,828.2
527.594,829.8
528.14,829.5
528.687,829.1
529.233,829.6
529.779,830.1
530.325,830.0
530.871,829.2
531.417,828.5
531.962,832.2
532.508,829.0
533.053,827.7
533.599,837.8
534.144,2047.8
534.689,1704.3
535.234,1370.6
535.778,1154.0
536.323,1032.6
536.867,980.4
537.412,957.2
537.956,951.3
538.5,957.9
539.044,951.3
539.588,957.9
540.132,971.2
540.675,932.1
541.219,921.1
541.762,916.2
542.305,915.3
542.848,914.6
543.391,912.7
543.934,924.6
544.477,916.9
545.02,919.3
545.562,920.2
546.105,922.4
546.647,923.5
547.189,928.4
547.731,924.4
548.273,933.3
548.815,934.8
549.356,933.3
549.898,933.8
550.439,953.6
550.981,956.0
551.522,943.0
552.063,943.9
552.604,949.7
553.145,967.5
553.686,956.3
554.226,950.3
554.767,952.5
555.307,968.7
555.848,1020.2
556.388,1022.6
556.928,1034.8
557.468,1172.7
558.008,1059.9
558.547,1059.3
559.087,1007.7
559.626,981.7
560.166,983.2
560.705,985.5
561.244,987.4
561.783,993.8
562.322,1012.8
562.861,1028.4
563.4,1025.6
563.939,1016.1
564.477,1026.6
565.015,1070.6
565.554,1131.0
566.092,1138.3
566.63,1043.8
567.168,1028.9
567.706,1115.4
568.244,1038.1
568.781,1030.8
569.319,1033.7
569.857,1068.4
570.394,1117.0
570.931,1244.5
571.468,1351.4
572.005,1203.6
572.542,1096.0
573.079,1066.3
573.616,1069.1
574.153,1097.4
574.689,1083.9
575.226,1110.6
575.762,1084.2
576.298,1117.2
576.834,1134.3
577.371,1101.0
577.907,1091.5
578.442,1094.7
578.978,1091.1
579.514,1096.3
580.049,1099.1
580.585,1114.3
581.12,1133.2
581.656,1210.8
582.191,2394.7
582.726,1181.5
583.261,1137.1
583.796,1130.8
584.331,1140.3
584.865,1152.9
585.4,1237.5
585.935,1784.9
586.469,1543.5
587.004,1198.5
587.538,1157.4
588.072,1148.9
588.606,1146.3
589.14,1147.2
589.674,1145.4
590.208,1145.0
590.742,1147.8
591.275,1154.2
591.809,1158.3
592.342,1151.6
592.876,1155.4
593.409,1152.2
593.942,1164.9
594.476,1154.8
595.009,1168.3
595.542,1161.3
596.075,1161.1
596.607,1172.6
597.14,1170.2
597.673,1168.1
598.205,1179.9
598.738,1182.8
599.27,1181.8
599.803,1180.5
600.335,1184.6
600.867,1180.3
601.399,1178.2
601.931,1179.4
602.463,1179.3
602.995,1180.4
603.527,1184.8
604.058,1189.8
604.59,1183.7
605.122,1182.5
605.653,1175.8
606.184,1175.6
606.716,1173.7
607.247,1190.3
607.778,1181.7
608.309,1180.2
608.84,1185.6
609.371,1187.0
609.902,1186.1
610.433,1186.2
610.964,1185.1
611.494,1192.4
612.025,1196.4
612.556,1198.2
613.086,1200.8
613.616,1209.0
614.147,1211.2
614.677,1213.5
615.207,1208.8
615.737,1207.0
616.267,1215.5
616.797,1211.7
617.327,1224.3
617.857,1225.7
618.387,1239.7
618.917,1234.2
619.446,1230.4
619.976,1218.0
620.505,1230.0
621.035,1227.0
621.564,1238.2
622.093,1235.8
622.623,1247.9
623.152,1245.3
623.681,1253.1
624.21,1256.9
624.739,1263.2
625.268,1262.6
625.797,1257.5
626.326,1261.5
626.855,1269.9
627.383,1267.2
627.912,1282.2
628.441,1295.8
628.969,1326.5
629.498,1327.3
630.026,1316.9
630.554,1320.0
631.083,1388.6
631.611,1518.7
632.139,1506.9
632.667,1425.0
633.195,1405.7
633.724,1392.1
634.252,1377.4
634.779,1356.2
635.307,1371.2
635.835,1432.5
636.363,1555.9
636.891,1569.5
637.418,1422.4
637.946,1387.1
638.474,1383.4
639.001,1380.9
639.529,1393.5
640.056,1389.4
640.583,1393.6
641.111,1394.9
641.638,1408.6
642.165,1414.4
642.692,1418.0
643.22,1405.5
643.747,1408.7
644.274,1409.1
644.801,1415.6
645.328,1413.2
645.854,1424.1
646.381,1427.6
646.908,1426.2
647.435,1440.9
647.962,1430.5
648.488,1432.7
649.015,1439.4
649.542,1431.6
650.068,1430.9
650.595,1439.0
651.121,1442.2
651.648,1437.7
652.174,1439.7
652.7,1438.9
653.227,1450.7
653.753,1443.9
654.279,1448.8
654.805,1453.2
655.331,1458.1
655.858,1459.0
656.384,1454.3
656.91,1459.5
657.436,1463.2
657.962,1460.5
658.488,1460.0
659.013,1455.1
659.539,1463.0
660.065,1470.7
660.591,1455.8
661.117,1458.1
661.642,1448.6
662.168,1452.3
662.694,1451.4
663.088,1443.0