File: spectra/VLFR_08-PLA_nobio_Raman_3489b4f1.csv
nm,Intensity
526.508,829.5
527.055,830.5
527.602,830.5
528.149,830.7
528.695,830.4
529.241,830.4
529.787,830.3
530.334,829.1
530.879,831.2
531.425,829.8
531.971,833.4
532.516,830.5
533.062,829.7
533.607,832.9
534.152,1041.5
534.697,1007.1
535.242,962.2
535.786,946.2
536.331,936.9
536.876,938.4
537.42,931.5
537.964,924.8
538.508,913.4
539.052,912.3
539.596,911.0
540.14,906.7
540.683,916.3
541.227,923.7
541.77,910.8
542.313,911.1
542.856,912.9
543.399,932.9
543.942,945.3
544.485,922.2
545.027,911.8
545.57,907.7
546.112,907.4
546.654,906.9
547.196,909.2
547.738,912.5
548.28,912.3
548.822,912.7
549.363,914.2
549.905,914.9
550.446,914.9
550.988,915.4
551.529,923.7
552.07,925.3
552.611,925.4
553.152,924.8
553.692,923.8
554.233,932.2
554.773,925.0
555.314,918.4
555.854,915.0
556.394,913.3
556.934,920.5
557.474,934.1
558.014,1053.7
558.553,961.5
559.093,932.9
559.632,930.9
560.172,929.1
560.711,925.0
561.25,918.8
561.789,922.5
562.328,920.7
562.867,930.3
563.406,965.9
563.944,947.8
564.483,936.4
565.021,959.9
565.559,952.6
566.098,985.7
566.636,947.2
567.174,931.7
567.711,937.5
568.249,939.7
568.787,938.5
569.324,940.9
569.862,936.6
570.399,937.6
570.936,941.6
571.474,958.5
572.011,956.9
572.548,947.0
573.084,949.7
573.621,954.6
574.158,953.6
574.694,962.7
575.231,939.3
575.767,942.0
576.303,960.0
576.84,1018.9
577.376,959.3
577.912,946.9
578.447,944.5
578.983,944.2
579.519,944.2
580.054,941.5
580.59,939.3
581.125,940.5
581.661,945.9
582.196,942.5
582.731,942.4
583.266,944.0
583.801,943.6
584.336,944.7
584.87,943.6
585.405,946.0
585.94,952.2
586.474,960.6
587.008,995.1
587.543,1027.5
588.077,966.9
588.611,944.6
589.145,946.2
589.679,945.9
590.213,947.4
590.747,947.1
591.28,945.0
591.814,942.6
592.347,943.8
592.881,948.3
593.414,938.2
593.947,944.8
594.48,943.0
595.014,943.2
595.547,943.4
596.079,945.5
596.612,942.1
597.145,941.2
597.678,947.8
598.21,946.7
598.743,945.1
599.275,946.8
599.807,946.5
600.34,942.4
600.872,940.4
601.404,938.9
601.936,939.5
602.468,946.3
603.0,945.8
603.532,943.4
604.063,946.8
604.595,943.1
605.126,942.1
605.658,944.1
606.189,937.0
606.721,937.2
607.252,941.5
607.783,937.9
608.314,941.2
608.845,944.0
609.376,940.2
609.907,942.1
610.438,937.6
610.968,941.3
611.499,936.5
612.03,935.1
612.56,938.0
613.091,939.8
613.621,942.7
614.151,942.8
614.681,939.1
615.212,940.3
615.742,940.1
616.272,936.8
616.802,943.1
617.332,940.8
617.861,939.4
618.391,940.8
618.921,940.0
619.45,938.1
619.98,940.0
620.509,935.0
621.039,942.3
621.568,939.6
622.097,939.0
622.627,950.2
623.156,960.6
623.685,951.2
624.214,948.2
624.743,942.1
625.272,939.9
625.801,937.0
626.33,937.6
626.858,939.0
627.387,942.6
627.916,952.1
628.444,1016.7
628.973,1008.9
629.501,1002.1
630.029,1011.1
630.558,1067.7
631.086,1489.1
631.614,1227.2
632.142,1077.0
632.67,1059.2
633.198,1161.2
633.726,1119.8
634.254,1015.3
634.782,960.2
635.31,940.2
635.838,935.5
636.365,935.4
636.893,930.9
637.421,931.9
637.948,928.6
638.476,929.1
639.003,927.7
639.531,926.4
640.058,926.6
640.585,929.2
641.113,924.9
641.64,926.3
642.167,924.8
642.694,928.2
643.221,922.7
643.748,920.2
644.275,920.9
644.802,918.8
645.329,916.7
645.856,916.1
646.382,915.6
646.909,916.7
647.436,914.5
647.962,917.7
648.489,914.5
649.016,915.1
649.542,915.0
650.069,916.0
650.595,914.7
651.121,913.6
651.648,912.7
652.174,909.4
652.7,910.7
653.227,913.0
653.753,909.8
654.279,908.8
654.805,907.7
655.331,913.3
655.857,908.6
656.383,912.8
656.909,903.4
657.435,908.7
657.961,909.2
658.487,903.2
659.013,908.7
659.538,907.7
660.064,906.2
660.59,906.3
661.116,905.2
661.641,902.3
662.167,903.5
662.692,903.3
663.087,902.3