File: spectra/VLFR_08-PLA_nobio_Raman_e21059c6.csv
nm,Intensity
526.532,829.567
527.079,829.8
527.625,829.9
528.172,829.433
528.718,830.5
529.265,830.2
529.811,830.3
530.357,830.3
530.903,830.4
531.449,829.967
531.994,834.333
532.54,829.967
533.085,829.967
533.63,832.9
534.176,1051.9
534.721,995.4
535.266,964.867
535.81,943.833
536.355,935.333
536.9,937.467
537.444,921.333
537.988,922.6
538.533,912.5
539.077,906.633
539.621,906.133
540.165,900.6
540.708,921.133
541.252,920.633
541.795,906.267
542.339,902.3
542.882,903.133
543.425,931.3
543.968,945.733
544.511,912.667
545.054,900.5
545.597,896.867
546.139,894.667
546.682,898.133
547.224,901.9
547.766,898.433
548.308,898.567
548.85,900.2
549.392,903.3
549.934,905.167
550.475,903.867
551.017,907.1
551.558,908.233
552.1,912.2
552.641,916.0
553.182,915.3
553.723,913.133
554.264,917.633
554.804,911.767
555.345,906.2
555.885,903.567
556.426,902.9
556.966,906.933
557.506,922.667
558.046,1058.97
558.586,937.633
559.126,920.167
559.665,918.267
560.205,912.767
560.745,910.233
561.284,906.567
561.823,908.633
562.362,907.433
562.901,919.833
563.44,959.533
563.979,930.5
564.518,922.4
565.056,948.433
565.595,938.967
566.133,975.933
566.671,934.367
567.21,916.467
567.748,923.8
568.285,924.067
568.823,922.933
569.361,922.7
569.899,920.467
570.436,920.233
570.974,923.9
571.511,951.0
572.048,942.333
572.585,935.467
573.122,936.767
573.659,942.433
574.196,935.167
574.733,947.867
575.269,926.3
575.806,927.433
576.342,951.467
576.878,1010.63
577.414,945.067
577.951,927.933
578.486,926.333
579.022,926.633
579.558,925.133
580.094,925.433
580.629,923.7
581.165,923.133
581.7,927.4
582.236,926.567
582.771,926.1
583.306,927.067
583.841,926.533
584.376,930.767
584.911,929.567
585.445,927.9
585.98,930.9
586.514,944.933
587.049,984.233
587.583,1012.67
588.117,950.3
588.651,931.167
589.186,927.1
589.72,927.333
590.253,928.233
590.787,926.0
591.321,924.767
591.854,927.1
592.388,924.933
592.921,925.733
593.455,926.2
593.988,925.3
594.521,924.867
595.054,925.433
595.587,926.3
596.12,927.4
596.653,927.0
597.186,929.033
597.718,926.033
598.251,928.267
598.783,929.167
599.316,929.967
599.848,926.933
600.38,927.133
600.912,926.0
601.444,925.533
601.976,927.533
602.508,925.033
603.04,925.567
603.572,925.7
604.103,925.2
604.635,924.3
605.167,922.7
605.698,921.767
606.229,922.467
606.761,920.6
607.292,921.8
607.823,921.567
608.354,923.633
608.885,925.933
609.416,925.967
609.947,923.033
610.477,922.8
611.008,921.967
611.539,921.0
612.069,924.0
612.6,921.167
613.13,925.833
613.66,923.533
614.19,926.367
614.721,925.267
615.251,924.533
615.781,925.267
616.311,924.133
616.841,926.267
617.37,927.567
617.9,923.733
618.43,924.0
618.96,923.867
619.489,924.733
620.019,921.7
620.548,920.767
621.077,922.567
621.607,923.167
622.136,925.6
622.665,932.067
623.194,938.567
623.723,935.467
624.252,931.533
624.781,925.467
625.31,924.733
625.839,924.433
626.368,921.967
626.896,924.9
627.425,925.533
627.953,936.467
628.482,1017.37
629.01,996.5
629.539,995.7
630.067,1002.53
630.596,1075.27
631.124,1519.47
631.652,1205.6
632.18,1067.87
632.708,1045.5
633.236,1151.07
633.764,1104.27
634.292,995.3
634.82,942.233
635.348,928.967
635.876,922.633
636.403,917.333
636.931,916.0
637.459,915.933
637.986,913.5
638.514,913.833
639.041,911.7
639.568,912.967
640.096,912.233
640.623,913.033
641.15,914.033
641.678,912.067
642.205,912.9
642.732,911.5
643.259,909.233
643.786,907.967
644.313,906.833
644.84,902.8
645.367,902.733
645.894,903.2
646.421,901.767
646.948,904.033
647.474,902.467
648.001,901.533
648.528,900.533
649.054,899.7
649.581,901.2
650.108,900.8
650.634,898.933
651.161,898.067
651.687,898.067
652.214,898.967
652.74,899.4
653.266,898.567
653.793,899.067
654.319,898.733
654.845,899.433
655.371,896.2
655.897,896.1
656.424,896.167
656.95,897.867
657.476,897.367
658.002,896.833
658.528,895.733
659.054,894.7
659.58,895.767
660.106,896.3
660.631,894.433
661.157,893.7
661.683,889.967
662.209,892.4
662.735,892.933
663.129,892.433