File: spectra/VLFR_07-PET_nobio_Raman_a13b8df5.csv
cm-1,Intensity
109.24,9225.85
126.699,8758.95
144.108,8382.05
161.468,8264.35
178.779,8146.4
196.04,8064.85
213.253,8082.9
230.417,8087.0
247.532,8015.55
264.599,8047.5
281.618,7954.0
298.59,7878.75
315.513,7805.55
332.389,7797.0
349.218,7754.55
365.999,7554.75
382.734,7565.45
399.422,7501.75
416.064,7454.3
432.659,7380.9
449.208,7265.05
465.711,7247.5
482.168,7202.0
498.579,7173.45
514.946,7051.55
531.267,6957.2
547.542,6938.85
563.773,6980.4
579.96,6811.85
596.102,6861.55
612.199,6773.3
628.252,6871.35
644.261,6732.7
660.227,6609.85
676.149,6625.25
692.027,6574.25
707.862,6475.55
723.654,6489.8
739.403,6408.8
755.109,6330.8
770.773,6342.75
786.394,6355.75
801.973,6383.25
817.509,6311.2
833.004,6319.9
848.457,6455.2
863.868,6359.4
879.238,6267.05
894.567,6168.05
909.854,6006.85
925.1,5983.05
940.306,6007.85
955.471,5912.65
970.595,5876.75
985.679,5852.6
1000.72,5852.75
1015.73,5832.95
1030.69,5775.55
1045.61,5740.9
1060.5,5676.35
1075.34,5689.55
1090.15,5752.7
1104.92,5740.5
1119.64,5733.3
1134.33,5647.4
1148.98,5595.5
1163.6,5547.55
1178.17,5538.85
1192.7,5460.25
1207.2,5443.95
1221.66,5437.8
1236.08,5444.25
1250.46,5434.1
1264.81,5542.5
1279.12,5627.5
1293.39,5519.9
1307.62,5366.85
1321.82,5325.45
1335.98,5299.15
1350.11,5248.6
1364.19,5227.1
1378.24,5184.5
1392.26,5236.25
1406.24,5178.65
1420.18,5152.05
1434.08,5122.0
1447.96,5132.45
1461.79,5075.55
1475.59,5034.3
1489.35,5019.65
1503.08,5011.65
1516.78,4989.45
1530.44,4990.45
1544.06,4931.25
1557.65,4892.05
1571.2,4861.35
1584.72,4885.55
1598.21,5096.25
1611.66,5234.3
1625.08,4906.5
1638.46,4772.0
1651.81,4748.4
1665.13,4740.0
1678.41,4719.0
1691.66,4702.95
1704.88,4812.65
1718.06,4949.7
1731.21,4915.0
1744.32,4716.3
1757.41,4620.15
1770.46,4564.7
1783.48,4530.3
1796.46,4508.15
1809.42,4486.7
1822.34,4478.2
1835.23,4460.65
1848.08,4433.65
1860.91,4450.15
1873.7,4420.2
1886.46,4389.55
1899.19,4377.55
1911.89,4352.35
1924.56,4329.35
1937.19,4321.6
1949.8,4290.1
1962.37,4272.0
1974.91,4253.35
1987.42,4227.45
1999.9,4209.0
2012.36,4181.45
2024.78,4196.4
2037.16,4155.45
2049.52,4165.2
2061.85,4119.05
2074.15,4116.75
2086.42,4104.55
2098.66,4103.75
2110.87,4087.9
2123.05,4073.6
2135.2,4076.8
2147.32,4040.0
2159.41,4048.8
2171.47,4038.75
2183.51,4015.6
2195.51,4015.85
2207.49,4003.9
2219.43,3994.65
2231.35,3985.6
2243.24,3974.85
2255.1,3968.55
2266.93,3958.9
2278.73,3961.1
2290.51,3941.7
2302.26,3945.3
2313.97,3933.0
2325.67,3931.35
2337.33,3919.25
2348.96,3920.75
2360.57,3907.9
2372.15,3908.55
2383.7,3906.9
2395.23,3899.3
2406.73,3893.45
2418.2,3887.5
2429.64,3886.25
2441.06,3879.05
2452.45,3873.55
2463.81,3872.25
2475.15,3865.35
2486.46,3857.05
2497.74,3851.7
2509.0,3853.95
2520.23,3849.6
2531.43,3842.9
2542.61,3836.0
2553.76,3835.8
2564.88,3837.0
2575.98,3832.75
2587.06,3831.6
2598.1,3825.6
2609.13,3826.25
2620.12,3819.55
2631.09,3821.35
2642.04,3813.05
2652.96,3811.75
2663.85,3810.65
2674.72,3803.1
2685.57,3803.5
2696.39,3802.3
2707.18,3801.3
2717.95,3799.25
2728.69,3794.1
2739.41,3787.0
2750.11,3789.4
2760.78,3786.35
2771.43,3787.15
2782.05,3783.4
2792.65,3779.5
2803.22,3780.5
2813.77,3774.35
2824.3,3775.05
2834.8,3773.3
2845.27,3771.35
2855.73,3770.8
2866.16,3767.15
2876.56,3768.55
2886.95,3767.7
2897.3,3768.4
2907.64,3764.25
2917.95,3763.4
2928.24,3761.3
2938.51,3762.85
2948.75,3768.15
2958.97,3768.0
2969.17,3762.6
2979.34,3762.25
2989.49,3759.6
2999.62,3755.55
3009.72,3755.15
3019.81,3751.65
3029.87,3750.1
3039.9,3750.85
3049.92,3749.95
3059.91,3751.5
3069.88,3750.5
3079.83,3751.5
3089.76,3750.1
3099.66,3746.6
3109.54,3745.2
3119.4,3743.75
3129.24,3744.55
3139.06,3742.55
3148.85,3742.9
3158.62,3742.65
3168.38,3740.2
3178.11,3740.6
3187.81,3741.55
3197.5,3739.15
3207.17,3738.3
3216.81,3739.2
3226.44,3738.9
3236.04,3739.4
3245.62,3738.6
3255.18,3739.0
3264.72,3738.75
3274.24,3738.25
3283.73,3739.35
3293.21,3738.85
3302.67,3738.2
3312.1,3737.7
3321.52,3737.25
3330.91,3736.4
3340.29,3736.7
3349.64,3736.6
3358.97,3735.1
3368.29,3736.15
3375.26,3735.6