File: spectra/VLFR_02-HDPE_nobio_Raman_6d99fcfb.csv
nm,Intensity
526.547,832.4
527.094,831.2
527.641,833.0
528.188,832.7
528.734,833.7
529.281,832.5
529.827,833.5
530.373,831.8
530.92,834.3
531.466,833.0
532.011,839.0
532.557,833.9
533.103,833.4
533.648,834.1
534.193,911.8
534.738,902.3
535.283,890.6
535.828,875.9
536.373,872.0
536.917,866.5
537.462,868.5
538.006,868.2
538.55,867.0
539.094,862.4
539.638,860.2
540.182,857.6
540.726,858.0
541.269,860.2
541.812,855.4
542.356,856.4
542.899,853.2
543.442,856.1
543.985,858.0
544.527,858.3
545.07,858.8
545.612,858.6
546.155,861.6
546.697,858.6
547.239,859.7
547.781,857.4
548.323,858.8
548.865,858.1
549.406,857.5
549.948,856.2
550.489,859.4
551.03,858.3
551.572,857.7
552.113,860.4
552.654,858.6
553.194,861.0
553.735,861.9
554.276,863.0
554.816,862.4
555.356,864.8
555.896,864.5
556.437,867.2
556.977,868.4
557.516,869.3
558.056,872.8
558.596,875.6
559.135,872.4
559.675,870.6
560.214,869.9
560.753,871.2
561.292,872.0
561.831,873.4
562.37,876.7
562.909,878.5
563.448,882.5
563.986,1022.8
564.525,906.9
565.063,897.5
565.601,896.5
566.139,1110.0
566.677,896.7
567.215,888.4
567.753,886.4
568.291,883.6
568.828,889.0
569.366,886.1
569.903,890.0
570.441,896.1
570.978,903.3
571.515,1145.5
572.052,925.3
572.589,906.8
573.126,902.8
573.662,909.0
574.199,916.9
574.735,909.7
575.272,929.9
575.808,999.5
576.344,1083.6
576.88,1022.8
577.416,991.0
577.952,959.4
578.488,965.5
579.024,974.4
579.559,988.6
580.095,1002.3
580.63,1021.3
581.166,1030.2
581.701,1048.3
582.236,1064.4
582.771,1082.8
583.306,1083.3
583.841,1097.2
584.376,1098.7
584.911,1113.0
585.445,1112.9
585.98,1117.7
586.514,1123.4
587.048,1132.0
587.583,1133.4
588.117,1130.8
588.651,1122.6
589.185,1126.8
589.719,1131.2
590.253,1127.5
590.786,1126.1
591.32,1129.1
591.853,1127.5
592.387,1124.8
592.92,1131.1
593.454,1125.2
593.987,1121.3
594.52,1123.0
595.053,1126.2
595.586,1119.0
596.119,1125.0
596.651,1119.7
597.184,1126.5
597.717,1133.0
598.249,1123.0
598.782,1129.6
599.314,1128.2
599.846,1137.1
600.379,1127.7
600.911,1134.2
601.443,1128.6
601.975,1129.9
602.507,1127.2
603.038,1125.1
603.57,1119.1
604.102,1113.7
604.633,1105.9
605.165,1098.1
605.696,1086.1
606.228,1077.1
606.759,1077.9
607.29,1075.0
607.821,1065.0
608.352,1062.2
608.883,1059.8
609.414,1048.7
609.945,1042.4
610.476,1040.5
611.006,1036.5
611.537,1028.7
612.067,1025.3
612.598,1022.2
613.128,1026.8
613.659,1017.2
614.189,1015.0
614.719,1009.4
615.249,1008.5
615.779,1004.7
616.309,1003.8
616.839,1004.1
617.369,1008.9
617.899,1007.8
618.428,1004.2
618.958,999.2
619.487,1003.6
620.017,1001.2
620.546,1003.3
621.076,999.8
621.605,1013.1
622.134,1041.3
622.663,1030.1
623.193,1004.4
623.722,1002.5
624.251,1003.1
624.78,1002.7
625.308,1004.8
625.837,1019.0
626.366,1056.6
626.895,1357.9
627.423,1765.0
627.952,1443.7
628.48,1797.7
629.009,1563.5
629.537,1411.7
630.065,1298.8
630.594,1264.2
631.122,1121.0
631.65,1051.1
632.178,1040.2
632.706,1030.2
633.234,1034.8
633.762,1025.3
634.29,1024.1
634.818,1024.7
635.346,1020.3
635.873,1022.9
636.401,1022.0
636.929,1015.4
637.456,1015.9
637.984,1014.5
638.511,1007.5
639.039,1009.2
639.566,1004.2
640.093,1002.4
640.62,998.5
641.148,1001.6
641.675,1004.7
642.202,995.9
642.729,995.6
643.256,985.9
643.783,993.0
644.31,983.3
644.837,985.7
645.364,979.6
645.891,980.8
646.417,981.8
646.944,977.6
647.471,974.5
647.997,976.3
648.524,974.6
649.051,968.0
649.577,974.3
650.104,966.7
650.63,968.2
651.157,970.0
651.683,967.1
652.209,963.0
652.736,959.9
653.262,959.5
653.788,957.9
654.314,959.5
654.84,953.9
655.366,957.1
655.893,954.8
656.419,953.0
656.945,951.9
657.471,948.9
657.997,947.3
658.522,947.0
659.048,944.1
659.574,943.3
660.1,943.9
660.626,935.0
661.152,933.0
661.677,929.5
662.203,928.5
662.729,926.0
663.123,922.9