File: spectra/VLFR_08-PLA_nobio_Raman_46733898.csv
cm-1,Intensity
-123.878,1853.65
-105.821,1854.45
-87.8007,1855.8
-69.8161,1853.6
-51.8675,1854.35
-33.9547,1856.2
-16.0776,1884.4
1.76388,3247.05
19.5698,1855.4
37.3403,1856.35
55.0755,2024.25
72.7754,2456.25
90.4402,2349.45
108.07,2311.15
125.665,2269.1
143.225,2240.85
160.75,2268.55
178.241,2227.9
195.697,2250.95
213.119,2224.5
230.506,2232.4
247.859,2252.5
265.178,2203.55
282.463,2229.85
299.713,2254.6
316.93,2261.55
334.113,2250.7
351.263,2246.35
368.379,2272.3
385.461,2316.5
402.51,2354.7
419.526,2299.7
436.508,2249.6
453.458,2245.1
470.374,2249.55
487.257,2250.85
504.107,2253.6
520.925,2250.0
537.71,2278.1
554.462,2278.1
571.182,2278.2
587.87,2293.15
604.525,2297.15
621.148,2304.55
637.739,2316.15
654.297,2331.25
670.824,2337.1
687.319,2341.1
703.782,2339.4
720.213,2330.1
736.613,2356.1
752.981,2372.3
769.317,2356.4
785.623,2344.25
801.897,2337.3
818.139,2351.2
834.351,2352.45
850.532,2415.2
866.681,2717.6
882.8,2613.8
898.888,2418.3
914.945,2400.0
930.972,2406.75
946.968,2376.7
962.934,2394.75
978.869,2366.15
994.774,2381.55
1010.65,2383.95
1026.49,2440.85
1042.31,2544.65
1058.09,2465.75
1073.85,2452.3
1089.57,2501.45
1105.27,2504.55
1120.93,2555.9
1136.57,2536.4
1152.18,2431.3
1167.75,2446.15
1183.3,2457.05
1198.82,2445.2
1214.31,2443.4
1229.77,2437.65
1245.2,2456.7
1260.6,2441.2
1275.97,2463.85
1291.32,2520.4
1306.63,2550.25
1321.92,2518.9
1337.18,2507.55
1352.41,2531.5
1367.61,2509.05
1382.78,2521.75
1397.93,2467.25
1413.05,2464.0
1428.14,2495.65
1443.2,2605.5
1458.23,2722.1
1473.23,2500.7
1488.21,2479.55
1503.16,2466.8
1518.08,2455.1
1532.97,2449.1
1547.84,2462.1
1562.68,2473.65
1577.49,2457.35
1592.27,2465.15
1607.03,2469.2
1621.76,2478.95
1636.46,2471.65
1651.14,2469.75
1665.78,2485.45
1680.41,2485.95
1695.0,2474.4
1709.57,2481.05
1724.11,2452.65
1738.62,2520.95
1753.11,2643.9
1767.57,2763.05
1782.01,2635.4
1796.41,2505.15
1810.8,2495.3
1825.15,2474.4
1839.48,2471.7
1853.79,2461.8
1868.06,2460.4
1882.31,2469.85
1896.54,2469.3
1910.74,2466.9
1924.91,2491.2
1939.06,2471.7
1953.19,2456.85
1967.28,2467.05
1981.35,2458.15
1995.4,2469.9
2009.42,2474.65
2023.42,2471.1
2037.39,2467.45
2051.33,2455.3
2065.25,2471.1
2079.15,2467.9
2093.01,2476.05
2106.86,2442.35
2120.68,2461.85
2134.47,2455.8
2148.24,2464.65
2161.99,2464.2
2175.71,2460.9
2189.41,2444.65
2203.08,2460.05
2216.73,2449.55
2230.35,2432.15
2243.95,2462.25
2257.52,2442.75
2271.07,2428.85
2284.6,2441.7
2298.1,2421.1
2311.58,2435.5
2325.03,2429.95
2338.46,2437.8
2351.87,2422.75
2365.25,2413.85
2378.61,2409.1
2391.94,2414.95
2405.26,2429.7
2418.54,2413.2
2431.81,2417.15
2445.05,2413.05
2458.27,2390.5
2471.46,2400.5
2484.63,2397.65
2497.78,2400.35
2510.9,2414.85
2524.0,2395.1
2537.08,2404.85
2550.14,2396.3
2563.17,2408.95
2576.18,2402.25
2589.17,2397.3
2602.13,2397.7
2615.07,2383.75
2627.99,2399.6
2640.89,2392.8
2653.76,2380.4
2666.61,2380.5
2679.44,2383.5
2692.25,2370.2
2705.03,2375.9
2717.79,2390.7
2730.53,2414.0
2743.25,2422.4
2755.94,2394.25
2768.61,2398.35
2781.27,2374.7
2793.89,2380.55
2806.5,2359.4
2819.09,2367.6
2831.65,2363.35
2844.19,2352.65
2856.71,2371.55
2869.21,2465.55
2881.69,2673.15
2894.14,2596.4
2906.58,2604.2
2918.99,2625.15
2931.38,2880.55
2943.75,4234.15
2956.1,3577.85
2968.42,2951.1
2980.73,2813.25
2993.01,3049.75
3005.28,3158.3
3017.52,2859.8
3029.74,2515.7
3041.94,2407.3
3054.12,2350.5
3066.28,2328.95
3078.42,2335.05
3090.54,2328.3
3102.63,2311.9
3114.71,2308.7
3126.77,2310.75
3138.8,2299.95
3150.82,2299.4
3162.81,2288.45
3174.78,2316.75
3186.74,2291.65
3198.67,2292.45
3210.58,2285.0
3222.47,2292.4
3234.35,2278.95
3246.2,2275.95
3258.03,2273.1
3269.84,2265.8
3281.64,2246.55
3293.41,2258.05
3305.16,2259.55
3316.89,2235.2
3328.61,2239.5
3340.3,2228.15
3351.97,2222.0
3363.63,2221.4
3375.26,2218.95
3386.88,2217.7
3398.47,2211.25
3410.05,2200.6
3421.6,2212.9
3433.14,2203.45
3444.66,2196.8
3456.15,2205.6
3467.63,2185.75
3479.09,2185.8
3490.53,2184.65
3501.96,2176.45
3513.36,2174.2
3524.74,2164.3
3536.11,2169.4
3547.45,2155.3
3558.78,2137.9
3570.09,2155.15
3581.37,2151.55
3592.64,2143.4
3603.9,2138.0
3615.13,2127.7
3626.34,2121.7
3637.54,2120.4
3648.72,2120.2
3659.87,2122.45
3665.45,2119.65