File: spectra/VLFR_09-PET_bio_Raman_22f87ac7.csv
nm,Intensity
526.547,835.05
527.095,832.2
527.642,832.3
528.189,833.15
528.736,831.3
529.283,832.45
529.829,832.9
530.376,833.15
530.922,833.85
531.468,833.5
532.014,834.45
532.56,833.15
533.106,833.25
533.651,850.1
534.196,2136.45
534.742,2016.0
535.287,1876.9
535.832,1833.25
536.376,1770.1
536.921,1765.75
537.465,1754.75
538.01,1768.25
538.554,1784.45
539.098,1787.45
539.642,1817.65
540.186,1842.8
540.729,1839.3
541.273,1851.35
541.816,1857.75
542.36,1870.75
542.903,1891.95
543.446,1909.65
543.988,1922.55
544.531,1946.8
545.074,1962.45
545.616,1964.25
546.158,1973.25
546.701,2004.1
547.243,2009.2
547.785,2018.85
548.326,2040.95
548.868,2061.25
549.41,2065.35
549.951,2071.95
550.492,2112.65
551.034,2107.35
551.575,2123.9
552.116,2135.7
552.656,2162.75
553.197,2162.3
553.738,2175.0
554.278,2189.1
554.819,2211.0
555.359,2218.9
555.899,2242.4
556.439,2267.7
556.979,2293.7
557.519,2484.15
558.058,2348.35
558.598,2320.6
559.137,2302.75
559.677,2325.15
560.216,2353.45
560.755,2364.8
561.294,2374.4
561.833,2402.75
562.371,2419.35
562.91,2441.65
563.449,2445.25
563.987,2483.7
564.525,2530.7
565.064,2678.6
565.602,2622.45
566.14,2631.85
566.678,2560.3
567.216,2548.5
567.753,2630.5
568.291,2608.55
568.828,2615.45
569.366,2640.1
569.903,2675.65
570.44,2706.8
570.977,2841.4
571.514,3004.95
572.051,2822.85
572.588,2759.45
573.125,2766.8
573.661,2783.35
574.198,2797.5
574.734,2811.1
575.271,2859.2
575.807,2857.25
576.343,2865.2
576.879,2890.95
577.415,2900.65
577.951,2897.45
578.486,2911.3
579.022,2931.4
579.557,2938.75
580.093,2934.95
580.628,2964.5
581.164,2979.0
581.699,3115.1
582.234,4309.15
582.769,3089.1
583.304,3053.35
583.838,3059.9
584.373,3068.95
584.908,3092.0
585.442,3188.75
585.977,3742.8
586.511,3481.0
587.045,3192.1
587.58,3169.65
588.114,3153.65
588.648,3146.35
589.182,3140.95
589.715,3141.85
590.249,3156.65
590.783,3169.35
591.316,3177.95
591.85,3183.9
592.383,3173.2
592.917,3188.25
593.45,3175.85
593.983,3193.15
594.516,3208.95
595.049,3221.7
595.582,3237.65
596.115,3256.85
596.648,3258.35
597.18,3273.5
597.713,3292.1
598.245,3312.7
598.778,3332.2
599.31,3346.25
599.842,3332.4
600.375,3344.45
600.907,3335.65
601.439,3338.65
601.971,3342.4
602.503,3370.55
603.034,3399.1
603.566,3407.8
604.098,3406.55
604.629,3405.15
605.161,3391.6
605.692,3374.65
606.224,3390.4
606.755,3395.1
607.286,3430.5
607.817,3459.5
608.348,3490.65
608.879,3521.85
609.41,3546.55
609.941,3555.7
610.472,3563.1
611.002,3574.65
611.533,3597.4
612.063,3655.0
612.594,3708.95
613.124,3765.65
613.655,3809.85
614.185,3830.65
614.715,3854.75
615.245,3876.1
615.775,3880.15
616.305,3920.7
616.835,3959.05
617.365,4005.9
617.895,4025.8
618.425,4095.5
618.954,4094.55
619.484,4132.65
620.013,4153.25
620.543,4157.2
621.072,4194.45
621.602,4221.15
622.131,4273.5
622.66,4316.85
623.189,4356.9
623.718,4413.1
624.247,4457.25
624.776,4499.75
625.305,4501.05
625.834,4544.5
626.363,4540.45
626.891,4574.7
627.42,4607.7
627.949,4633.2
628.477,4683.85
629.006,4738.0
629.534,4775.1
630.062,4795.3
630.591,4834.5
631.119,4886.05
631.647,4963.8
632.175,5008.55
632.703,4999.1
633.231,4971.95
633.759,4979.6
634.287,4953.3
634.815,4988.6
635.343,5020.4
635.871,5120.95
636.398,5332.65
636.926,5313.95
637.454,5169.2
637.981,5151.25
638.509,5155.3
639.036,5202.0
639.564,5211.15
640.091,5237.2
640.618,5229.55
641.146,5261.4
641.673,5278.1
642.2,5312.2
642.727,5274.7
643.254,5261.35
643.781,5242.9
644.308,5252.3
644.835,5237.65
645.362,5252.45
645.889,5268.4
646.416,5295.25
646.942,5312.4
647.469,5314.2
647.996,5344.95
648.522,5308.95
649.049,5310.45
649.576,5292.0
650.102,5289.1
650.629,5292.75
651.155,5284.2
651.682,5326.75
652.208,5340.15
652.734,5331.5
653.261,5325.6
653.787,5336.9
654.313,5368.9
654.839,5348.8
655.365,5340.05
655.892,5340.05
656.418,5327.2
656.944,5378.75
657.47,5356.35
657.996,5358.25
658.522,5377.65
659.048,5378.6
659.574,5371.8
660.099,5401.15
660.625,5363.5
661.151,5324.85
661.677,5302.7
662.203,5292.9
662.728,5315.45
663.123,5288.05