File: spectra/VLFR_02-HDPE_nobio_Raman_f04227d9.csv
nm,Intensity
526.508,830.1
527.055,830.9
527.602,830.7
528.149,830.7
528.695,831.5
529.241,830.7
529.787,830.4
530.334,830.4
530.879,831.0
531.425,829.5
531.971,832.3
532.516,831.7
533.062,830.1
533.607,830.1
534.152,908.8
534.697,910.2
535.242,910.1
535.786,868.9
536.331,859.1
536.876,853.8
537.42,850.7
537.964,851.9
538.508,848.9
539.052,844.6
539.596,843.2
540.14,841.9
540.683,839.3
541.227,841.4
541.77,840.0
542.313,839.7
542.856,839.7
543.399,839.1
543.942,840.8
544.485,840.2
545.027,837.3
545.57,837.8
546.112,839.8
546.654,836.5
547.196,837.5
547.738,839.1
548.28,838.5
548.822,837.7
549.363,837.6
549.905,837.9
550.446,839.3
550.988,838.6
551.529,838.8
552.07,839.1
552.611,838.8
553.152,838.9
553.692,840.5
554.233,841.5
554.773,842.2
555.314,842.0
555.854,843.6
556.394,844.4
556.934,844.1
557.474,846.4
558.014,846.9
558.553,849.0
559.093,847.0
559.632,847.2
560.172,846.8
560.711,843.5
561.25,845.6
561.789,845.0
562.328,849.2
562.867,848.7
563.406,853.7
563.944,952.2
564.483,871.3
565.021,863.9
565.559,856.3
566.098,915.1
566.636,858.2
567.174,853.7
567.711,866.3
568.249,850.9
568.787,850.0
569.324,850.6
569.862,850.2
570.399,855.8
570.936,857.0
571.474,1011.2
572.011,880.7
572.548,857.1
573.084,851.2
573.621,850.4
574.158,857.4
574.694,848.8
575.231,852.7
575.767,892.1
576.303,1049.1
576.84,950.1
577.376,921.0
577.912,861.1
578.447,851.5
578.983,852.3
579.519,850.4
580.054,850.7
580.59,849.1
581.125,846.9
581.661,848.2
582.196,849.1
582.731,847.7
583.266,848.8
583.801,846.6
584.336,847.0
584.87,846.5
585.405,847.6
585.94,848.3
586.474,847.7
587.008,848.7
587.543,848.5
588.077,850.4
588.611,850.0
589.145,846.7
589.679,849.9
590.213,850.6
590.747,849.7
591.28,851.7
591.814,848.7
592.347,851.2
592.881,849.4
593.414,850.5
593.947,852.1
594.48,851.3
595.014,849.8
595.547,853.5
596.079,853.4
596.612,854.2
597.145,855.7
597.678,856.3
598.21,858.4
598.743,859.2
599.275,859.2
599.807,860.6
600.34,861.5
600.872,862.1
601.404,860.3
601.936,868.1
602.468,869.2
603.0,863.1
603.532,863.8
604.063,864.3
604.595,862.6
605.126,861.9
605.658,860.0
606.189,860.3
606.721,858.8
607.252,857.7
607.783,858.2
608.314,858.5
608.845,857.7
609.376,859.9
609.907,858.6
610.438,857.7
610.968,859.1
611.499,860.5
612.03,859.7
612.56,859.4
613.091,856.3
613.621,859.5
614.151,856.3
614.681,857.1
615.212,860.0
615.742,860.5
616.272,862.4
616.802,866.7
617.332,878.7
617.861,876.8
618.391,879.5
618.921,875.3
619.45,880.1
619.98,882.4
620.509,882.5
621.039,891.8
621.568,916.2
622.097,972.1
622.627,963.9
623.156,903.6
623.685,886.5
624.214,883.7
624.743,883.0
625.272,891.5
625.801,905.1
626.33,963.1
626.858,1460.0
627.387,2245.1
627.916,1656.1
628.444,2146.6
628.973,1586.9
629.501,1412.2
630.029,1234.0
630.558,1201.4
631.086,1012.4
631.614,909.9
632.142,889.5
632.67,884.9
633.198,877.9
633.726,871.5
634.254,869.7
634.782,866.9
635.31,862.3
635.838,860.3
636.365,861.4
636.893,858.5
637.421,855.0
637.948,853.7
638.476,848.9
639.003,851.0
639.531,849.7
640.058,850.5
640.585,849.0
641.113,849.9
641.64,849.2
642.167,849.8
642.694,848.8
643.221,849.1
643.748,849.1
644.275,849.0
644.802,847.8
645.329,848.5
645.856,849.7
646.382,848.2
646.909,848.3
647.436,847.2
647.962,849.1
648.489,848.7
649.016,848.0
649.542,846.6
650.069,846.6
650.595,848.2
651.121,849.5
651.648,849.2
652.174,849.0
652.7,850.9
653.227,848.0
653.753,850.1
654.279,849.1
654.805,848.6
655.331,849.5
655.857,849.7
656.383,847.1
656.909,849.2
657.435,849.7
657.961,849.7
658.487,848.6
659.013,850.0
659.538,848.8
660.064,850.7
660.59,847.0
661.116,846.7
661.641,845.2
662.167,846.7
662.692,846.2
663.087,845.1