File: spectra/VLFR_08-PLA_bio_Raman_68be2a65.csv
nm,Intensity
526.547,832.4
527.095,832.4
527.642,832.0
528.189,831.85
528.736,832.0
529.283,832.15
529.829,832.75
530.376,833.7
530.922,832.1
531.468,832.05
532.014,833.1
532.56,832.0
533.106,832.8
533.651,833.6
534.196,926.0
534.742,905.15
535.287,898.0
535.832,895.35
536.376,891.7
536.921,889.55
537.465,889.15
538.01,886.25
538.554,881.75
539.098,882.4
539.642,881.55
540.186,879.1
540.729,888.55
541.273,886.65
541.816,884.85
542.36,883.7
542.903,885.65
543.446,894.85
543.988,911.05
544.531,892.3
545.074,885.1
545.616,886.3
546.158,886.25
546.701,892.05
547.243,887.9
547.785,884.25
548.326,886.55
548.868,887.3
549.41,889.35
549.951,888.5
550.492,892.05
551.034,888.25
551.575,890.5
552.116,889.45
552.656,888.45
553.197,891.7
553.738,892.4
554.278,892.75
554.819,888.8
555.359,887.9
555.899,886.15
556.439,885.35
556.979,888.3
557.519,893.7
558.058,936.85
558.598,897.05
559.137,892.95
559.677,891.4
560.216,889.85
560.755,891.95
561.294,889.35
561.833,892.95
562.371,1008.3
562.91,895.8
563.449,906.85
563.987,897.75
564.525,896.75
565.064,906.2
565.602,903.0
566.14,914.75
566.678,910.1
567.216,896.0
567.753,895.85
568.291,897.75
568.828,898.15
569.366,901.6
569.903,898.35
570.44,900.25
570.977,900.2
571.514,910.55
572.051,909.25
572.588,904.9
573.125,906.95
573.661,910.5
574.198,907.35
574.734,913.95
575.271,906.4
575.807,906.5
576.343,914.3
576.879,936.0
577.415,916.55
577.951,908.55
578.486,908.15
579.022,909.95
579.557,908.1
580.093,909.7
580.628,908.45
581.164,910.15
581.699,910.9
582.234,911.0
582.769,915.6
583.304,914.9
583.838,912.45
584.373,915.75
584.908,912.85
585.442,916.85
585.977,916.05
586.511,920.05
587.045,935.25
587.58,946.05
588.114,923.4
588.648,916.15
589.182,913.0
589.715,912.75
590.249,911.95
590.783,913.1
591.316,914.35
591.85,915.1
592.383,912.6
592.917,914.4
593.45,910.05
593.983,908.4
594.516,912.15
595.049,909.95
595.582,912.0
596.115,913.75
596.648,912.75
597.18,912.05
597.713,912.0
598.245,910.35
598.778,911.85
599.31,908.1
599.842,910.2
600.375,908.9
600.907,906.2
601.439,909.0
601.971,906.45
602.503,906.8
603.034,904.95
603.566,905.1
604.098,905.55
604.629,905.85
605.161,902.3
605.692,904.75
606.224,904.2
606.755,903.65
607.286,901.7
607.817,902.05
608.348,901.8
608.879,904.1
609.41,904.15
609.941,901.6
610.472,899.0
611.002,900.65
611.533,902.95
612.063,898.8
612.594,902.45
613.124,903.05
613.655,902.5
614.185,902.05
614.715,903.5
615.245,902.1
615.775,900.8
616.305,900.95
616.835,905.35
617.365,903.35
617.895,902.65
618.425,902.05
618.954,904.95
619.484,904.15
620.013,902.75
620.543,900.85
621.072,900.45
621.602,905.2
622.131,906.0
622.66,908.4
623.189,910.4
623.718,908.75
624.247,908.15
624.776,903.7
625.305,903.65
625.834,906.4
626.363,906.05
626.891,907.35
627.42,906.8
627.949,910.85
628.477,942.95
629.006,932.35
629.534,936.15
630.062,936.75
630.591,965.2
631.119,1140.2
631.647,1018.95
632.175,967.6
632.703,955.35
633.231,998.1
633.759,980.75
634.287,938.5
634.815,915.15
635.343,908.95
635.871,907.2
636.398,906.4
636.926,905.7
637.454,903.75
637.981,902.1
638.509,904.65
639.036,901.65
639.564,903.9
640.091,902.05
640.618,904.5
641.146,905.35
641.673,904.35
642.2,901.8
642.727,904.15
643.254,904.75
643.781,904.15
644.308,900.75
644.835,899.3
645.362,901.15
645.889,899.8
646.416,901.05
646.942,901.55
647.469,901.35
647.996,900.35
648.522,904.95
649.049,908.4
649.576,922.95
650.102,925.25
650.629,912.0
651.155,902.75
651.682,901.35
652.208,896.55
652.734,896.95
653.261,892.6
653.787,891.55
654.313,892.5
654.839,891.1
655.365,891.45
655.892,889.2
656.418,890.2
656.944,889.2
657.47,885.95
657.996,891.25
658.522,886.55
659.048,886.5
659.574,886.3
660.099,886.65
660.625,886.75
661.151,882.65
661.677,884.2
662.203,884.1
662.728,884.95
663.123,883.4