File: spectra/VLFR_08-PLA_nobio_Raman_dc2b7e85.csv
nm,Intensity
526.508,831.6
527.055,830.3
527.602,830.2
528.149,831.1
528.695,829.8
529.241,829.3
529.787,830.0
530.334,830.3
530.879,831.2
531.425,829.7
531.971,832.3
532.516,830.9
533.062,830.5
533.607,831.9
534.152,1066.9
534.697,1022.7
535.242,987.9
535.786,967.3
536.331,961.9
536.876,965.7
537.42,954.5
537.964,953.5
538.508,939.4
539.052,937.7
539.596,937.2
540.14,932.8
540.683,951.1
541.227,950.4
541.77,944.0
542.313,936.5
542.856,940.6
543.399,961.1
543.942,973.2
544.485,954.0
545.027,942.3
545.57,941.0
546.112,937.3
546.654,942.6
547.196,946.8
547.738,942.7
548.28,941.9
548.822,944.7
549.363,948.4
549.905,949.7
550.446,950.5
550.988,954.7
551.529,959.4
552.07,961.6
552.611,965.2
553.152,963.5
553.692,960.0
554.233,970.3
554.773,959.4
555.314,959.5
555.854,955.4
556.394,955.8
556.934,959.6
557.474,973.5
558.014,1092.2
558.553,1001.6
559.093,976.5
559.632,975.1
560.172,966.7
560.711,967.6
561.25,963.3
561.789,959.3
562.328,966.2
562.867,975.5
563.406,1009.2
563.944,993.5
564.483,985.1
565.021,1007.2
565.559,997.1
566.098,1031.3
566.636,999.6
567.174,977.9
567.711,984.8
568.249,986.2
568.787,987.1
569.324,988.6
569.862,981.6
570.399,987.5
570.936,985.9
571.474,1006.3
572.011,1009.6
572.548,999.8
573.084,1000.4
573.621,1012.0
574.158,1000.5
574.694,1018.0
575.231,995.7
575.767,995.7
576.303,1014.3
576.84,1079.9
577.376,1021.1
577.912,1000.1
578.447,994.9
578.983,999.5
579.519,998.7
580.054,998.8
580.59,998.3
581.125,996.1
581.661,995.1
582.196,997.9
582.731,1000.3
583.266,1002.2
583.801,1001.2
584.336,1000.6
584.87,1003.0
585.405,1003.5
585.94,1005.2
586.474,1022.0
587.008,1056.4
587.543,1085.5
588.077,1028.8
588.611,1010.1
589.145,1005.1
589.679,1006.3
590.213,1007.5
590.747,1009.5
591.28,1006.8
591.814,1002.9
592.347,1012.0
592.881,1005.4
593.414,1004.7
593.947,1000.7
594.48,1000.5
595.014,1005.6
595.547,1008.3
596.079,1011.3
596.612,1005.4
597.145,1008.2
597.678,1007.9
598.21,1013.8
598.743,1004.5
599.275,1016.0
599.807,1008.9
600.34,1011.9
600.872,1005.9
601.404,1012.3
601.936,1010.1
602.468,1011.0
603.0,1009.5
603.532,1013.9
604.063,1015.9
604.595,1007.8
605.126,1006.8
605.658,1005.4
606.189,1007.0
606.721,1009.4
607.252,1007.1
607.783,1014.2
608.314,1011.1
608.845,1009.8
609.376,1006.4
609.907,1012.9
610.438,1007.7
610.968,1012.9
611.499,1009.5
612.03,1010.1
612.56,1010.6
613.091,1018.0
613.621,1011.6
614.151,1017.7
614.681,1014.9
615.212,1014.3
615.742,1021.9
616.272,1008.5
616.802,1016.9
617.332,1020.7
617.861,1014.5
618.391,1019.1
618.921,1018.1
619.45,1017.3
619.98,1011.4
620.509,1020.0
621.039,1013.9
621.568,1014.6
622.097,1015.3
622.627,1018.8
623.156,1029.2
623.685,1029.7
624.214,1019.6
624.743,1016.9
625.272,1012.8
625.801,1016.2
626.33,1011.9
626.858,1014.3
627.387,1016.4
627.916,1026.1
628.444,1096.9
628.973,1079.0
629.501,1080.2
630.029,1086.7
630.558,1144.5
631.086,1580.9
631.614,1301.8
632.142,1159.7
632.67,1128.5
633.198,1235.5
633.726,1194.1
634.254,1096.5
634.782,1031.1
635.31,1012.4
635.838,1004.4
636.365,999.7
636.893,1001.5
637.421,997.1
637.948,992.8
638.476,993.4
639.003,999.6
639.531,996.2
640.058,993.3
640.585,998.5
641.113,991.7
641.64,989.5
642.167,990.2
642.694,993.4
643.221,987.4
643.748,982.1
644.275,979.7
644.802,980.9
645.329,983.3
645.856,981.6
646.382,970.8
646.909,986.3
647.436,981.4
647.962,977.8
648.489,976.6
649.016,976.1
649.542,969.5
650.069,970.6
650.595,970.6
651.121,968.9
651.648,967.4
652.174,965.4
652.7,966.4
653.227,968.4
653.753,972.1
654.279,965.7
654.805,965.5
655.331,965.0
655.857,961.5
656.383,963.0
656.909,964.9
657.435,962.4
657.961,966.3
658.487,957.9
659.013,962.1
659.538,957.9
660.064,957.4
660.59,956.8
661.116,956.1
661.641,953.7
662.167,954.6
662.692,954.7
663.087,957.2