File: spectra/VLFR_02-HDPE_nobio_Raman_002b16a1.csv
nm,Intensity
526.486,830.3
527.033,829.1
527.579,829.4
528.126,830.4
528.672,829.2
529.219,829.1
529.765,830.4
530.311,830.1
530.857,830.5
531.403,831.0
531.948,832.3
532.494,830.7
533.039,829.1
533.585,830.2
534.13,889.4
534.675,880.1
535.22,874.9
535.764,857.5
536.309,852.6
536.854,852.1
537.398,849.6
537.942,848.9
538.486,847.4
539.03,846.1
539.574,842.4
540.118,840.9
540.662,840.0
541.205,843.4
541.749,840.3
542.292,841.8
542.835,839.7
543.378,837.7
543.921,841.0
544.464,840.2
545.006,838.7
545.549,839.6
546.091,840.5
546.634,839.3
547.176,839.2
547.718,841.4
548.26,838.6
548.802,838.8
549.343,839.2
549.885,837.3
550.426,840.2
550.968,839.6
551.509,839.3
552.05,841.3
552.591,840.0
553.132,841.3
553.673,841.9
554.214,842.6
554.754,840.3
555.295,840.9
555.835,844.4
556.375,844.3
556.915,845.9
557.455,848.6
557.995,846.8
558.535,849.0
559.075,847.7
559.614,846.1
560.154,846.1
560.693,844.8
561.232,847.3
561.772,848.4
562.311,848.9
562.85,851.7
563.388,853.3
563.927,906.1
564.466,873.0
565.004,861.9
565.543,860.1
566.081,927.8
566.619,863.3
567.157,855.7
567.695,861.3
568.233,849.0
568.771,850.6
569.309,850.3
569.846,852.6
570.384,853.1
570.921,859.0
571.458,955.1
571.995,881.8
572.532,859.5
573.069,855.7
573.606,855.4
574.143,865.8
574.68,856.2
575.216,858.9
575.753,909.4
576.289,1003.0
576.825,937.2
577.361,918.5
577.897,869.2
578.433,865.8
578.969,867.0
579.505,867.1
580.041,867.5
580.576,871.5
581.112,873.6
581.647,878.6
582.183,879.9
582.718,879.9
583.253,884.3
583.788,884.9
584.323,888.5
584.858,888.2
585.392,892.8
585.927,893.2
586.462,895.1
586.996,898.6
587.53,897.1
588.065,897.5
588.599,900.9
589.133,901.7
589.667,905.7
590.201,906.2
590.735,911.9
591.268,914.4
591.802,912.5
592.335,919.4
592.869,918.1
593.402,915.1
593.936,917.5
594.469,916.8
595.002,916.3
595.535,918.7
596.068,917.3
596.601,921.9
597.133,921.2
597.666,923.0
598.199,917.9
598.731,919.7
599.264,922.2
599.796,922.4
600.328,918.8
600.86,921.8
601.393,921.6
601.925,923.3
602.457,917.2
602.988,918.9
603.52,919.0
604.052,914.7
604.583,915.2
605.115,906.9
605.646,905.5
606.178,903.8
606.709,901.3
607.24,897.0
607.771,897.9
608.302,901.6
608.833,899.1
609.364,893.7
609.895,895.1
610.426,892.0
610.957,892.2
611.487,890.6
612.018,892.5
612.548,888.4
613.078,886.5
613.609,884.9
614.139,887.1
614.669,888.4
615.199,889.3
615.729,886.7
616.259,886.9
616.789,888.2
617.319,891.5
617.849,890.3
618.378,887.9
618.908,890.1
619.437,891.2
619.967,893.2
620.496,894.6
621.025,895.1
621.555,907.6
622.084,933.1
622.613,937.1
623.142,900.7
623.671,891.9
624.2,892.7
624.729,889.4
625.258,897.8
625.786,898.0
626.315,929.9
626.844,1169.1
627.372,1669.0
627.901,1329.9
628.429,1544.9
628.957,1441.9
629.486,1283.2
630.014,1156.8
630.542,1114.6
631.07,995.5
631.598,914.6
632.126,898.3
632.654,892.3
633.182,889.2
633.71,884.9
634.237,884.6
634.765,882.8
635.293,880.6
635.82,880.3
636.348,881.9
636.875,876.9
637.403,874.8
637.93,873.2
638.458,873.1
638.985,873.2
639.512,874.9
640.039,873.0
640.566,872.7
641.093,874.3
641.62,874.3
642.147,875.5
642.674,873.2
643.201,871.5
643.728,870.6
644.255,875.0
644.781,873.1
645.308,871.9
645.835,874.4
646.361,870.2
646.888,873.5
647.414,873.0
647.941,871.2
648.467,872.1
648.993,870.5
649.52,872.6
650.046,870.3
650.572,870.6
651.098,870.6
651.625,870.2
652.151,868.2
652.677,871.3
653.203,870.1
653.729,867.9
654.255,870.0
654.78,870.7
655.306,870.2
655.832,866.4
656.358,864.5
656.884,867.1
657.409,865.3
657.935,865.5
658.461,865.6
658.986,867.2
659.512,864.9
660.037,867.7
660.563,866.6
661.088,864.0
661.614,862.1
662.139,862.5
662.664,859.8
663.058,861.5