File: spectra/VLFR_07-PET_bio_Raman_b24e2c09.csv
nm,Intensity
791.377,16845.6
792.477,15457.5
793.576,14586.5
794.676,14024.0
795.775,13844.0
796.874,13939.6
797.973,13654.8
799.072,13776.5
800.171,13640.2
801.27,13702.3
802.368,13647.4
803.467,13242.9
804.565,13139.3
805.664,13096.8
806.762,12690.6
807.86,12622.6
808.958,12706.4
810.056,12300.7
811.153,12361.8
812.251,12141.1
813.349,12074.2
814.446,12006.0
815.543,11912.1
816.64,11653.9
817.737,11541.0
818.834,11518.7
819.931,11490.6
821.028,11354.7
822.125,11159.9
823.221,11097.9
824.317,10956.1
825.414,11178.8
826.51,10810.4
827.606,10557.6
828.702,10625.6
829.797,10487.1
830.893,10545.6
831.988,10388.2
833.084,10312.3
834.179,10072.5
835.274,10076.8
836.369,9905.02
837.464,10089.0
838.559,9956.32
839.654,10065.8
840.748,9986.44
841.843,10267.0
842.937,9773.84
844.031,9629.58
845.125,9345.54
846.219,9127.28
847.313,9171.66
848.407,8940.9
849.5,9024.54
850.593,8975.44
851.687,8910.02
852.78,8844.52
853.873,8838.82
854.966,8760.62
856.059,8588.64
857.151,8518.14
858.244,8797.0
859.336,8668.76
860.428,8777.26
861.52,8634.38
862.612,8361.1
863.704,8291.76
864.796,8331.32
865.888,8261.04
866.979,8111.8
868.07,8063.68
869.162,8098.76
870.253,8027.62
871.344,8211.62
872.434,8576.78
873.525,8369.08
874.615,8163.8
875.706,7965.22
876.796,7845.28
877.886,7623.32
878.976,7626.0
880.066,7559.44
881.156,7525.38
882.245,7576.6
883.335,7470.6
884.424,7409.88
885.513,7441.6
886.602,7349.22
887.691,7280.42
888.78,7059.16
889.868,7024.56
890.957,7043.4
892.045,7060.64
893.133,7023.46
894.221,6886.2
895.309,6799.4
896.397,6772.28
897.484,7132.46
898.571,7699.08
899.659,7174.06
900.746,6581.72
901.833,6447.02
902.92,6434.48
904.006,6463.3
905.093,6338.16
906.179,6530.5
907.266,6822.7
908.352,6859.18
909.438,6513.18
910.523,6201.86
911.609,6048.16
912.695,5971.98
913.78,5886.98
914.865,5889.52
915.95,5777.62
917.035,5781.04
918.12,5719.2
919.204,5628.54
920.289,5649.56
921.373,5522.14
922.457,5477.74
923.541,5488.38
924.625,5430.92
925.709,5425.46
926.792,5327.9
927.876,5269.9
928.959,5244.94
930.042,5216.92
931.125,5127.9
932.208,5088.52
933.29,5112.16
934.373,5039.24
935.455,4976.22
936.537,4970.88
937.619,4951.32
938.701,4876.5
939.782,4863.52
940.864,4850.68
941.945,4814.78
943.026,4778.5
944.107,4712.04
945.188,4719.32
946.269,4676.16
947.349,4650.22
948.43,4630.46
949.51,4600.74
950.59,4566.22
951.67,4546.7
952.75,4543.2
953.829,4498.62
954.909,4467.16
955.988,4464.9
957.067,4423.92
958.146,4431.48
959.224,4383.2
960.303,4379.44
961.381,4346.12
962.459,4346.88
963.537,4311.32
964.615,4300.3
965.693,4295.12
966.771,4261.96
967.848,4261.02
968.925,4242.18
970.002,4228.02
971.079,4209.52
972.156,4205.24
973.232,4174.16
974.309,4167.92
975.385,4155.3
976.461,4150.8
977.537,4142.5
978.612,4122.08
979.688,4104.82
980.763,4103.3
981.838,4093.72
982.913,4074.98
983.988,4073.08
985.063,4054.06
986.137,4052.88
987.211,4044.34
988.285,4031.16
989.359,4015.88
990.433,4012.28
991.506,3999.76
992.58,3997.66
993.653,3985.98
994.726,3975.8
995.799,3974.06
996.872,3966.12
997.944,3960.76
999.016,3950.7
1000.09,3946.36
1001.16,3936.98
1002.23,3931.48
1003.3,3921.08
1004.38,3920.56
1005.45,3913.28
1006.52,3909.04
1007.59,3902.7
1008.66,3899.02
1009.73,3894.92
1010.8,3885.8
1011.87,3880.82
1012.94,3879.88
1014.01,3877.22
1015.08,3873.38
1016.15,3869.74
1017.22,3867.46
1018.29,3862.26
1019.36,3860.2
1020.42,3856.42
1021.49,3861.22
1022.56,3867.3
1023.63,3864.72
1024.7,3850.32
1025.76,3844.48
1026.83,3843.66
1027.9,3834.76
1028.97,3828.74
1030.03,3825.74
1031.1,3823.18
1032.17,3822.64
1033.23,3822.84
1034.3,3826.86
1035.36,3827.26
1036.43,3823.32
1037.5,3817.6
1038.56,3810.04
1039.63,3808.84
1040.69,3806.32
1041.76,3803.58
1042.82,3802.58
1043.89,3801.38
1044.95,3798.9
1046.01,3797.54
1047.08,3797.74
1048.14,3796.0
1049.2,3794.58
1050.27,3793.94
1051.33,3795.88
1052.39,3794.34
1053.46,3791.88
1054.52,3791.88
1055.58,3791.74
1056.64,3790.54
1057.7,3790.48
1058.77,3789.4
1059.83,3789.72
1060.89,3789.14
1061.95,3788.5
1063.01,3789.06
1064.07,3787.78
1065.13,3787.5
1066.19,3787.18
1067.25,3786.66
1068.05,3786.5