File: spectra/VLFR_08-PLA_nobio_Raman_7e306f34.csv
nm,Intensity
526.486,829.2
527.033,829.8
527.579,829.2
528.126,829.7
528.672,830.3
529.219,828.3
529.765,829.6
530.311,830.0
530.857,829.7
531.403,828.8
531.948,834.3
532.494,832.2
533.039,829.5
533.585,830.0
534.13,1032.7
534.675,992.3
535.22,955.1
535.764,934.5
536.309,924.4
536.854,925.1
537.398,918.8
537.942,917.0
538.486,906.5
539.03,901.4
539.574,901.6
540.118,889.3
540.662,910.3
541.205,914.4
541.749,907.6
542.292,898.2
542.835,897.2
543.378,919.2
543.921,932.4
544.464,911.9
545.006,903.7
545.549,901.4
546.091,901.1
546.634,896.1
547.176,901.9
547.718,897.7
548.26,900.4
548.802,899.2
549.343,901.4
549.885,901.5
550.426,906.0
550.968,909.5
551.509,909.5
552.05,913.0
552.591,913.1
553.132,914.3
553.673,910.8
554.214,920.8
554.754,914.2
555.295,903.2
555.835,906.2
556.375,908.3
556.915,909.4
557.455,924.6
557.995,1034.6
558.535,947.4
559.075,924.8
559.614,918.8
560.154,917.1
560.693,913.2
561.232,910.2
561.772,913.2
562.311,912.6
562.85,925.3
563.388,957.9
563.927,937.8
564.466,923.7
565.004,944.4
565.543,943.4
566.081,969.2
566.619,943.0
567.157,925.2
567.695,926.3
568.233,926.3
568.771,929.5
569.309,932.0
569.846,931.4
570.384,925.8
570.921,929.4
571.458,945.0
571.995,947.0
572.532,941.5
573.069,941.5
573.606,946.2
574.143,939.9
574.68,953.8
575.216,935.4
575.753,929.6
576.289,945.5
576.825,1011.8
577.361,956.6
577.897,940.1
578.433,932.5
578.969,934.0
579.505,935.0
580.041,931.3
580.576,936.4
581.112,934.6
581.647,935.9
582.183,931.8
582.718,933.8
583.253,935.1
583.788,934.5
584.323,935.6
584.858,935.1
585.392,939.8
585.927,942.7
586.462,951.4
586.996,992.0
587.53,1013.1
588.065,967.7
588.599,942.4
589.133,935.5
589.667,941.3
590.201,939.0
590.735,940.2
591.268,938.8
591.802,944.2
592.335,938.9
592.869,940.4
593.402,938.9
593.936,937.3
594.469,937.3
595.002,940.2
595.535,942.0
596.068,938.2
596.601,941.5
597.133,937.9
597.666,943.4
598.199,944.1
598.731,943.3
599.264,943.1
599.796,942.3
600.328,941.8
600.86,941.3
601.393,939.9
601.925,940.4
602.457,944.1
602.988,940.0
603.52,942.4
604.052,941.8
604.583,943.5
605.115,942.6
605.646,939.4
606.178,939.9
606.709,942.4
607.24,940.8
607.771,941.3
608.302,940.9
608.833,941.5
609.364,946.1
609.895,944.6
610.426,943.1
610.957,945.3
611.487,943.5
612.018,940.5
612.548,946.0
613.078,948.9
613.609,947.1
614.139,944.2
614.669,948.2
615.199,944.9
615.729,946.0
616.259,947.3
616.789,946.0
617.319,950.0
617.849,948.5
618.378,948.6
618.908,946.5
619.437,944.8
619.967,949.0
620.496,942.4
621.025,947.5
621.555,949.3
622.084,946.8
622.613,959.2
623.142,964.6
623.671,955.8
624.2,952.7
624.729,948.4
625.258,949.2
625.786,945.1
626.315,951.5
626.844,944.8
627.372,949.6
627.901,957.7
628.429,1025.9
628.957,1012.8
629.486,1013.3
630.014,1016.7
630.542,1074.1
631.07,1458.0
631.598,1232.3
632.126,1082.9
632.654,1056.9
633.182,1152.6
633.71,1120.6
634.237,1019.6
634.765,965.1
635.293,950.7
635.82,944.1
636.348,945.7
636.875,941.0
637.403,942.2
637.93,936.2
638.458,937.3
638.985,937.4
639.512,937.7
640.039,930.9
640.566,935.9
641.093,936.3
641.62,936.6
642.147,936.9
642.674,938.0
643.201,937.4
643.728,928.8
644.255,926.9
644.781,930.2
645.308,927.8
645.835,925.8
646.361,924.5
646.888,927.0
647.414,929.1
647.941,924.7
648.467,925.1
648.993,923.4
649.52,927.5
650.046,919.8
650.572,921.8
651.098,922.2
651.625,922.9
652.151,918.9
652.677,920.0
653.203,917.7
653.729,918.2
654.255,916.7
654.78,918.0
655.306,918.3
655.832,916.0
656.358,919.3
656.884,918.6
657.409,921.4
657.935,919.5
658.461,911.2
658.986,915.2
659.512,918.4
660.037,920.5
660.563,913.1
661.088,913.2
661.614,914.1
662.139,913.9
662.664,907.9
663.058,908.9