File: spectra/VLFR_07-PET_nobio_Raman_17852a75.csv
nm,Intensity
791.75,14958.9
792.846,13932.0
793.942,13087.0
795.037,13076.7
796.133,12823.3
797.228,12991.1
798.324,12784.5
799.419,12624.9
800.514,12737.3
801.61,12814.2
802.705,12437.7
803.8,12428.2
804.894,12205.2
805.989,12065.3
807.084,12045.9
808.178,12032.4
809.273,11876.2
810.367,11625.8
811.461,11520.6
812.556,11422.5
813.65,11336.0
814.744,11226.8
815.837,10964.7
816.931,10820.9
818.025,10857.4
819.118,10596.1
820.212,10496.8
821.305,10593.2
822.398,10461.3
823.491,10249.4
824.585,10187.7
825.677,10482.0
826.77,9999.6
827.863,9817.3
828.956,9879.7
830.048,9838.9
831.14,9647.4
832.233,9545.2
833.325,9468.3
834.417,9425.0
835.509,9281.4
836.601,9462.7
837.692,9402.9
838.784,9257.1
839.876,9300.9
840.967,9500.6
842.058,9242.3
843.149,9178.1
844.24,8819.9
845.331,8660.5
846.422,8535.4
847.513,8403.8
848.604,8429.0
849.694,8426.0
850.784,8261.5
851.875,8340.5
852.965,8258.2
854.055,8190.5
855.145,8048.4
856.235,7880.2
857.324,8044.5
858.414,8161.0
859.503,8183.8
860.593,7991.1
861.682,7777.4
862.771,7651.9
863.86,7801.1
864.949,7737.6
866.038,7542.9
867.126,7400.7
868.215,7492.9
869.303,7391.8
870.391,7560.8
871.479,7820.6
872.567,7885.3
873.655,7641.9
874.743,7450.9
875.831,7239.9
876.918,7189.9
878.006,7126.5
879.093,7097.6
880.18,6926.8
881.267,6971.5
882.354,7019.6
883.441,6938.2
884.527,7059.5
885.614,6923.4
886.7,6698.9
887.786,6627.3
888.872,6644.1
889.958,6657.7
891.044,6563.7
892.13,6479.5
893.216,6424.2
894.301,6400.5
895.386,6377.3
896.472,6476.0
897.557,6974.1
898.642,7013.2
899.726,6353.6
900.811,6114.9
901.896,6092.9
902.98,5992.0
904.064,5972.5
905.148,6046.0
906.232,6297.4
907.316,6550.1
908.4,6254.0
909.484,5935.1
910.567,5754.6
911.65,5599.8
912.734,5568.5
913.817,5470.8
914.9,5496.0
915.982,5427.3
917.065,5382.1
918.147,5361.1
919.23,5310.1
920.312,5302.0
921.394,5171.3
922.476,5156.1
923.558,5133.5
924.639,5099.8
925.721,5047.5
926.802,5044.5
927.884,4949.7
928.965,4909.0
930.046,4905.5
931.126,4879.3
932.207,4795.7
933.288,4798.1
934.368,4744.6
935.448,4705.1
936.528,4672.0
937.608,4650.7
938.688,4616.2
939.767,4588.4
940.847,4592.6
941.926,4518.1
943.005,4509.5
944.084,4469.1
945.163,4472.8
946.242,4454.6
947.321,4409.3
948.399,4380.7
949.477,4391.4
950.556,4364.5
951.634,4342.2
952.711,4321.6
953.789,4314.6
954.867,4282.7
955.944,4249.9
957.021,4242.7
958.098,4228.0
959.175,4187.8
960.252,4203.6
961.328,4182.2
962.405,4160.2
963.481,4152.9
964.557,4139.6
965.633,4123.8
966.709,4096.1
967.785,4083.2
968.86,4087.9
969.936,4077.6
971.011,4055.5
972.086,4048.9
973.161,4034.7
974.235,4027.3
975.31,4033.0
976.384,4003.1
977.459,3996.2
978.533,3972.0
979.607,3974.6
980.68,3971.5
981.754,3953.0
982.827,3946.5
983.901,3945.6
984.974,3935.8
986.047,3924.6
987.119,3925.7
988.192,3917.1
989.264,3907.9
990.337,3908.2
991.409,3888.1
992.481,3879.7
993.553,3871.8
994.624,3866.0
995.696,3869.5
996.767,3854.6
997.838,3853.3
998.909,3843.3
999.98,3844.6
1001.05,3844.2
1002.12,3833.4
1003.19,3824.1
1004.26,3822.0
1005.33,3815.4
1006.4,3813.7
1007.47,3811.0
1008.54,3805.4
1009.61,3794.4
1010.68,3803.2
1011.75,3791.3
1012.82,3791.4
1013.88,3788.8
1014.95,3783.7
1016.02,3784.4
1017.09,3778.4
1018.16,3779.4
1019.22,3777.4
1020.29,3773.3
1021.36,3779.7
1022.43,3783.9
1023.49,3773.5
1024.56,3761.6
1025.63,3760.5
1026.69,3762.3
1027.76,3756.2
1028.83,3751.3
1029.89,3745.7
1030.96,3740.8
1032.02,3745.6
1033.09,3746.5
1034.15,3751.9
1035.22,3749.5
1036.28,3743.3
1037.35,3738.2
1038.41,3733.3
1039.48,3732.3
1040.54,3728.0
1041.6,3726.3
1042.67,3725.5
1043.73,3727.4
1044.79,3723.1
1045.86,3723.9
1046.92,3723.7
1047.98,3722.4
1049.05,3721.9
1050.11,3718.3
1051.17,3717.6
1052.23,3717.9
1053.29,3718.0
1054.36,3717.6
1055.42,3717.4
1056.48,3718.7
1057.54,3718.5
1058.6,3716.4
1059.66,3715.8
1060.72,3716.9
1061.78,3717.1
1062.84,3715.5
1063.9,3716.1
1064.96,3715.5
1066.02,3714.7
1067.08,3715.8
1067.88,3714.0