File: spectra/VLFR_09-PET_bio_Raman_2b44f570.csv
nm,Intensity
528.65,1847.3
529.155,1848.9
529.66,1849.1
530.165,1849.75
530.67,1847.8
531.175,1850.2
531.68,1880.85
532.185,2902.45
532.69,1852.15
533.194,1857.7
533.699,2491.8
534.204,4429.1
534.708,4295.3
535.213,4276.4
535.717,4182.0
536.222,4089.05
536.726,4094.8
537.231,4198.5
537.735,4253.0
538.239,4337.9
538.743,4359.95
539.247,4382.5
539.751,4524.6
540.255,4559.05
540.759,4570.85
541.263,4568.85
541.767,4618.35
542.271,4726.7
542.775,4793.35
543.279,4841.35
543.782,4850.4
544.286,4902.6
544.789,4918.2
545.293,5063.75
545.796,5092.9
546.3,5137.5
546.803,5288.25
547.306,5273.55
547.81,5373.0
548.313,5461.0
548.816,5506.35
549.319,5532.8
549.822,5482.55
550.325,5522.5
550.828,5743.0
551.331,5793.8
551.834,5772.1
552.337,5759.45
552.839,5971.5
553.342,5872.0
553.844,6003.5
554.347,6014.75
554.849,6131.2
555.352,6136.25
555.854,6248.2
556.357,6258.7
556.859,6335.55
557.361,6707.5
557.863,6620.85
558.365,6424.5
558.867,6464.85
559.369,6439.7
559.871,6546.35
560.373,6554.85
560.875,6706.3
561.377,6787.75
561.878,6822.6
562.38,6892.6
562.881,6897.95
563.383,7000.85
563.884,6959.95
564.386,7253.8
564.887,7340.2
565.388,7502.0
565.89,7525.5
566.391,7385.55
566.892,7339.15
567.393,7469.3
567.894,7605.75
568.395,7588.5
568.896,7553.75
569.396,7716.4
569.897,7827.25
570.398,7964.6
570.898,8339.6
571.399,8741.45
571.9,8333.35
572.4,8017.85
572.9,8113.6
573.401,8091.25
573.901,8095.45
574.401,8032.9
574.901,8113.2
575.401,8475.25
575.901,8315.9
576.401,8426.9
576.901,8362.2
577.401,8310.45
577.901,8486.45
578.4,8325.8
578.9,8399.95
579.399,8461.3
579.899,8513.9
580.398,8667.85
580.898,8591.2
581.397,8806.75
581.896,10418.8
582.395,10020.8
582.895,8716.9
583.394,8806.0
583.893,8837.4
584.391,8866.8
584.89,8781.2
585.389,9315.7
585.888,10462.3
586.386,9606.35
586.885,9247.05
587.384,9147.75
587.882,9019.85
588.38,9098.1
588.879,9076.6
589.377,8874.5
589.875,8873.3
590.373,8877.4
590.871,8904.15
591.369,9161.5
591.867,9197.9
592.365,9037.95
592.863,9024.95
593.361,9187.4
593.858,9117.0
594.356,9085.75
594.853,9148.6
595.351,9305.7
595.848,9249.1
596.345,9358.9
596.843,9323.7
597.34,9258.45
597.837,9267.8
598.334,9420.2
598.831,9332.0
599.328,9666.8
599.824,9570.05
600.321,9557.2
600.818,9618.05
601.314,9690.1
601.811,9757.2
602.307,9647.75
602.804,9894.65
603.3,9880.35
603.796,9933.1
604.293,9846.2
604.789,9948.15
605.285,9981.45
605.781,9999.3
606.277,9943.1
606.772,10142.1
607.268,10011.0
607.764,10122.3
608.259,10366.8
608.755,10122.9
609.25,10351.2
609.746,10249.3
610.241,10519.6
610.736,10609.5
611.231,10804.3
611.727,10723.9
612.222,10868.7
612.716,10820.3
613.211,10683.8
613.706,10819.3
614.201,10888.9
614.695,10977.3
615.19,11068.9
615.684,11351.1
616.179,11131.3
616.673,11470.8
617.168,11549.8
617.662,11546.5
618.156,11924.7
618.65,11590.0
619.144,11684.4
619.638,11902.7
620.131,12122.0
620.625,12050.0
621.119,12287.3
621.612,12268.1
622.106,12247.4
622.599,12496.4
623.093,12371.8
623.586,12580.6
624.079,12676.7
624.572,12998.4
625.065,12927.5
625.558,13014.6
626.051,13026.5
626.544,13188.1
627.037,13257.8
627.529,13434.6
628.022,13141.1
628.514,13140.7
629.007,13567.3
629.499,14222.0
629.991,13522.7
630.483,14050.9
630.976,13916.2
631.468,14142.8
631.959,14284.5
632.451,14448.0
632.943,14620.3
633.435,14795.8
633.926,14246.8
634.418,14294.9
634.909,14229.7
635.401,14358.3
635.892,14570.8
636.383,15042.3
636.874,15072.2
637.365,14430.3
637.856,14695.6
638.347,14814.8
638.838,14387.7
639.329,14565.5
639.819,14282.5
640.31,14601.3
640.8,14177.6
641.291,14599.2
641.781,14381.8
642.271,14129.2
642.761,14631.2
643.251,14469.4
643.741,14372.3
644.231,14079.0
644.721,14361.8
645.211,14309.1
645.7,14578.7
646.19,14378.1
646.679,14179.2
647.169,13956.5
647.658,14447.3
648.147,14506.5
648.636,13846.7
649.125,13956.3
649.614,13833.8
650.103,14435.2
650.592,13875.9
651.08,14045.3
651.569,13853.3
652.058,13666.0
652.546,13646.5
653.034,13691.3
653.523,13373.2
654.011,13374.5
654.499,13131.2
654.987,13263.1
655.475,12892.3
655.963,13412.9
656.45,12991.2
656.938,12680.8
657.425,12870.8
657.913,13230.1
658.4,12393.2
658.888,12709.0
659.375,12022.4
659.862,12548.9
660.349,12309.1
660.836,11748.0
661.079,11572.8