File: spectra/VLFR_06-PET_nobio_Raman_db91c6a5.csv
nm,Intensity
528.65,1842.17
529.155,1843.03
529.66,1842.33
530.165,1842.8
530.67,1897.93
531.175,1846.27
531.68,1892.83
532.185,3886.6
532.69,1847.0
533.194,1855.13
533.699,3373.17
534.204,6620.73
534.708,5294.23
535.213,4180.93
535.717,3352.27
536.222,2825.93
536.726,2641.43
537.231,2542.63
537.735,2497.17
538.239,2499.4
538.743,2518.77
539.247,2544.77
539.751,2659.13
540.255,2569.0
540.759,2431.67
541.263,2379.03
541.767,2378.93
542.271,2373.5
542.775,2378.8
543.279,2369.3
543.782,2400.27
544.286,2393.37
544.789,2401.53
545.293,2388.43
545.796,2389.3
546.3,2383.8
546.803,2408.67
547.306,2413.1
547.81,2408.0
548.313,2391.8
548.816,2403.8
549.319,2399.07
549.822,2393.5
550.325,2509.7
550.828,2799.47
551.331,2442.8
551.834,2432.3
552.337,2438.83
552.839,2743.1
553.342,2446.27
553.844,2456.07
554.347,2436.0
554.849,2456.7
555.352,2608.5
555.854,2793.8
556.357,2832.5
556.859,2879.23
557.361,3523.9
557.863,3155.8
558.365,2968.03
558.867,2784.53
559.369,2559.53
559.871,2533.8
560.373,2527.6
560.875,2544.93
561.377,2576.93
561.878,2650.47
562.38,2656.4
562.881,2762.93
563.383,2718.47
563.884,2667.87
564.386,2711.0
564.887,2940.0
565.388,3272.63
565.89,3457.9
566.391,2954.3
566.892,2737.97
567.393,2936.0
567.894,3002.9
568.395,2750.8
568.896,2736.93
569.396,2811.0
569.897,2944.4
570.398,3307.93
570.898,4069.93
571.399,4590.93
571.9,3704.2
572.4,3126.1
572.9,2901.13
573.401,2894.5
573.901,3028.47
574.401,2949.83
574.901,3000.03
575.401,3209.37
575.901,3010.77
576.401,3211.57
576.901,3202.87
577.401,2985.9
577.901,2931.07
578.4,3002.1
578.9,2961.33
579.399,2986.0
579.899,3021.43
580.398,3067.6
580.898,3183.43
581.397,3360.2
581.896,6558.83
582.395,5636.27
582.895,3249.47
583.394,3123.57
583.893,3177.37
584.391,3194.97
584.89,3313.23
585.389,4147.9
585.888,6528.47
586.386,5094.07
586.885,3531.43
587.384,3246.6
587.882,3186.17
588.38,3202.2
588.879,3160.57
589.377,3185.87
589.875,3137.23
590.373,3168.6
590.871,3161.3
591.369,3154.23
591.867,3184.53
592.365,3193.77
592.863,3186.53
593.361,3177.0
593.858,3166.2
594.356,3216.2
594.853,3172.93
595.351,3195.07
595.848,3218.1
596.345,3225.7
596.843,3183.43
597.34,3220.77
597.837,3220.8
598.334,3243.43
598.831,3249.93
599.328,3210.97
599.824,3258.23
600.321,3222.47
600.818,3265.93
601.314,3227.6
601.811,3245.5
602.307,3226.8
602.804,3262.47
603.3,3253.13
603.796,3270.13
604.293,3268.6
604.789,3288.13
605.285,3223.83
605.781,3261.27
606.277,3269.33
606.772,3280.9
607.268,3298.47
607.764,3293.63
608.259,3227.03
608.755,3261.57
609.25,3294.4
609.746,3288.43
610.241,3314.0
610.736,3332.63
611.231,3287.17
611.727,3304.5
612.222,3256.7
612.716,3297.17
613.211,3294.47
613.706,3313.73
614.201,3332.13
614.695,3313.4
615.19,3309.13
615.684,3342.07
616.179,3393.67
616.673,3332.07
617.168,3399.67
617.662,3362.6
618.156,3408.8
618.65,3420.9
619.144,3364.83
619.638,3371.8
620.131,3360.53
620.625,3366.5
621.119,3390.23
621.612,3390.97
622.106,3386.47
622.599,3395.07
623.093,3469.33
623.586,3432.83
624.079,3388.5
624.572,3461.4
625.065,3524.17
625.558,3476.6
626.051,3408.83
626.544,3459.47
627.037,3481.87
627.529,3473.43
628.022,3498.33
628.514,3613.2
629.007,3715.8
629.499,3683.37
629.991,3588.2
630.483,3710.33
630.976,3970.33
631.468,4565.0
631.959,4490.13
632.451,4162.87
632.943,3989.87
633.435,4011.0
633.926,3872.47
634.418,3783.67
634.909,3706.03
635.401,3763.97
635.892,4181.8
636.383,4751.27
636.874,4404.47
637.365,3927.03
637.856,3749.87
638.347,3730.7
638.838,3722.03
639.329,3723.2
639.819,3665.97
640.31,3664.7
640.8,3701.0
641.291,3635.8
641.781,3688.43
642.271,3714.27
642.761,3689.33
643.251,3703.8
643.741,3706.27
644.231,3710.0
644.721,3661.03
645.211,3658.1
645.7,3713.7
646.19,3725.6
646.679,3639.8
647.169,3700.97
647.658,3668.67
648.147,3611.43
648.636,3675.43
649.125,3634.57
649.614,3628.5
650.103,3584.0
650.592,3650.57
651.08,3613.2
651.569,3635.53
652.058,3628.1
652.546,3546.97
653.034,3556.33
653.523,3523.4
654.011,3565.5
654.499,3491.57
654.987,3568.63
655.475,3496.2
655.963,3486.6
656.45,3466.4
656.938,3445.37
657.425,3424.93
657.913,3425.03
658.4,3349.1
658.888,3435.07
659.375,3347.6
659.862,3339.73
660.349,3398.27
660.836,3300.23
661.079,3333.77