File: spectra/VLFR_06-PET_bio_Raman_00515583.csv
nm,Intensity
528.626,1864.99
529.132,1865.23
529.637,1865.4
530.143,1866.11
530.648,1866.12
531.153,1868.47
531.658,1910.94
532.164,5444.65
532.669,1868.61
533.174,1867.09
533.679,2014.01
534.184,2563.92
534.689,2484.94
535.194,2459.0
535.699,2395.77
536.203,2342.99
536.708,2315.81
537.213,2295.84
537.717,2301.59
538.222,2288.29
538.726,2299.6
539.231,2307.09
539.735,2304.08
540.239,2311.94
540.744,2306.32
541.248,2309.51
541.752,2315.4
542.256,2328.13
542.76,2333.3
543.264,2338.97
543.768,2348.57
544.272,2342.68
544.776,2354.76
545.28,2358.0
545.784,2372.37
546.287,2375.75
546.791,2395.57
547.294,2396.96
547.798,2408.77
548.301,2411.78
548.805,2419.87
549.308,2425.87
549.811,2427.43
550.315,2441.5
550.818,2460.25
551.321,2454.64
551.824,2461.81
552.327,2472.28
552.83,2459.8
553.333,2474.05
553.835,2493.75
554.338,2519.44
554.841,2511.97
555.343,2523.32
555.846,2531.08
556.349,2535.47
556.851,2548.62
557.353,2575.39
557.856,2566.39
558.358,2574.79
558.86,2582.81
559.362,2587.47
559.864,2600.15
560.366,2582.08
560.868,2604.85
561.37,2622.12
561.872,2623.75
562.374,2646.98
562.876,2644.17
563.377,2651.33
563.879,2649.57
564.38,2648.17
564.882,2668.82
565.383,2667.79
565.885,2697.18
566.386,2671.59
566.887,2662.78
567.388,2690.83
567.889,2712.48
568.391,2734.51
568.892,2717.28
569.392,2768.12
569.893,2773.47
570.394,2792.47
570.895,2802.77
571.395,2830.73
571.896,2878.11
572.397,2864.3
572.897,2847.51
573.397,2843.6
573.898,2826.23
574.398,2809.27
574.898,2831.76
575.398,2873.48
575.898,2903.73
576.398,2949.4
576.898,2947.58
577.398,2887.12
577.898,2870.93
578.398,2873.69
578.897,2852.55
579.397,2887.43
579.896,2890.91
580.396,2891.23
580.895,2888.11
581.395,2898.36
581.894,3032.75
582.393,2975.5
582.892,2932.76
583.391,2945.75
583.89,2930.54
584.389,2907.4
584.888,2905.56
585.387,2875.22
585.886,2919.94
586.384,2905.21
586.883,2882.61
587.381,2873.15
587.88,2877.74
588.378,2867.74
588.876,2869.67
589.375,2830.27
589.873,2848.85
590.371,2850.87
590.869,2868.96
591.367,2854.95
591.865,2858.94
592.363,2865.14
592.86,2860.52
593.358,2856.25
593.856,2837.96
594.353,2851.59
594.851,2863.1
595.348,2870.56
595.845,2860.42
596.342,2870.71
596.84,2885.96
597.337,2861.07
597.834,2882.23
598.331,2880.65
598.828,2895.26
599.324,2884.56
599.821,2897.86
600.318,2903.76
600.814,2901.06
601.311,2886.69
601.807,2903.23
602.304,2899.51
602.8,2906.55
603.296,2917.31
603.792,2939.29
604.288,2929.76
604.784,2924.89
605.28,2913.28
605.776,2937.6
606.272,2922.15
606.767,2923.89
607.263,2926.93
607.759,2920.55
608.254,2932.66
608.749,2946.55
609.245,2947.88
609.74,2954.77
610.235,2954.9
610.73,2960.31
611.225,2964.52
611.72,2960.29
612.215,2975.31
612.71,2958.63
613.204,2957.13
613.699,2951.99
614.194,2964.29
614.688,2984.66
615.182,2967.79
615.677,2980.84
616.171,2964.97
616.665,2975.99
617.159,2978.68
617.653,2960.24
618.147,2970.88
618.641,2956.98
619.135,2961.94
619.628,2997.63
620.122,2968.22
620.615,2988.71
621.109,2975.19
621.602,2975.05
622.095,2971.54
622.589,2985.87
623.082,2956.93
623.575,2944.77
624.068,2964.87
624.561,2962.44
625.053,2961.88
625.546,2934.54
626.039,2937.69
626.531,2944.48
627.024,3070.47
627.516,3151.94
628.008,3138.79
628.501,3203.34
628.993,3196.16
629.485,3185.47
629.977,3213.42
630.469,3232.65
630.96,3141.08
631.452,3097.12
631.944,3035.3
632.435,2991.16
632.927,2967.97
633.418,2951.43
633.91,2916.74
634.401,2875.64
634.892,2910.21
635.383,2890.57
635.874,2870.16
636.365,2889.21
636.856,2861.62
637.346,2853.22
637.837,2820.97
638.327,2838.56
638.818,2809.21
639.308,2813.05
639.799,2826.09
640.289,2787.08
640.779,2785.43
641.269,2772.69
641.759,2760.98
642.249,2799.87
642.738,2765.36
643.228,2753.89
643.718,2768.85
644.207,2775.23
644.697,2735.21
645.186,2755.35
645.675,2720.5
646.164,2711.73
646.653,2713.79
647.142,2711.4
647.631,2703.29
648.12,2689.11
648.609,2675.47
649.098,2653.91
649.586,2637.76
650.075,2636.76
650.563,2635.79
651.051,2648.73
651.539,2634.68
652.027,2634.23
652.515,2598.76
653.003,2613.58
653.491,2586.9
653.979,2577.87
654.467,2561.86
654.954,2535.14
655.442,2550.6
655.929,2554.22
656.416,2529.48
656.904,2536.56
657.391,2526.12
657.878,2505.8
658.365,2492.31
658.851,2485.83
659.338,2455.36
659.825,2456.25
660.311,2470.43
660.798,2441.3
661.041,2445.43