File: spectra/VLFR_01-LDPE_bio_Raman_6f06478a.csv
nm,Intensity
526.495,828.5
527.042,828.1
527.589,829.2
528.136,828.0
528.682,829.7
529.229,829.8
529.775,828.5
530.321,828.4
530.867,827.3
531.413,828.8
531.959,833.5
532.505,828.6
533.051,827.8
533.596,828.2
534.141,895.3
534.687,885.4
535.232,873.7
535.777,863.4
536.321,861.6
536.866,857.2
537.41,857.5
537.955,856.9
538.499,855.3
539.043,855.4
539.587,851.0
540.131,849.9
540.675,849.8
541.219,849.2
541.762,850.1
542.305,849.5
542.849,848.5
543.392,849.1
543.935,844.3
544.478,846.4
545.02,844.6
545.563,846.4
546.106,843.6
546.648,845.7
547.19,842.9
547.732,844.6
548.274,846.8
548.816,845.3
549.358,844.2
549.9,843.1
550.441,844.2
550.983,843.3
551.524,843.6
552.065,843.4
552.606,845.8
553.147,842.1
553.688,847.2
554.229,848.2
554.769,845.7
555.31,847.0
555.85,847.6
556.391,848.2
556.931,850.5
557.471,851.5
558.011,855.8
558.551,854.2
559.09,851.8
559.63,850.0
560.169,848.6
560.709,851.5
561.248,849.6
561.787,851.3
562.326,851.6
562.865,856.4
563.404,856.7
563.943,896.1
564.481,869.1
565.02,865.8
565.558,861.5
566.096,905.9
566.634,865.9
567.172,860.8
567.71,865.3
568.248,858.5
568.786,857.0
569.324,861.8
569.861,865.5
570.399,868.3
570.936,876.9
571.473,938.1
572.01,897.9
572.547,882.5
573.084,878.7
573.621,880.0
574.158,891.6
574.694,884.7
575.231,892.3
575.767,922.2
576.303,996.5
576.84,963.2
577.376,943.3
577.912,921.0
578.448,919.6
578.984,929.0
579.519,936.4
580.055,939.5
580.59,946.8
581.126,948.6
581.661,958.6
582.196,966.2
582.731,975.9
583.267,983.3
583.801,996.0
584.336,996.6
584.871,1007.0
585.406,1016.0
585.94,1032.1
586.475,1040.6
587.009,1064.6
587.543,1074.2
588.078,1090.2
588.612,1107.8
589.146,1120.9
589.68,1137.1
590.214,1154.4
590.747,1173.1
591.281,1193.6
591.815,1204.4
592.348,1205.3
592.881,1217.7
593.415,1238.1
593.948,1254.3
594.481,1269.9
595.014,1278.9
595.547,1291.2
596.08,1319.1
596.613,1332.7
597.146,1349.7
597.678,1364.1
598.211,1392.3
598.743,1406.8
599.276,1419.2
599.808,1428.8
600.34,1427.4
600.872,1437.2
601.404,1434.0
601.936,1418.4
602.468,1410.2
603.0,1399.3
603.532,1387.1
604.064,1375.2
604.595,1334.1
605.127,1317.6
605.658,1284.1
606.189,1265.6
606.721,1236.4
607.252,1231.9
607.783,1215.8
608.314,1195.9
608.845,1182.5
609.376,1177.0
609.907,1158.7
610.438,1152.3
610.968,1144.8
611.499,1141.6
612.029,1127.2
612.56,1127.5
613.09,1121.4
613.621,1113.8
614.151,1112.8
614.681,1102.7
615.211,1091.6
615.741,1088.9
616.271,1084.3
616.801,1083.4
617.331,1076.9
617.861,1083.3
618.39,1069.9
618.92,1066.2
619.45,1068.3
619.979,1057.6
620.509,1050.7
621.038,1050.7
621.567,1056.1
622.096,1079.6
622.626,1067.4
623.155,1047.0
623.684,1034.1
624.213,1031.8
624.742,1030.2
625.271,1039.4
625.799,1033.7
626.328,1054.8
626.857,1256.1
627.386,1630.1
627.914,1387.6
628.443,1575.3
628.971,1420.9
629.5,1325.5
630.028,1244.0
630.556,1224.8
631.084,1109.4
631.613,1048.8
632.141,1033.0
632.669,1026.1
633.197,1015.4
633.725,1013.7
634.253,1016.5
634.781,1014.5
635.308,1018.5
635.836,1017.5
636.364,1019.5
636.891,1019.5
637.419,1023.1
637.947,1024.4
638.474,1027.9
639.002,1034.6
639.529,1036.6
640.056,1038.8
640.584,1038.8
641.111,1046.9
641.638,1056.0
642.165,1052.7
642.692,1047.7
643.219,1060.3
643.746,1054.2
644.273,1063.9
644.8,1065.0
645.327,1064.2
645.854,1066.7
646.381,1068.0
646.908,1067.3
647.434,1070.9
647.961,1082.1
648.488,1077.5
649.014,1071.7
649.541,1080.2
650.067,1082.2
650.594,1081.6
651.12,1077.8
651.646,1081.2
652.173,1082.7
652.699,1079.7
653.225,1087.7
653.752,1088.2
654.278,1084.6
654.804,1086.0
655.33,1080.9
655.856,1079.8
656.382,1081.4
656.908,1070.9
657.434,1068.8
657.96,1060.1
658.486,1057.5
659.012,1048.9
659.538,1043.7
660.064,1038.5
660.589,1029.0
661.115,1017.2
661.641,1008.6
662.166,1000.1
662.692,996.9
663.086,989.3