File: spectra/VLFR_06-PET_nobio_Raman_8f812500.csv
nm,Intensity
526.508,829.6
527.055,830.3
527.602,830.5
528.149,830.2
528.695,831.6
529.241,828.7
529.787,830.1
530.334,830.2
530.879,830.3
531.425,830.0
531.971,834.0
532.516,831.4
533.062,830.4
533.607,840.5
534.152,2215.1
534.697,1829.7
535.242,1450.2
535.786,1214.8
536.331,1072.5
536.876,1023.9
537.42,991.7
537.964,987.5
538.508,995.6
539.052,994.1
539.596,1006.5
540.14,1010.1
540.683,969.3
541.227,950.9
541.77,956.1
542.313,948.9
542.856,951.1
543.399,950.8
543.942,966.5
544.485,957.1
545.027,961.0
545.57,961.3
546.112,968.2
546.654,964.6
547.196,971.1
547.738,970.8
548.28,973.2
548.822,979.2
549.363,977.8
549.905,977.2
550.446,1000.7
550.988,1013.1
551.529,991.5
552.07,1001.5
552.611,1003.0
553.152,1024.4
553.692,1006.4
554.233,1002.8
554.773,1014.0
555.314,1023.3
555.854,1080.4
556.394,1089.0
556.934,1100.5
557.474,1256.7
558.014,1124.2
558.553,1128.2
559.093,1071.9
559.632,1039.5
560.172,1044.6
560.711,1045.5
561.25,1053.0
561.789,1060.6
562.328,1076.0
562.867,1093.3
563.406,1094.3
563.944,1085.9
564.483,1092.1
565.021,1150.1
565.559,1226.7
566.098,1222.6
566.636,1120.0
567.174,1097.5
567.711,1194.9
568.249,1118.4
568.787,1118.9
569.324,1124.0
569.862,1151.0
570.399,1206.6
570.936,1350.8
571.474,1479.6
572.011,1300.0
572.548,1190.9
573.084,1150.9
573.621,1158.8
574.158,1195.7
574.694,1164.7
575.231,1211.8
575.767,1176.3
576.303,1216.2
576.84,1226.5
577.376,1195.6
577.912,1180.2
578.447,1188.0
578.983,1189.4
579.519,1195.9
580.054,1200.3
580.59,1210.6
581.125,1234.6
581.661,1323.4
582.196,2646.1
582.731,1295.8
583.266,1237.4
583.801,1233.7
584.336,1247.8
584.87,1262.7
585.405,1381.0
585.94,1981.4
586.474,1695.5
587.008,1318.7
587.543,1277.6
588.077,1262.0
588.611,1262.5
589.145,1261.5
589.679,1250.1
590.213,1255.5
590.747,1262.8
591.28,1271.8
591.814,1265.1
592.347,1272.6
592.881,1263.4
593.414,1275.4
593.947,1273.0
594.48,1281.7
595.014,1278.2
595.547,1284.0
596.079,1288.2
596.612,1290.3
597.145,1295.6
597.678,1293.2
598.21,1300.8
598.743,1302.5
599.275,1299.8
599.807,1310.9
600.34,1307.4
600.872,1297.9
601.404,1300.8
601.936,1301.2
602.468,1302.1
603.0,1305.6
603.532,1309.6
604.063,1320.4
604.595,1308.3
605.126,1308.9
605.658,1311.2
606.189,1303.7
606.721,1308.7
607.252,1308.2
607.783,1305.2
608.314,1308.4
608.845,1318.4
609.376,1315.7
609.907,1319.1
610.438,1312.4
610.968,1319.6
611.499,1323.1
612.03,1326.0
612.56,1325.5
613.091,1337.3
613.621,1341.3
614.151,1347.0
614.681,1341.5
615.212,1354.0
615.742,1343.7
616.272,1337.4
616.802,1352.3
617.332,1362.9
617.861,1368.6
618.391,1391.6
618.921,1378.3
619.45,1370.5
619.98,1364.8
620.509,1374.1
621.039,1371.8
621.568,1374.3
622.097,1377.8
622.627,1388.9
623.156,1400.5
623.685,1399.1
624.214,1405.6
624.743,1407.6
625.272,1420.0
625.801,1421.5
626.33,1422.6
626.858,1422.4
627.387,1433.3
627.916,1432.6
628.444,1465.2
628.973,1492.5
629.501,1489.7
630.029,1495.1
630.558,1502.0
631.086,1569.0
631.614,1724.3
632.142,1704.6
632.67,1632.0
633.198,1605.1
633.726,1578.0
634.254,1548.9
634.782,1552.6
635.31,1555.5
635.838,1637.6
636.365,1763.3
636.893,1779.6
637.421,1618.0
637.948,1592.4
638.476,1572.6
639.003,1575.7
639.531,1588.0
640.058,1589.1
640.585,1593.5
641.113,1601.6
641.64,1620.0
642.167,1641.9
642.694,1635.6
643.221,1617.6
643.748,1621.5
644.275,1610.8
644.802,1621.5
645.329,1630.3
645.856,1626.0
646.382,1626.0
646.909,1631.0
647.436,1657.7
647.962,1651.8
648.489,1657.0
649.016,1649.2
649.542,1661.2
650.069,1667.8
650.595,1653.9
651.121,1667.7
651.648,1676.8
652.174,1672.9
652.7,1675.1
653.227,1677.3
653.753,1689.5
654.279,1683.2
654.805,1665.0
655.331,1685.7
655.857,1679.8
656.383,1680.1
656.909,1690.2
657.435,1696.3
657.961,1690.7
658.487,1710.3
659.013,1685.3
659.538,1705.6
660.064,1702.6
660.59,1702.4
661.116,1700.4
661.641,1687.4
662.167,1672.9
662.692,1689.0
663.087,1684.0