File: spectra/VLFR_07-PET_bio_Raman_5b23760a.csv
nm,Intensity
791.75,10355.2
792.846,9951.75
793.942,9620.65
795.037,9449.3
796.133,9311.0
797.228,9333.9
798.324,9380.85
799.419,9340.4
800.514,9300.25
801.61,9355.85
802.705,9280.0
803.8,9117.1
804.894,9119.75
805.989,9057.8
807.084,8981.7
808.178,8947.0
809.273,8889.25
810.367,8858.95
811.461,8697.55
812.556,8728.8
813.65,8668.8
814.744,8473.95
815.837,8409.6
816.931,8423.75
818.025,8205.65
819.118,8193.8
820.212,8156.9
821.305,8026.65
822.398,7928.8
823.491,7896.4
824.585,7897.65
825.677,7913.05
826.77,7676.4
827.863,7605.25
828.956,7606.1
830.048,7559.55
831.14,7565.45
832.233,7441.3
833.325,7403.35
834.417,7416.85
835.509,7296.8
836.601,7289.4
837.692,7327.5
838.784,7263.4
839.876,7214.95
840.967,7362.6
842.058,7233.95
843.149,7124.4
844.24,7085.0
845.331,6903.85
846.422,6872.05
847.513,6779.0
848.604,6758.85
849.694,6711.75
850.784,6719.95
851.875,6618.1
852.965,6636.8
854.055,6603.3
855.145,6558.2
856.235,6487.4
857.324,6527.05
858.414,6552.0
859.503,6492.35
860.593,6497.5
861.682,6406.5
862.771,6337.25
863.86,6301.95
864.949,6291.55
866.038,6271.55
867.126,6157.65
868.215,6155.0
869.303,6105.5
870.391,6183.05
871.479,6256.0
872.567,6266.85
873.655,6275.8
874.743,6163.35
875.831,6024.95
876.918,5970.75
878.006,5914.8
879.093,5919.05
880.18,5876.85
881.267,5855.15
882.354,5856.9
883.441,5907.35
884.527,5792.05
885.614,5717.4
886.7,5725.65
887.786,5671.9
888.872,5684.25
889.958,5615.85
891.044,5587.15
892.13,5599.5
893.216,5531.9
894.301,5498.3
895.386,5453.5
896.472,5460.95
897.557,5580.75
898.642,5768.4
899.726,5534.55
900.811,5300.65
901.896,5281.35
902.98,5260.15
904.064,5228.05
905.148,5240.3
906.232,5261.7
907.316,5438.75
908.4,5427.75
909.484,5203.95
910.567,5065.55
911.65,5007.85
912.734,4989.35
913.817,4944.1
914.9,4918.4
915.982,4894.6
917.065,4839.05
918.147,4820.5
919.23,4818.75
920.312,4766.3
921.394,4751.2
922.476,4699.3
923.558,4680.4
924.639,4647.9
925.721,4608.95
926.802,4599.6
927.884,4574.4
928.965,4546.9
930.046,4515.85
931.126,4514.5
932.207,4444.25
933.288,4433.6
934.368,4406.6
935.448,4403.0
936.528,4372.3
937.608,4350.55
938.688,4350.75
939.767,4316.6
940.847,4290.6
941.926,4284.15
943.005,4260.05
944.084,4249.5
945.163,4234.3
946.242,4209.65
947.321,4189.6
948.399,4194.1
949.477,4174.65
950.556,4157.15
951.634,4138.8
952.711,4124.75
953.789,4105.3
954.867,4105.7
955.944,4093.85
957.021,4075.4
958.098,4071.45
959.175,4063.9
960.252,4051.15
961.328,4033.35
962.405,4027.05
963.481,4017.95
964.557,4007.65
965.633,3999.2
966.709,3995.5
967.785,3983.4
968.86,3984.65
969.936,3970.8
971.011,3966.95
972.086,3952.45
973.161,3944.9
974.235,3939.1
975.31,3931.0
976.384,3929.05
977.459,3917.65
978.533,3916.8
979.607,3912.4
980.68,3902.3
981.754,3895.8
982.827,3894.45
983.901,3886.0
984.974,3881.55
986.047,3876.2
987.119,3876.35
988.192,3870.25
989.264,3870.7
990.337,3861.2
991.409,3851.6
992.481,3848.65
993.553,3853.1
994.624,3838.2
995.696,3838.45
996.767,3837.95
997.838,3833.4
998.909,3826.95
999.98,3826.55
1001.05,3819.1
1002.12,3817.35
1003.19,3814.85
1004.26,3814.6
1005.33,3807.5
1006.4,3803.05
1007.47,3806.0
1008.54,3799.4
1009.61,3799.4
1010.68,3795.25
1011.75,3793.55
1012.82,3793.8
1013.88,3790.45
1014.95,3789.85
1016.02,3787.4
1017.09,3789.05
1018.16,3780.25
1019.22,3782.5
1020.29,3780.45
1021.36,3785.3
1022.43,3781.75
1023.49,3782.15
1024.56,3775.65
1025.63,3775.45
1026.69,3768.95
1027.76,3767.05
1028.83,3765.65
1029.89,3763.6
1030.96,3762.35
1032.02,3761.6
1033.09,3761.9
1034.15,3765.8
1035.22,3763.8
1036.28,3760.85
1037.35,3758.0
1038.41,3756.2
1039.48,3754.05
1040.54,3754.9
1041.6,3753.9
1042.67,3751.75
1043.73,3751.8
1044.79,3751.2
1045.86,3749.45
1046.92,3751.2
1047.98,3749.3
1049.05,3748.05
1050.11,3748.4
1051.17,3747.15
1052.23,3747.7
1053.29,3748.2
1054.36,3747.25
1055.42,3746.6
1056.48,3745.3
1057.54,3746.05
1058.6,3745.45
1059.66,3744.45
1060.72,3745.45
1061.78,3745.3
1062.84,3744.6
1063.9,3745.0
1064.96,3745.2
1066.02,3743.7
1067.08,3742.9
1067.88,3745.35