File: spectra/VLFR_07-PET_bio_Raman_1577d051.csv
nm,Intensity
791.377,15512.9
792.477,14315.4
793.576,13574.1
794.676,13230.0
795.775,12764.2
796.874,13065.9
797.973,13041.7
799.072,12961.3
800.171,13016.0
801.27,12828.8
802.368,12835.8
803.467,12471.3
804.565,12264.5
805.664,12097.1
806.762,12206.9
807.86,11885.2
808.958,11910.7
810.056,11770.2
811.153,11798.3
812.251,11669.1
813.349,11548.2
814.446,11443.5
815.543,11259.3
816.64,11083.7
817.737,11190.1
818.834,11076.6
819.931,10914.7
821.028,10824.4
822.125,10625.5
823.221,10579.6
824.317,10519.0
825.414,10628.3
826.51,10350.7
827.606,10180.5
828.702,10019.8
829.797,9924.0
830.893,10102.3
831.988,9674.16
833.084,9862.48
834.179,9668.54
835.274,9589.1
836.369,9549.14
837.464,9523.18
838.559,9582.6
839.654,9407.02
840.748,9571.34
841.843,9769.34
842.937,9291.5
844.031,9162.92
845.125,8889.62
846.219,8738.2
847.313,8694.54
848.407,8547.08
849.5,8447.32
850.593,8528.14
851.687,8502.86
852.78,8431.36
853.873,8353.06
854.966,8385.66
856.059,8210.74
857.151,8086.18
858.244,8390.5
859.336,8301.82
860.428,8348.64
861.52,8157.24
862.612,7900.96
863.704,7979.26
864.796,7953.06
865.888,7796.94
866.979,7731.4
868.07,7675.92
869.162,7621.12
870.253,7678.86
871.344,7786.6
872.434,8132.78
873.525,7985.18
874.615,7807.82
875.706,7480.24
876.796,7454.64
877.886,7253.74
878.976,7356.28
880.066,7196.76
881.156,7187.32
882.245,7189.98
883.335,7041.2
884.424,7151.54
885.513,7134.7
886.602,6979.46
887.691,6904.18
888.78,6777.7
889.868,6785.46
890.957,6750.24
892.045,6688.1
893.133,6641.0
894.221,6587.56
895.309,6518.5
896.397,6466.12
897.484,6729.46
898.571,7222.5
899.659,6780.46
900.746,6325.18
901.833,6271.86
902.92,6161.52
904.006,6168.46
905.093,6116.3
906.179,6158.28
907.266,6630.68
908.352,6548.16
909.438,6307.92
910.523,5926.06
911.609,5824.88
912.695,5765.3
913.78,5720.46
914.865,5646.8
915.95,5598.24
917.035,5562.92
918.12,5536.4
919.204,5460.4
920.289,5418.2
921.373,5409.8
922.457,5332.9
923.541,5298.74
924.625,5272.46
925.709,5196.4
926.792,5152.62
927.876,5156.2
928.959,5119.16
930.042,5052.72
931.125,4993.48
932.208,4986.0
933.29,4914.8
934.373,4933.72
935.455,4873.18
936.537,4830.1
937.619,4795.12
938.701,4748.3
939.782,4752.76
940.864,4740.92
941.945,4690.28
943.026,4680.64
944.107,4615.64
945.188,4617.28
946.269,4612.88
947.349,4561.88
948.43,4545.18
949.51,4518.84
950.59,4488.04
951.67,4437.6
952.75,4461.2
953.829,4420.1
954.909,4402.82
955.988,4387.82
957.067,4379.06
958.146,4339.78
959.224,4342.32
960.303,4311.68
961.381,4288.46
962.459,4279.36
963.537,4271.0
964.615,4237.68
965.693,4242.14
966.771,4219.18
967.848,4205.78
968.925,4180.16
970.002,4184.28
971.079,4166.82
972.156,4148.32
973.232,4133.74
974.309,4124.88
975.385,4122.8
976.461,4115.64
977.537,4110.66
978.612,4075.2
979.688,4081.4
980.763,4060.78
981.838,4057.28
982.913,4048.14
983.988,4037.9
985.063,4023.54
986.137,4019.16
987.211,4017.54
988.285,4011.04
989.359,3990.32
990.433,3990.2
991.506,3973.34
992.58,3971.52
993.653,3968.2
994.726,3951.94
995.799,3949.1
996.872,3950.64
997.944,3939.7
999.016,3933.68
1000.09,3922.76
1001.16,3921.8
1002.23,3914.56
1003.3,3911.94
1004.38,3902.54
1005.45,3899.22
1006.52,3892.28
1007.59,3891.52
1008.66,3883.92
1009.73,3876.74
1010.8,3874.48
1011.87,3871.74
1012.94,3870.32
1014.01,3866.26
1015.08,3860.84
1016.15,3859.12
1017.22,3856.08
1018.29,3850.68
1019.36,3854.52
1020.42,3849.2
1021.49,3851.88
1022.56,3853.78
1023.63,3851.5
1024.7,3846.2
1025.76,3839.84
1026.83,3833.12
1027.9,3830.48
1028.97,3824.1
1030.03,3820.96
1031.1,3818.04
1032.17,3817.88
1033.23,3817.38
1034.3,3817.78
1035.36,3821.4
1036.43,3816.74
1037.5,3810.64
1038.56,3808.32
1039.63,3805.7
1040.69,3803.84
1041.76,3802.28
1042.82,3799.66
1043.89,3799.08
1044.95,3797.4
1046.01,3796.54
1047.08,3795.38
1048.14,3794.24
1049.2,3794.68
1050.27,3793.62
1051.33,3791.92
1052.39,3792.92
1053.46,3791.36
1054.52,3791.22
1055.58,3791.06
1056.64,3789.48
1057.7,3790.86
1058.77,3789.6
1059.83,3789.0
1060.89,3789.04
1061.95,3787.88
1063.01,3788.12
1064.07,3787.14
1065.13,3787.86
1066.19,3786.76
1067.25,3787.78
1068.05,3786.28