File: spectra/VLFR_08-PLA_bio_Raman_06f5d493.csv
nm,Intensity
528.65,1831.85
529.155,1832.05
529.66,1832.05
530.165,1832.35
530.67,1831.9
531.175,1835.0
531.68,1870.0
532.185,3377.55
532.69,1833.95
533.194,1835.8
533.699,2103.45
534.204,2823.0
534.708,2733.5
535.213,2636.55
535.717,2561.05
536.222,2557.0
536.726,2576.0
537.231,2533.5
537.735,2549.65
538.239,2541.15
538.743,2536.55
539.247,2550.85
539.751,2545.8
540.255,2551.35
540.759,2600.05
541.263,2606.85
541.767,2599.65
542.271,2603.6
542.775,2594.45
543.279,2692.2
543.782,2706.55
544.286,2702.1
544.789,2627.05
545.293,2608.55
545.796,2612.55
546.3,2621.95
546.803,2617.55
547.306,2643.2
547.81,2629.75
548.313,2648.1
548.816,2684.75
549.319,2688.05
549.822,2681.2
550.325,2698.15
550.828,2705.0
551.331,2740.8
551.834,2762.3
552.337,2798.8
552.839,2794.7
553.342,2761.65
553.844,2825.65
554.347,2834.75
554.849,2818.15
555.352,2782.35
555.854,2772.55
556.357,2815.1
556.859,2810.75
557.361,2906.95
557.863,3337.1
558.365,3172.3
558.867,2921.5
559.369,2910.5
559.871,2894.15
560.373,2873.75
560.875,2861.1
561.377,2887.35
561.878,2903.15
562.38,2914.75
562.881,2981.85
563.383,3096.1
563.884,2995.15
564.386,2950.6
564.887,3060.1
565.388,3046.5
565.89,3151.3
566.391,3103.95
566.892,2939.85
567.393,2972.4
567.894,3006.85
568.395,2972.85
568.896,3001.4
569.396,2999.8
569.897,3023.7
570.398,3006.55
570.898,3015.05
571.399,3099.9
571.9,3152.45
572.4,3112.75
572.9,3079.95
573.401,3113.75
573.901,3082.5
574.401,3112.65
574.901,3053.8
575.401,3031.4
575.901,3088.55
576.401,3217.3
576.901,3352.3
577.401,3117.05
577.901,3035.0
578.4,3018.55
578.9,3028.75
579.399,3052.35
579.899,3074.2
580.398,3053.7
580.898,3048.6
581.397,3066.1
581.896,3033.7
582.395,3041.55
582.895,3041.95
583.394,3034.8
583.893,3039.1
584.391,3053.6
584.89,3056.25
585.389,3034.55
585.888,3056.95
586.386,3122.65
586.885,3256.55
587.384,3344.0
587.882,3205.2
588.38,3049.15
588.879,3030.65
589.377,3038.7
589.875,3049.0
590.373,3056.9
590.871,3057.85
591.369,3052.05
591.867,3050.55
592.365,3070.3
592.863,3062.7
593.361,3025.45
593.858,3026.25
594.356,3036.8
594.853,3011.25
595.351,3046.95
595.848,3036.4
596.345,3042.3
596.843,3059.8
597.34,3060.1
597.837,3037.75
598.334,3036.95
598.831,3017.6
599.328,3025.05
599.824,3068.75
600.321,3073.25
600.818,3005.65
601.314,3060.9
601.811,3021.55
602.307,3012.65
602.804,3018.55
603.3,3046.1
603.796,3043.85
604.293,3033.05
604.789,3006.45
605.285,3022.45
605.781,3013.2
606.277,3025.0
606.772,3014.0
607.268,3001.55
607.764,2999.35
608.259,2995.95
608.755,3016.25
609.25,3003.0
609.746,2980.05
610.241,3008.75
610.736,2983.6
611.231,2974.9
611.727,2986.1
612.222,2957.3
612.716,2969.1
613.211,2957.5
613.706,2972.5
614.201,2944.5
614.695,2957.1
615.19,2969.4
615.684,2966.5
616.179,2948.7
616.673,2990.55
617.168,2917.85
617.662,2949.15
618.156,2921.5
618.65,2927.2
619.144,2939.45
619.638,2930.35
620.131,2922.85
620.625,2910.3
621.119,2933.5
621.612,2904.05
622.106,2928.4
622.599,2930.45
623.093,2983.25
623.586,2961.65
624.079,2908.45
624.572,2901.4
625.065,2887.05
625.558,2885.0
626.051,2888.2
626.544,2903.05
627.037,2878.5
627.529,2901.5
628.022,3011.1
628.514,3276.75
629.007,3134.05
629.499,3171.95
629.991,3169.3
630.483,3490.4
630.976,4919.6
631.468,4191.0
631.959,3468.7
632.451,3298.75
632.943,3535.2
633.435,3673.8
633.926,3347.05
634.418,2982.25
634.909,2913.6
635.401,2823.35
635.892,2802.0
636.383,2773.95
636.874,2786.55
637.365,2789.7
637.856,2811.4
638.347,2792.9
638.838,2768.75
639.329,2780.6
639.819,2783.65
640.31,2799.85
640.8,2747.25
641.291,2770.9
641.781,2778.1
642.271,2794.1
642.761,2753.35
643.251,2742.15
643.741,2754.45
644.231,2735.8
644.721,2739.5
645.211,2725.1
645.7,2718.15
646.19,2744.05
646.679,2724.3
647.169,2718.35
647.658,2728.65
648.147,2666.05
648.636,2700.45
649.125,2708.95
649.614,2723.55
650.103,2669.35
650.592,2681.45
651.08,2683.35
651.569,2659.0
652.058,2676.35
652.546,2642.4
653.034,2618.35
653.523,2595.45
654.011,2590.2
654.499,2598.1
654.987,2563.6
655.475,2559.15
655.963,2548.6
656.45,2549.4
656.938,2536.85
657.425,2515.95
657.913,2488.15
658.4,2484.5
658.888,2483.9
659.375,2456.75
659.862,2459.95
660.349,2416.85
660.836,2439.55
661.079,2415.45