File: spectra/VLFR_08-PLA_nobio_Raman_214a816c.csv
nm,Intensity
526.5,829.6
527.047,828.8
527.594,829.2
528.14,829.6
528.687,829.2
529.233,829.7
529.779,830.0
530.325,829.6
530.871,829.2
531.417,831.1
531.962,833.0
532.508,829.2
533.053,828.0
533.599,830.3
534.144,1000.7
534.689,962.2
535.234,940.2
535.778,926.1
536.323,919.4
536.867,921.4
537.412,914.4
537.956,917.0
538.5,903.9
539.044,906.1
539.588,900.2
540.132,896.7
540.675,912.5
541.219,916.4
541.762,903.3
542.305,903.4
542.848,903.7
543.391,921.2
543.934,926.5
544.477,912.6
545.02,904.2
545.562,899.6
546.105,903.1
546.647,901.6
547.189,906.4
547.731,905.6
548.273,906.3
548.815,906.7
549.356,910.1
549.898,912.2
550.439,909.0
550.981,912.9
551.522,915.4
552.063,919.3
552.604,919.0
553.145,917.9
553.686,917.2
554.226,926.2
554.767,918.1
555.307,914.3
555.848,913.6
556.388,913.4
556.928,914.4
557.468,924.3
558.008,1015.8
558.547,940.3
559.087,928.2
559.626,926.5
560.166,920.6
560.705,921.7
561.244,920.1
561.783,919.9
562.322,922.7
562.861,927.1
563.4,946.9
563.939,937.0
564.477,930.0
565.015,948.4
565.554,944.0
566.092,964.5
566.63,942.5
567.168,927.6
567.706,929.1
568.244,934.5
568.781,931.9
569.319,933.9
569.857,932.6
570.394,935.6
570.931,936.1
571.468,945.2
572.005,949.0
572.542,938.6
573.079,944.2
573.616,948.8
574.153,942.4
574.689,957.2
575.226,936.0
575.762,935.6
576.298,952.4
576.834,994.6
577.371,955.3
577.907,940.7
578.442,944.4
578.978,941.5
579.514,936.8
580.049,938.0
580.585,941.3
581.12,939.5
581.656,941.7
582.191,942.6
582.726,942.0
583.261,946.3
583.796,940.2
584.331,945.2
584.865,939.7
585.4,943.8
585.935,942.7
586.469,953.4
587.004,981.8
587.538,998.2
588.072,961.2
588.606,944.8
589.14,940.0
589.674,942.7
590.208,946.0
590.742,945.1
591.275,944.3
591.809,945.8
592.342,937.4
592.876,940.1
593.409,940.8
593.942,940.4
594.476,940.6
595.009,940.6
595.542,938.2
596.075,944.4
596.607,940.2
597.14,940.9
597.673,942.7
598.205,948.4
598.738,944.6
599.27,941.4
599.803,941.6
600.335,942.5
600.867,945.8
601.399,940.0
601.931,939.1
602.463,941.0
602.995,944.7
603.527,940.8
604.058,941.9
604.59,937.1
605.122,936.6
605.653,936.1
606.184,936.1
606.716,934.9
607.247,940.2
607.778,936.0
608.309,940.3
608.84,937.4
609.371,935.7
609.902,939.2
610.433,938.6
610.964,937.6
611.494,940.0
612.025,939.0
612.556,935.7
613.086,941.1
613.616,938.3
614.147,936.6
614.677,941.6
615.207,938.0
615.737,938.6
616.267,940.4
616.797,941.3
617.327,940.7
617.857,939.7
618.387,937.6
618.917,942.3
619.446,937.7
619.976,939.0
620.505,938.0
621.035,936.8
621.564,937.4
622.093,939.7
622.623,941.2
623.152,948.8
623.681,950.7
624.21,939.8
624.739,937.4
625.268,936.0
625.797,936.5
626.326,937.4
626.855,939.8
627.383,938.4
627.912,943.6
628.441,1003.0
628.969,997.4
629.498,987.5
630.026,992.1
630.554,1041.2
631.083,1362.2
631.611,1161.2
632.139,1041.6
632.667,1030.7
633.195,1110.4
633.724,1078.6
634.252,996.8
634.779,951.2
635.307,938.2
635.835,933.7
636.363,934.4
636.891,927.0
637.418,924.4
637.946,931.7
638.474,921.7
639.001,925.8
639.529,926.4
640.056,922.2
640.583,928.1
641.111,924.6
641.638,926.9
642.165,926.6
642.692,923.3
643.22,922.5
643.747,921.0
644.274,920.0
644.801,916.2
645.328,916.2
645.854,915.7
646.381,912.5
646.908,916.6
647.435,918.2
647.962,913.5
648.488,914.6
649.015,914.0
649.542,916.0
650.068,913.7
650.595,910.6
651.121,912.2
651.648,914.4
652.174,911.4
652.7,912.3
653.227,913.2
653.753,908.6
654.279,908.1
654.805,911.0
655.331,910.2
655.858,907.0
656.384,908.6
656.91,908.7
657.436,909.2
657.962,910.6
658.488,908.6
659.013,906.9
659.539,905.6
660.065,903.4
660.591,906.8
661.117,904.7
661.642,904.7
662.168,904.1
662.694,902.5
663.088,901.3