File: spectra/VLFR_08-PLA_bio_Raman_8567b81f.csv
nm,Intensity
526.495,829.0
527.042,830.3
527.589,829.0
528.136,828.4
528.682,829.8
529.229,828.9
529.775,829.4
530.321,829.7
530.867,828.3
531.413,829.6
531.959,829.6
532.505,831.6
533.051,829.1
533.596,830.4
534.141,1038.5
534.687,1005.0
535.232,981.0
535.777,967.0
536.321,960.2
536.866,958.6
537.41,950.5
537.955,954.6
538.499,944.4
539.043,941.7
539.587,942.6
540.131,936.9
540.675,951.7
541.219,952.0
541.762,944.7
542.305,944.9
542.849,948.5
543.392,969.0
543.935,978.8
544.478,958.3
545.02,952.2
545.563,948.2
546.106,950.1
546.648,948.0
547.19,952.9
547.732,954.8
548.274,954.4
548.816,954.9
549.358,959.4
549.9,961.4
550.441,958.7
550.983,968.5
551.524,969.3
552.065,971.6
552.606,974.6
553.147,973.9
553.688,970.2
554.229,980.5
554.769,972.5
555.31,970.6
555.85,965.2
556.391,971.7
556.931,972.1
557.471,987.2
558.011,1089.0
558.551,1004.1
559.09,980.8
559.63,982.5
560.169,984.4
560.709,976.4
561.248,979.7
561.787,976.9
562.326,984.0
562.865,992.2
563.404,1024.0
563.943,1004.9
564.481,997.4
565.02,1014.3
565.558,1015.6
566.096,1040.1
566.634,1013.1
567.172,990.7
567.71,999.5
568.248,993.4
568.786,999.7
569.324,1001.6
569.861,1005.4
570.399,1003.1
570.936,1008.8
571.473,1021.5
572.01,1012.8
572.547,1023.8
573.084,1017.8
573.621,1023.8
574.158,1027.3
574.694,1033.3
575.231,1013.5
575.767,1012.9
576.303,1029.6
576.84,1077.7
577.376,1034.6
577.912,1018.4
578.448,1015.4
578.984,1014.9
579.519,1012.0
580.055,1016.0
580.59,1020.4
581.126,1017.7
581.661,1014.9
582.196,1016.0
582.731,1015.9
583.267,1022.0
583.801,1022.3
584.336,1024.8
584.871,1015.0
585.406,1025.2
585.94,1020.9
586.475,1036.6
587.009,1065.2
587.543,1087.6
588.078,1043.7
588.612,1027.1
589.146,1025.7
589.68,1023.2
590.214,1030.2
590.747,1024.1
591.281,1032.9
591.815,1019.2
592.348,1025.6
592.881,1019.2
593.415,1025.4
593.948,1024.6
594.481,1023.4
595.014,1026.2
595.547,1025.3
596.08,1021.3
596.613,1026.2
597.146,1024.8
597.678,1025.4
598.211,1024.7
598.743,1029.6
599.276,1026.4
599.808,1027.2
600.34,1025.6
600.872,1026.1
601.404,1018.4
601.936,1024.0
602.468,1025.3
603.0,1025.1
603.532,1027.1
604.064,1028.3
604.595,1021.9
605.127,1022.4
605.658,1018.9
606.189,1012.3
606.721,1019.8
607.252,1018.9
607.783,1026.0
608.314,1020.3
608.845,1022.7
609.376,1019.9
609.907,1022.9
610.438,1022.2
610.968,1017.7
611.499,1021.3
612.029,1020.5
612.56,1023.0
613.09,1020.3
613.621,1027.4
614.151,1026.6
614.681,1025.8
615.211,1026.6
615.741,1028.5
616.271,1024.5
616.801,1031.7
617.331,1024.4
617.861,1023.2
618.39,1024.7
618.92,1026.6
619.45,1023.7
619.979,1020.9
620.509,1027.0
621.038,1016.5
621.567,1020.0
622.096,1025.3
622.626,1035.1
623.155,1039.2
623.684,1040.3
624.213,1033.7
624.742,1023.5
625.271,1023.4
625.799,1025.1
626.328,1024.9
626.857,1018.8
627.386,1026.0
627.914,1029.8
628.443,1095.3
628.971,1090.9
629.5,1085.9
630.028,1088.1
630.556,1149.7
631.084,1528.2
631.613,1283.5
632.141,1150.4
632.669,1124.9
633.197,1215.9
633.725,1182.0
634.253,1081.7
634.781,1035.3
635.308,1019.4
635.836,1018.4
636.364,1013.8
636.891,1014.8
637.419,1011.3
637.947,1002.8
638.474,1012.6
639.002,1010.9
639.529,1004.6
640.056,1004.7
640.584,1006.5
641.111,1004.6
641.638,1004.5
642.165,1004.2
642.692,1000.1
643.219,1000.1
643.746,996.7
644.273,994.4
644.8,994.1
645.327,990.0
645.854,993.4
646.381,991.3
646.908,990.3
647.434,984.4
647.961,988.4
648.488,990.1
649.014,987.4
649.541,985.4
650.067,981.0
650.594,980.4
651.12,982.6
651.646,986.1
652.173,980.4
652.699,976.4
653.225,977.8
653.752,979.8
654.278,977.4
654.804,978.3
655.33,975.9
655.856,976.1
656.382,979.4
656.908,976.1
657.434,978.5
657.96,972.7
658.486,978.7
659.012,973.3
659.538,973.7
660.064,974.0
660.589,973.4
661.115,964.8
661.641,970.2
662.166,968.7
662.692,967.2
663.086,965.8