File: spectra/VLFR_07-PET_bio_Raman_04a5bad1.csv
nm,Intensity
791.588,7974.8
792.685,7623.5
793.781,7458.2
794.878,7400.7
795.975,7250.8
797.071,7245.6
798.168,7299.4
799.264,7254.1
800.36,7205.9
801.456,7181.7
802.552,7145.5
803.648,7100.1
804.744,6996.3
805.84,7029.5
806.936,7007.0
808.031,7011.2
809.127,6981.0
810.222,6894.5
811.317,6927.9
812.412,6816.0
813.507,6767.0
814.602,6744.0
815.697,6695.1
816.792,6615.3
817.887,6586.2
818.981,6538.8
820.076,6508.3
821.17,6464.1
822.265,6418.5
823.359,6283.1
824.453,6353.7
825.547,6293.6
826.641,6269.1
827.735,6149.6
828.828,6153.5
829.922,6149.7
831.016,6135.2
832.109,6031.3
833.202,6025.6
834.295,5991.2
835.388,5965.6
836.481,5954.6
837.574,5967.9
838.667,5927.7
839.76,5871.9
840.852,5932.5
841.945,5949.3
843.037,5871.9
844.129,5823.8
845.221,5752.8
846.314,5740.8
847.405,5680.6
848.497,5645.1
849.589,5649.6
850.68,5625.9
851.772,5610.6
852.863,5585.1
853.955,5543.9
855.046,5537.4
856.137,5526.3
857.228,5467.3
858.318,5517.1
859.409,5510.7
860.5,5498.1
861.59,5460.6
862.681,5379.5
863.771,5372.0
864.861,5358.5
865.951,5293.3
867.041,5248.7
868.131,5263.3
869.22,5256.9
870.31,5285.7
871.399,5301.7
872.488,5320.5
873.578,5284.9
874.667,5223.8
875.756,5166.1
876.845,5142.9
877.933,5135.2
879.022,5071.6
880.11,5054.0
881.199,5046.8
882.287,5030.6
883.375,5008.1
884.463,4978.9
885.551,4991.5
886.639,4971.0
887.726,4909.6
888.814,4900.1
889.901,4872.6
890.988,4870.5
892.075,4831.1
893.162,4810.8
894.249,4788.8
895.336,4772.4
896.423,4749.3
897.509,4806.4
898.595,4897.0
899.682,4792.4
900.768,4631.8
901.854,4626.2
902.94,4607.2
904.025,4611.6
905.111,4579.0
906.196,4609.7
907.282,4705.0
908.367,4678.9
909.452,4585.3
910.537,4499.6
911.622,4476.5
912.706,4436.9
913.791,4436.6
914.875,4405.4
915.959,4393.7
917.044,4373.0
918.128,4357.9
919.211,4359.3
920.295,4341.9
921.379,4348.1
922.462,4301.8
923.546,4300.0
924.629,4271.3
925.712,4264.3
926.795,4252.2
927.877,4229.2
928.96,4195.4
930.043,4182.1
931.125,4175.0
932.207,4143.3
933.289,4132.9
934.371,4130.4
935.453,4117.7
936.535,4098.3
937.616,4102.1
938.697,4078.5
939.779,4065.5
940.86,4069.8
941.941,4054.3
943.022,4040.6
944.102,4036.0
945.183,4018.1
946.263,4010.8
947.343,4010.6
948.423,3997.2
949.503,3981.1
950.583,3979.6
951.663,3977.2
952.742,3964.0
953.822,3958.8
954.901,3953.1
955.98,3939.9
957.059,3935.4
958.137,3935.3
959.216,3922.6
960.294,3924.1
961.373,3913.8
962.451,3909.4
963.529,3908.6
964.607,3905.4
965.684,3897.0
966.762,3895.6
967.839,3887.4
968.917,3889.6
969.994,3885.3
971.071,3880.6
972.147,3872.1
973.224,3871.0
974.3,3863.2
975.377,3857.9
976.453,3856.9
977.529,3851.2
978.605,3855.2
979.68,3852.5
980.756,3845.4
981.831,3842.9
982.907,3840.7
983.982,3840.5
985.057,3832.6
986.131,3838.4
987.206,3830.6
988.28,3826.9
989.355,3821.0
990.429,3826.1
991.503,3820.2
992.576,3816.7
993.65,3816.5
994.723,3813.0
995.797,3810.5
996.87,3809.4
997.943,3806.9
999.016,3805.6
1000.09,3802.7
1001.16,3798.8
1002.23,3800.8
1003.31,3798.0
1004.38,3794.1
1005.45,3795.6
1006.52,3791.3
1007.59,3788.7
1008.66,3789.1
1009.73,3787.9
1010.81,3786.6
1011.88,3788.5
1012.95,3784.3
1014.02,3781.9
1015.09,3781.6
1016.16,3782.2
1017.23,3778.5
1018.3,3777.4
1019.37,3778.1
1020.44,3776.0
1021.51,3777.9
1022.58,3776.4
1023.64,3775.3
1024.71,3772.9
1025.78,3772.7
1026.85,3771.3
1027.92,3771.2
1028.99,3768.4
1030.05,3767.3
1031.12,3767.5
1032.19,3764.3
1033.26,3766.4
1034.32,3765.8
1035.39,3765.7
1036.46,3766.1
1037.52,3764.5
1038.59,3762.3
1039.66,3760.1
1040.72,3763.6
1041.79,3761.3
1042.86,3760.4
1043.92,3760.2
1044.99,3760.5
1046.05,3759.7
1047.12,3760.7
1048.18,3760.2
1049.25,3759.3
1050.31,3759.5
1051.37,3759.3
1052.44,3757.2
1053.5,3758.9
1054.57,3757.1
1055.63,3758.7
1056.69,3758.1
1057.76,3759.0
1058.82,3756.6
1059.88,3757.2
1060.95,3755.5
1062.01,3757.1
1063.07,3758.4
1064.13,3758.2
1065.19,3755.7
1066.26,3756.2
1067.32,3753.3
1068.11,3753.3