File: spectra/VLFR_07-PET_nobio_Raman_6c9578e7.csv
nm,Intensity
791.588,11208.1
792.685,10339.5
793.781,9789.6
794.878,9612.1
795.975,9463.2
797.071,9526.8
798.168,9475.9
799.264,9577.1
800.36,9575.7
801.456,9408.7
802.552,9488.7
803.648,9342.5
804.744,9273.8
805.84,9128.6
806.936,9105.3
808.031,9051.8
809.127,8841.8
810.222,8853.2
811.317,8859.6
812.412,8757.2
813.507,8711.0
814.602,8682.2
815.697,8540.9
816.792,8565.0
817.887,8441.1
818.981,8312.7
820.076,8358.9
821.17,8262.6
822.265,8195.6
823.359,8156.6
824.453,8067.0
825.547,8196.7
826.641,8031.0
827.735,7915.0
828.828,7824.3
829.922,7830.2
831.016,7856.4
832.109,7700.0
833.202,7650.2
834.295,7596.0
835.388,7517.9
836.481,7478.6
837.574,7571.5
838.667,7533.0
839.76,7498.9
840.852,7613.2
841.945,7646.4
843.037,7427.0
844.129,7338.8
845.221,7113.4
846.314,6984.3
847.405,7033.3
848.497,6950.5
849.589,6899.4
850.681,6868.0
851.772,6841.2
852.863,6865.6
853.955,6855.3
855.046,6771.1
856.137,6756.2
857.228,6681.5
858.318,6749.9
859.409,6878.0
860.5,6832.6
861.59,6590.4
862.681,6560.1
863.771,6594.6
864.861,6562.2
865.951,6465.8
867.041,6388.3
868.131,6329.3
869.22,6417.2
870.31,6355.2
871.399,6534.9
872.488,6721.9
873.578,6612.7
874.667,6450.0
875.756,6244.3
876.845,6240.5
877.933,6123.6
879.022,6132.7
880.11,6110.3
881.199,6016.6
882.287,6095.7
883.375,6058.5
884.463,6028.1
885.551,6020.7
886.639,5952.0
887.726,5846.7
888.814,5895.6
889.901,5773.9
890.988,5835.7
892.075,5794.9
893.162,5727.9
894.249,5669.7
895.336,5639.9
896.423,5672.8
897.509,5964.8
898.595,6385.1
899.682,5920.3
900.768,5501.8
901.854,5440.7
902.94,5440.2
904.025,5389.8
905.111,5411.6
906.196,5481.1
907.282,5877.5
908.367,5808.5
909.452,5542.0
910.537,5247.9
911.622,5179.4
912.706,5113.3
913.791,5075.0
914.875,5063.7
915.959,5024.7
917.044,5015.9
918.128,4932.9
919.211,4940.1
920.295,4912.4
921.379,4866.5
922.462,4818.7
923.546,4797.8
924.629,4786.1
925.712,4769.1
926.795,4719.6
927.877,4713.6
928.96,4689.4
930.043,4652.8
931.125,4598.2
932.207,4567.1
933.289,4549.4
934.371,4529.8
935.453,4510.8
936.535,4472.6
937.616,4466.1
938.697,4417.3
939.779,4403.7
940.86,4404.7
941.941,4388.1
943.022,4350.7
944.102,4339.6
945.183,4323.7
946.263,4309.7
947.343,4305.1
948.423,4257.6
949.503,4277.0
950.583,4235.2
951.663,4217.4
952.742,4232.4
953.822,4184.5
954.901,4183.0
955.98,4170.1
957.059,4146.3
958.137,4145.5
959.216,4143.9
960.294,4112.3
961.373,4096.3
962.451,4099.2
963.529,4074.1
964.607,4075.4
965.684,4066.5
966.762,4051.5
967.839,4051.0
968.917,4037.1
969.994,4027.7
971.071,4016.0
972.147,4005.2
973.224,4005.9
974.3,3990.0
975.377,3982.3
976.453,3977.2
977.529,3960.0
978.605,3961.8
979.68,3953.9
980.756,3938.9
981.831,3941.8
982.907,3935.4
983.982,3934.4
985.057,3922.2
986.131,3916.3
987.206,3906.7
988.28,3904.9
989.355,3903.6
990.429,3892.9
991.503,3887.2
992.576,3886.6
993.65,3877.4
994.723,3878.0
995.797,3866.1
996.87,3866.7
997.943,3865.4
999.016,3860.4
1000.09,3851.4
1001.16,3848.5
1002.23,3845.0
1003.31,3846.8
1004.38,3841.4
1005.45,3832.4
1006.52,3835.0
1007.59,3826.4
1008.66,3823.5
1009.73,3824.7
1010.81,3822.2
1011.88,3816.2
1012.95,3817.0
1014.02,3811.1
1015.09,3812.4
1016.16,3811.5
1017.23,3808.5
1018.3,3805.1
1019.37,3802.8
1020.44,3802.0
1021.51,3807.6
1022.58,3806.8
1023.64,3806.2
1024.71,3801.6
1025.78,3798.4
1026.85,3792.0
1027.92,3790.0
1028.99,3786.5
1030.05,3783.2
1031.12,3783.7
1032.19,3779.2
1033.26,3783.0
1034.32,3786.1
1035.39,3786.5
1036.46,3781.7
1037.52,3778.2
1038.59,3778.0
1039.66,3771.3
1040.72,3771.9
1041.79,3769.2
1042.86,3767.3
1043.92,3766.5
1044.99,3765.1
1046.05,3764.4
1047.12,3764.4
1048.18,3764.8
1049.25,3761.9
1050.31,3761.4
1051.37,3761.9
1052.44,3761.9
1053.5,3760.1
1054.57,3759.6
1055.63,3760.0
1056.69,3759.6
1057.76,3761.7
1058.82,3759.9
1059.88,3760.1
1060.95,3759.2
1062.01,3759.7
1063.07,3758.5
1064.13,3757.8
1065.19,3761.9
1066.26,3757.2
1067.32,3757.6
1068.11,3759.2