File: spectra/VLFR_02-HDPE_bio_Raman_946a2bd7.csv
nm,Intensity
526.547,833.7
527.095,832.4
527.642,832.4
528.189,832.5
528.736,833.7
529.283,831.9
529.829,832.4
530.376,832.2
530.922,832.3
531.468,831.9
532.014,834.2
532.56,831.05
533.106,832.6
533.651,832.95
534.196,884.55
534.742,885.25
535.287,880.5
535.832,859.1
536.376,854.9
536.921,851.45
537.465,849.75
538.01,852.6
538.554,849.2
539.098,848.6
539.642,846.35
540.186,846.6
540.729,846.2
541.273,846.45
541.816,845.5
542.36,845.15
542.903,845.95
543.446,845.3
543.988,846.95
544.531,846.4
545.074,845.15
545.616,846.15
546.158,846.6
546.701,847.6
547.243,847.05
547.785,846.25
548.326,848.35
548.868,846.1
549.41,848.0
549.951,847.1
550.492,847.35
551.034,847.25
551.575,848.65
552.116,848.05
552.656,849.75
553.197,848.25
553.738,849.85
554.278,849.95
554.819,850.65
555.359,849.1
555.899,851.4
556.439,851.5
556.979,852.25
557.519,852.6
558.058,855.6
558.598,855.3
559.137,852.95
559.677,853.3
560.216,854.75
560.755,853.75
561.294,853.05
561.833,851.65
562.371,857.1
562.91,854.6
563.449,858.2
563.987,933.65
564.525,870.1
565.064,865.85
565.602,860.75
566.14,910.3
566.678,862.05
567.216,860.05
567.753,862.5
568.291,856.95
568.828,857.1
569.366,857.0
569.903,857.1
570.44,860.7
570.977,865.9
571.514,989.6
572.051,875.8
572.588,862.55
573.125,859.85
573.661,860.85
574.198,863.9
574.734,859.8
575.271,864.25
575.807,884.15
576.343,984.1
576.879,921.5
577.415,899.35
577.951,869.3
578.486,863.3
579.022,862.45
579.557,863.85
580.093,863.05
580.628,864.25
581.164,863.0
581.699,864.15
582.234,866.7
582.769,865.75
583.304,866.9
583.838,868.2
584.373,868.8
584.908,869.9
585.442,871.95
585.977,876.55
586.511,877.25
587.045,878.35
587.58,881.0
588.114,884.95
588.648,887.9
589.182,888.15
589.715,892.3
590.249,894.0
590.783,896.85
591.316,898.35
591.85,902.55
592.383,900.1
592.917,904.25
593.45,901.0
593.983,902.8
594.516,906.55
595.049,905.4
595.582,908.0
596.115,904.85
596.648,905.8
597.18,903.3
597.713,905.95
598.245,907.1
598.778,905.25
599.31,903.65
599.842,905.45
600.375,903.5
600.907,900.95
601.439,902.05
601.971,904.05
602.503,900.7
603.034,896.5
603.566,899.3
604.098,899.75
604.629,897.15
605.161,893.1
605.692,890.25
606.224,892.15
606.755,889.7
607.286,886.55
607.817,887.9
608.348,886.65
608.879,884.75
609.41,883.9
609.941,883.95
610.472,885.9
611.002,884.05
611.533,884.25
612.063,883.45
612.594,883.95
613.124,883.2
613.655,883.1
614.185,881.95
614.715,882.5
615.245,883.5
615.775,882.8
616.305,884.3
616.835,886.1
617.365,888.55
617.895,892.7
618.425,888.55
618.954,888.1
619.484,890.75
620.013,888.85
620.543,887.35
621.072,894.35
621.602,914.1
622.131,944.25
622.66,932.0
623.189,901.2
623.718,891.6
624.247,886.3
624.776,889.75
625.305,893.35
625.834,899.45
626.363,941.25
626.891,1291.35
627.42,1685.55
627.949,1355.2
628.477,1744.85
629.006,1296.85
629.534,1207.45
630.062,1101.55
630.591,1076.6
631.119,960.2
631.647,903.45
632.175,889.75
632.703,886.05
633.231,882.45
633.759,881.3
634.287,877.65
634.815,877.9
635.343,875.85
635.871,873.7
636.398,876.0
636.926,873.15
637.454,870.8
637.981,870.15
638.509,871.5
639.036,871.45
639.564,871.55
640.091,868.9
640.618,872.15
641.146,873.8
641.673,872.0
642.2,869.85
642.727,870.8
643.254,872.85
643.781,871.25
644.308,871.2
644.835,869.8
645.362,872.2
645.889,869.1
646.416,869.4
646.942,869.8
647.469,870.35
647.996,870.45
648.522,870.8
649.049,869.05
649.576,867.85
650.102,870.85
650.629,868.5
651.155,868.05
651.682,869.1
652.208,869.55
652.734,867.6
653.261,867.45
653.787,865.7
654.313,865.65
654.839,865.05
655.365,866.9
655.892,865.5
656.418,864.6
656.944,865.0
657.47,864.3
657.996,865.55
658.522,864.6
659.048,865.55
659.574,864.05
660.099,864.65
660.625,863.35
661.151,861.55
661.677,861.5
662.203,861.05
662.728,860.5
663.123,857.3