File: spectra/VLFR_06-PET_nobio_Raman_e3cb3080.csv
nm,Intensity
526.5,830.3
527.047,829.1
527.594,830.1
528.14,830.5
528.687,829.4
529.233,828.7
529.779,829.9
530.325,829.2
530.871,829.8
531.417,830.2
531.962,837.0
532.508,829.9
533.053,831.3
533.599,841.2
534.144,2363.3
534.689,2478.1
535.234,2451.8
535.778,2569.8
536.323,2596.5
536.867,2612.5
537.412,2620.4
537.956,2672.3
538.5,2674.6
539.044,2685.0
539.588,2720.5
540.132,2738.4
540.675,2736.5
541.219,2765.2
541.762,2778.2
542.305,2799.1
542.848,2811.2
543.391,2844.9
543.934,2839.7
544.477,2858.1
545.02,2883.1
545.562,2932.4
546.105,2888.5
546.647,2889.8
547.189,2880.8
547.731,2883.4
548.273,2913.6
548.815,2898.7
549.356,2918.8
549.898,2903.8
550.439,2897.8
550.981,2913.9
551.522,2931.8
552.063,2938.1
552.604,2923.9
553.145,2932.3
553.686,2925.9
554.226,2963.0
554.767,2958.2
555.307,2934.5
555.848,2939.6
556.388,2918.4
556.928,2948.3
557.468,2929.7
558.008,2925.5
558.547,2929.1
559.087,2944.6
559.626,2978.1
560.166,3000.7
560.705,3002.6
561.244,3006.9
561.783,3007.8
562.322,3027.5
562.861,3045.3
563.4,3093.3
563.939,3119.4
564.477,3136.3
565.015,3152.2
565.554,3164.8
566.092,3166.3
566.63,3164.1
567.168,3177.2
567.706,3188.2
568.244,3225.2
568.781,3254.5
569.319,3302.6
569.857,3328.3
570.394,3346.9
570.931,3377.2
571.468,3374.9
572.005,3385.9
572.542,3404.1
573.079,3435.4
573.616,3465.7
574.153,3480.1
574.689,3486.9
575.226,3528.3
575.762,3539.4
576.298,3571.8
576.834,3584.6
577.371,3585.4
577.907,3600.4
578.442,3605.3
578.978,3612.2
579.514,3631.2
580.049,3638.6
580.585,3638.9
581.12,3650.2
581.656,3668.1
582.191,3728.3
582.726,3685.9
583.261,3705.0
583.796,3698.0
584.331,3684.8
584.865,3676.2
585.4,3698.8
585.935,3697.0
586.469,3724.7
587.004,3702.0
587.538,3706.3
588.072,3673.8
588.606,3679.0
589.14,3673.1
589.674,3635.1
590.208,3644.7
590.742,3660.3
591.275,3653.4
591.809,3640.6
592.342,3608.4
592.876,3607.3
593.409,3585.6
593.942,3571.3
594.476,3583.0
595.009,3581.6
595.542,3574.5
596.075,3597.2
596.607,3570.7
597.14,3581.3
597.673,3578.4
598.205,3583.9
598.738,3587.9
599.27,3586.1
599.803,3559.3
600.335,3531.5
600.867,3508.6
601.399,3502.1
601.931,3476.6
602.463,3459.4
602.995,3443.4
603.527,3438.7
604.058,3435.3
604.59,3431.5
605.122,3386.3
605.653,3355.4
606.184,3324.7
606.716,3334.6
607.247,3355.3
607.778,3340.3
608.309,3352.8
608.84,3347.5
609.371,3336.4
609.902,3325.1
610.433,3320.9
610.964,3304.3
611.494,3307.2
612.025,3322.2
612.556,3347.2
613.086,3358.0
613.616,3341.1
614.147,3354.2
614.677,3347.4
615.207,3337.4
615.737,3293.0
616.267,3292.6
616.797,3292.9
617.327,3270.6
617.857,3294.0
618.387,3274.1
618.917,3281.9
619.446,3286.3
619.976,3270.6
620.505,3275.1
621.035,3251.7
621.564,3249.1
622.093,3245.6
622.623,3238.8
623.152,3248.3
623.681,3254.5
624.21,3247.4
624.739,3238.9
625.268,3243.4
625.797,3214.0
626.326,3200.3
626.855,3197.4
627.383,3217.0
627.912,3199.4
628.441,3182.7
628.969,3208.0
629.498,3175.3
630.026,3156.9
630.554,3155.4
631.083,3122.9
631.611,3120.8
632.139,3132.1
632.667,3098.5
633.195,3104.9
633.724,3105.1
634.252,3086.5
634.779,3075.9
635.307,3099.8
635.835,3085.7
636.363,3087.2
636.891,3066.3
637.418,3043.2
637.946,3035.6
638.474,3022.0
639.001,3017.9
639.529,2994.9
640.056,3007.0
640.583,2989.8
641.111,2988.2
641.638,2973.7
642.165,2984.1
642.692,2972.7
643.22,2933.5
643.747,2929.7
644.274,2935.2
644.801,2901.4
645.328,2870.3
645.854,2872.8
646.381,2850.2
646.908,2862.6
647.435,2862.8
647.962,2856.5
648.488,2828.3
649.015,2818.4
649.542,2807.2
650.068,2799.7
650.595,2781.0
651.121,2775.9
651.648,2765.7
652.174,2770.9
652.7,2788.7
653.227,2756.1
653.753,2773.7
654.279,2760.4
654.805,2735.0
655.331,2719.6
655.858,2719.6
656.384,2708.7
656.91,2726.4
657.436,2716.0
657.962,2703.5
658.488,2693.5
659.013,2679.7
659.539,2681.6
660.065,2660.3
660.591,2654.6
661.117,2634.0
661.642,2605.8
662.168,2588.7
662.694,2597.5
663.088,2585.1