File: spectra/VLFR_08-PLA_nobio_Raman_7c863afe.csv
nm,Intensity
526.486,829.7
527.033,830.0
527.579,829.7
528.126,829.7
528.672,829.0
529.219,829.3
529.765,829.1
530.311,828.4
530.857,828.1
531.403,829.3
531.948,832.2
532.494,830.7
533.039,829.7
533.585,831.8
534.13,1031.6
534.675,982.6
535.22,943.7
535.764,916.6
536.309,908.7
536.854,910.8
537.398,899.6
537.942,902.0
538.486,886.3
539.03,884.6
539.574,880.3
540.118,871.6
540.662,888.7
541.205,890.6
541.749,881.2
542.292,872.6
542.835,877.3
543.378,897.0
543.921,908.2
544.464,885.4
545.006,875.3
545.549,866.7
546.091,867.1
546.634,866.6
547.176,869.3
547.718,865.9
548.26,870.4
548.802,869.7
549.343,869.5
549.885,870.4
550.426,871.2
550.968,873.5
551.509,875.9
552.05,878.1
552.591,880.0
553.132,876.7
553.673,874.9
554.214,885.6
554.754,875.7
555.295,870.8
555.835,866.8
556.375,867.8
556.915,870.8
557.455,888.6
557.995,1004.5
558.535,911.6
559.075,882.9
559.614,885.1
560.154,875.6
560.693,873.4
561.232,873.1
561.772,867.4
562.311,872.8
562.85,883.0
563.388,915.0
563.927,896.5
564.466,881.8
565.004,905.0
565.543,899.3
566.081,931.7
566.619,901.8
567.157,876.9
567.695,882.8
568.233,884.8
568.771,886.3
569.309,884.1
569.846,876.7
570.384,880.0
570.921,886.7
571.458,897.8
571.995,903.5
572.532,896.3
573.069,896.3
573.606,897.7
574.143,890.4
574.68,907.8
575.216,881.7
575.753,883.3
576.289,902.2
576.825,972.5
577.361,905.4
577.897,886.1
578.433,880.9
578.969,880.1
579.505,880.0
580.041,881.0
580.576,882.0
581.112,881.0
581.647,880.9
582.183,883.1
582.718,884.8
583.253,885.0
583.788,883.1
584.323,884.5
584.858,885.7
585.392,884.9
585.927,884.1
586.462,896.1
586.996,936.8
587.53,961.5
588.065,915.8
588.599,889.0
589.133,887.8
589.667,884.1
590.201,883.4
590.735,882.1
591.268,882.4
591.802,883.7
592.335,881.6
592.869,879.8
593.402,883.6
593.936,882.7
594.469,880.6
595.002,883.1
595.535,883.0
596.068,882.4
596.601,884.0
597.133,882.5
597.666,882.5
598.199,882.3
598.731,879.9
599.264,884.3
599.796,882.3
600.328,884.6
600.86,881.7
601.393,881.3
601.925,881.2
602.457,882.2
602.988,884.4
603.52,881.0
604.052,883.8
604.583,884.3
605.115,880.1
605.646,882.5
606.178,882.8
606.709,884.4
607.24,880.0
607.771,882.8
608.302,882.9
608.833,883.3
609.364,881.5
609.895,884.2
610.426,883.2
610.957,883.6
611.487,885.6
612.018,886.0
612.548,883.0
613.078,882.2
613.609,883.1
614.139,885.2
614.669,883.7
615.199,888.0
615.729,887.3
616.259,886.4
616.789,889.3
617.319,886.3
617.849,888.5
618.378,884.7
618.908,886.0
619.437,888.3
619.967,890.6
620.496,884.6
621.025,886.3
621.555,888.7
622.084,889.0
622.613,899.8
623.142,901.4
623.671,896.5
624.2,894.3
624.729,889.9
625.258,887.7
625.786,888.4
626.315,890.0
626.844,890.4
627.372,890.1
627.901,900.2
628.429,969.1
628.957,965.0
629.486,961.4
630.014,960.9
630.542,1025.2
631.07,1452.9
631.598,1204.7
632.126,1033.2
632.654,1011.1
633.182,1114.5
633.71,1075.3
634.237,968.2
634.765,913.5
635.293,897.0
635.82,891.5
636.348,888.3
636.875,883.1
637.403,883.0
637.93,882.9
638.458,879.6
638.985,882.6
639.512,884.2
640.039,880.2
640.566,878.7
641.093,881.8
641.62,884.8
642.147,879.9
642.674,881.9
643.201,878.4
643.728,879.7
644.255,878.4
644.781,876.2
645.308,879.7
645.835,876.6
646.361,876.3
646.888,872.5
647.414,875.8
647.941,874.5
648.467,877.1
648.993,872.8
649.52,873.8
650.046,872.6
650.572,874.2
651.098,873.7
651.625,877.3
652.151,874.5
652.677,872.4
653.203,871.8
653.729,872.9
654.255,870.3
654.78,872.5
655.306,872.3
655.832,871.5
656.358,873.0
656.884,874.6
657.409,870.4
657.935,870.4
658.461,871.3
658.986,869.3
659.512,872.2
660.037,873.0
660.563,871.9
661.088,868.0
661.614,870.4
662.139,868.9
662.664,868.0
663.058,869.1