File: spectra/VLFR_06-PET_nobio_Raman_dd99378b.csv
nm,Intensity
526.508,831.7
527.055,829.8
527.602,832.1
528.149,829.4
528.695,830.3
529.241,830.2
529.787,829.8
530.334,828.9
530.879,830.4
531.425,829.3
531.971,833.8
532.516,831.1
533.062,829.3
533.607,838.9
534.152,2214.3
534.697,1816.7
535.242,1451.3
535.786,1217.2
536.331,1065.7
536.876,1014.5
537.42,991.7
537.964,981.7
538.508,991.1
539.052,983.7
539.596,1003.5
540.14,1012.4
540.683,964.5
541.227,947.3
541.77,945.9
542.313,945.5
542.856,951.1
543.399,949.4
543.942,959.3
544.485,954.2
545.027,954.2
545.57,959.1
546.112,964.9
546.654,963.6
547.196,961.4
547.738,970.5
548.28,969.0
548.822,973.3
549.363,977.5
549.905,974.5
550.446,996.6
550.988,1005.7
551.529,991.2
552.07,993.2
552.611,1000.2
553.152,1022.7
553.692,1002.3
554.233,1004.4
554.773,1005.7
555.314,1025.6
555.854,1079.7
556.394,1092.3
556.934,1099.9
557.474,1257.5
558.014,1132.7
558.553,1122.3
559.093,1077.3
559.632,1047.3
560.172,1045.4
560.711,1051.6
561.25,1057.4
561.789,1066.3
562.328,1084.7
562.867,1094.8
563.406,1102.8
563.944,1094.6
564.483,1100.5
565.021,1157.0
565.559,1227.1
566.098,1230.2
566.636,1126.9
567.174,1111.4
567.711,1204.2
568.249,1126.9
568.787,1125.0
569.324,1128.9
569.862,1157.4
570.399,1215.7
570.936,1370.5
571.474,1506.6
572.011,1314.1
572.548,1198.7
573.084,1167.7
573.621,1171.8
574.158,1206.8
574.694,1184.2
575.231,1222.0
575.767,1203.7
576.303,1234.1
576.84,1251.9
577.376,1209.5
577.912,1199.5
578.447,1205.2
578.983,1199.9
579.519,1213.5
580.054,1220.5
580.59,1226.8
581.125,1256.5
581.661,1349.5
582.196,2704.6
582.731,1317.9
583.266,1256.4
583.801,1255.4
584.336,1269.9
584.87,1290.2
585.405,1392.8
585.94,2012.0
586.474,1726.2
587.008,1347.5
587.543,1299.8
588.077,1284.1
588.611,1294.9
589.145,1282.7
589.679,1288.3
590.213,1286.9
590.747,1296.1
591.28,1293.1
591.814,1297.7
592.347,1298.9
592.881,1304.3
593.414,1304.1
593.947,1297.8
594.48,1312.6
595.014,1310.6
595.547,1319.0
596.079,1319.6
596.612,1322.6
597.145,1320.1
597.678,1334.4
598.21,1330.7
598.743,1339.0
599.275,1338.8
599.807,1338.8
600.34,1334.6
600.872,1335.0
601.404,1336.0
601.936,1338.9
602.468,1338.4
603.0,1342.6
603.532,1349.2
604.063,1343.6
604.595,1346.1
605.126,1347.1
605.658,1333.3
606.189,1336.2
606.721,1342.5
607.252,1343.3
607.783,1343.0
608.314,1351.9
608.845,1357.3
609.376,1359.6
609.907,1347.7
610.438,1356.5
610.968,1354.7
611.499,1364.5
612.03,1368.8
612.56,1367.2
613.091,1377.8
613.621,1384.6
614.151,1389.5
614.681,1388.4
615.212,1387.7
615.742,1390.2
616.272,1399.7
616.802,1401.3
617.332,1406.7
617.861,1410.4
618.391,1423.3
618.921,1420.8
619.45,1421.3
619.98,1411.4
620.509,1414.1
621.039,1417.2
621.568,1420.9
622.097,1425.1
622.627,1437.6
623.156,1437.9
623.685,1442.4
624.214,1462.3
624.743,1462.9
625.272,1464.4
625.801,1461.5
626.33,1466.7
626.858,1477.5
627.387,1483.5
627.916,1492.0
628.444,1514.1
628.973,1540.4
629.501,1545.0
630.029,1544.6
630.558,1559.7
631.086,1623.8
631.614,1789.2
632.142,1773.0
632.67,1680.7
633.198,1657.0
633.726,1639.6
634.254,1631.8
634.782,1584.7
635.31,1614.0
635.838,1684.0
636.365,1840.4
636.893,1842.5
637.421,1684.8
637.948,1655.9
638.476,1645.7
639.003,1652.7
639.531,1650.9
640.058,1660.3
640.585,1660.8
641.113,1672.6
641.64,1674.4
642.167,1692.6
642.694,1695.0
643.221,1693.3
643.748,1684.3
644.275,1684.7
644.802,1693.6
645.329,1698.1
645.856,1704.4
646.382,1705.1
646.909,1722.2
647.436,1727.4
647.962,1722.2
648.489,1731.2
649.016,1719.6
649.542,1722.9
650.069,1725.3
650.595,1725.3
651.121,1727.1
651.648,1740.3
652.174,1746.2
652.7,1750.4
653.227,1755.0
653.753,1757.4
654.279,1762.0
654.805,1754.7
655.331,1766.5
655.857,1761.7
656.383,1765.1
656.909,1761.4
657.435,1771.0
657.961,1762.2
658.487,1790.1
659.013,1772.3
659.538,1770.8
660.064,1788.5
660.59,1768.0
661.116,1767.3
661.641,1759.9
662.167,1749.4
662.692,1750.9
663.087,1754.5