File: spectra/VLFR_08-PLA_nobio_Raman_f92ba4df.csv
nm,Intensity
526.532,830.6
527.079,830.033
527.625,830.533
528.172,829.9
528.718,830.267
529.265,829.8
529.811,830.233
530.357,829.867
530.903,829.767
531.449,829.833
531.994,834.333
532.54,830.1
533.085,830.067
533.63,832.567
534.176,1002.6
534.721,961.833
535.266,937.7
535.81,922.367
536.355,914.333
536.9,914.2
537.444,900.867
537.988,903.367
538.533,892.4
539.077,891.733
539.621,887.4
540.165,883.933
540.708,902.7
541.252,901.467
541.795,888.567
542.339,887.367
542.882,889.967
543.425,908.3
543.968,924.667
544.511,896.367
545.054,884.9
545.597,881.567
546.139,881.333
546.682,881.067
547.224,885.4
547.766,881.5
548.308,884.5
548.85,883.133
549.392,887.667
549.934,886.267
550.475,887.3
551.017,889.167
551.558,892.567
552.1,895.5
552.641,895.367
553.182,896.267
553.723,895.4
554.264,899.667
554.804,891.767
555.345,884.767
555.885,886.867
556.426,886.267
556.966,888.467
557.506,902.467
558.046,1010.43
558.586,914.1
559.126,899.467
559.665,898.4
560.205,895.167
560.745,891.2
561.284,888.233
561.823,889.867
562.362,890.333
562.901,899.167
563.44,929.6
563.979,907.667
564.518,900.4
565.056,924.833
565.595,914.067
566.133,944.867
566.671,912.767
567.21,896.267
567.748,905.233
568.285,903.6
568.823,902.2
569.361,903.267
569.899,899.933
570.436,900.0
570.974,901.333
571.511,925.033
572.048,917.0
572.585,910.333
573.122,913.1
573.659,917.067
574.196,912.267
574.733,921.133
575.269,904.133
575.806,902.567
576.342,924.867
576.878,972.7
577.414,920.933
577.951,905.5
578.486,904.233
579.022,904.0
579.558,902.633
580.094,902.8
580.629,903.267
581.165,902.967
581.7,905.667
582.236,904.067
582.771,905.467
583.306,903.667
583.841,906.067
584.376,906.6
584.911,907.933
585.445,905.7
585.98,909.767
586.514,917.167
587.049,948.933
587.583,975.7
588.117,924.367
588.651,908.267
589.186,908.733
589.72,904.5
590.253,904.2
590.787,906.067
591.321,906.9
591.854,903.633
592.388,905.2
592.921,902.867
593.455,905.867
593.988,903.8
594.521,902.533
595.054,904.867
595.587,904.833
596.12,904.167
596.653,904.067
597.186,903.033
597.718,905.2
598.251,905.5
598.783,905.567
599.316,906.6
599.848,903.567
600.38,905.767
600.912,904.433
601.444,905.1
601.976,905.267
602.508,903.533
603.04,902.933
603.572,902.767
604.103,902.867
604.635,900.867
605.167,903.4
605.698,900.167
606.229,900.5
606.761,901.9
607.292,899.833
607.823,900.867
608.354,901.567
608.885,901.067
609.416,902.033
609.947,904.067
610.477,902.033
611.008,902.267
611.539,903.733
612.069,901.667
612.6,903.433
613.13,903.367
613.66,903.3
614.19,903.467
614.721,902.533
615.251,904.967
615.781,901.633
616.311,903.333
616.841,903.4
617.37,904.4
617.9,902.667
618.43,902.233
618.96,901.533
619.489,903.767
620.019,902.533
620.548,900.633
621.077,900.133
621.607,903.4
622.136,903.467
622.665,911.433
623.194,916.067
623.723,911.967
624.252,906.6
624.781,905.433
625.31,900.867
625.839,903.1
626.368,904.433
626.896,903.567
627.425,905.733
627.953,914.567
628.482,975.4
629.01,960.633
629.539,958.333
630.067,963.733
630.596,1022.53
631.124,1381.77
631.652,1125.9
632.18,1021.93
632.708,999.733
633.236,1082.97
633.764,1044.5
634.292,962.533
634.82,918.8
635.348,908.067
635.876,905.267
636.403,902.0
636.931,897.9
637.459,897.267
637.986,893.667
638.514,893.967
639.041,893.9
639.568,894.833
640.096,896.2
640.623,895.6
641.15,896.2
641.678,898.133
642.205,897.6
642.732,896.9
643.259,893.0
643.786,890.233
644.313,889.833
644.84,888.967
645.367,889.133
645.894,889.4
646.421,886.933
646.948,888.467
647.474,887.433
648.001,886.533
648.528,887.8
649.054,885.3
649.581,887.033
650.108,886.867
650.634,885.033
651.161,885.933
651.687,883.6
652.214,886.333
652.74,884.7
653.266,883.8
653.793,885.9
654.319,882.867
654.845,884.4
655.371,884.5
655.897,883.667
656.424,883.967
656.95,886.0
657.476,884.867
658.002,885.733
658.528,884.6
659.054,883.233
659.58,883.767
660.106,884.867
660.631,883.0
661.157,882.533
661.683,881.133
662.209,880.067
662.735,880.467
663.129,879.333