File: spectra/VLFR_01-LDPE_nobio_Raman_5ba647d8.csv
nm,Intensity
526.532,830.3
527.079,829.6
527.625,830.3
528.172,829.033
528.718,829.467
529.265,829.533
529.811,830.5
530.357,830.467
530.903,829.9
531.449,829.667
531.994,840.533
532.54,831.167
533.085,830.0
533.63,831.967
534.176,906.567
534.721,891.933
535.266,877.167
535.81,866.867
536.355,860.867
536.9,860.067
537.444,858.967
537.988,858.633
538.533,856.6
539.077,854.533
539.621,851.167
540.165,849.4
540.708,847.667
541.252,847.3
541.795,847.4
542.339,845.8
542.882,846.667
543.425,845.767
543.968,845.767
544.511,845.0
545.054,845.0
545.597,843.9
546.139,845.4
546.682,844.733
547.224,842.867
547.766,844.667
548.308,842.767
548.85,842.267
549.392,843.0
549.934,843.933
550.475,842.6
551.017,842.067
551.558,842.367
552.1,843.567
552.641,843.6
553.182,844.567
553.723,846.333
554.264,845.633
554.804,848.167
555.345,848.1
555.885,849.067
556.426,850.0
556.966,854.467
557.506,856.033
558.046,859.233
558.586,858.967
559.126,856.933
559.665,854.167
560.205,851.8
560.745,852.633
561.284,853.467
561.823,854.633
562.362,855.467
562.901,860.167
563.44,864.1
563.979,940.067
564.518,887.433
565.056,877.933
565.595,872.633
566.133,972.7
566.671,875.067
567.21,867.6
567.748,868.667
568.285,864.633
568.823,865.067
569.361,865.333
569.899,869.167
570.436,875.1
570.974,884.267
571.511,1019.77
572.048,916.7
572.585,893.167
573.122,888.067
573.659,889.633
574.196,900.067
574.733,896.667
575.269,907.467
575.806,961.8
576.342,1048.33
576.878,1006.23
577.414,974.967
577.951,953.1
578.486,959.967
579.022,970.733
579.558,985.133
580.094,994.033
580.629,1008.5
581.165,1017.53
581.7,1027.8
582.236,1042.63
582.771,1056.27
583.306,1065.97
583.841,1074.7
584.376,1082.43
584.911,1091.2
585.445,1101.03
585.98,1113.43
586.514,1123.77
587.049,1136.67
587.583,1151.37
588.117,1158.7
588.651,1174.87
589.186,1182.4
589.72,1191.1
590.253,1211.4
590.787,1220.23
591.321,1233.53
591.854,1242.77
592.388,1247.83
592.921,1246.67
593.455,1252.17
593.988,1255.03
594.521,1263.27
595.054,1276.47
595.587,1276.5
596.12,1286.4
596.653,1295.63
597.186,1307.23
597.718,1316.33
598.251,1330.53
598.783,1345.63
599.316,1352.8
599.848,1362.6
600.38,1360.93
600.912,1360.7
601.444,1359.0
601.976,1353.7
602.508,1343.43
603.04,1329.03
603.572,1315.17
604.103,1294.93
604.635,1276.27
605.167,1254.97
605.698,1234.87
606.229,1218.23
606.761,1196.57
607.292,1188.77
607.823,1171.1
608.354,1165.0
608.885,1151.97
609.416,1138.23
609.947,1124.33
610.477,1116.07
611.008,1115.93
611.539,1106.33
612.069,1098.53
612.6,1090.77
613.13,1089.0
613.66,1085.5
614.19,1077.2
614.721,1072.13
615.251,1064.77
615.781,1057.37
616.311,1054.4
616.841,1051.67
617.37,1047.67
617.9,1046.87
618.43,1040.93
618.96,1040.6
619.489,1037.53
620.019,1037.83
620.548,1035.13
621.077,1035.47
621.607,1042.0
622.136,1058.33
622.665,1057.7
623.194,1033.9
623.723,1030.33
624.252,1027.37
624.781,1025.67
625.31,1030.5
625.839,1035.2
626.368,1062.8
626.896,1286.63
627.425,1678.03
627.953,1422.77
628.482,1673.97
629.01,1541.2
629.539,1424.67
630.067,1332.63
630.596,1304.63
631.124,1161.5
631.652,1093.4
632.18,1065.17
632.708,1054.13
633.236,1049.17
633.764,1043.33
634.292,1045.43
634.82,1047.9
635.348,1045.13
635.876,1046.83
636.403,1047.73
636.931,1047.17
637.459,1046.77
637.986,1048.93
638.514,1050.53
639.041,1050.93
639.568,1055.07
640.096,1052.27
640.623,1058.8
641.15,1062.3
641.678,1063.67
642.205,1065.87
642.732,1065.23
643.259,1064.33
643.786,1066.57
644.313,1067.5
644.84,1068.2
645.367,1069.77
645.894,1068.97
646.421,1070.53
646.948,1069.73
647.474,1068.47
648.001,1069.53
648.528,1064.03
649.054,1066.33
649.581,1065.63
650.108,1064.8
650.634,1066.93
651.161,1061.37
651.687,1067.17
652.214,1068.7
652.74,1070.27
653.266,1068.93
653.793,1067.5
654.319,1064.47
654.845,1066.8
655.371,1065.07
655.897,1065.27
656.424,1055.77
656.95,1053.87
657.476,1051.07
658.002,1042.53
658.528,1038.63
659.054,1034.2
659.58,1030.53
660.106,1020.9
660.631,1012.97
661.157,1005.9
661.683,999.8
662.209,991.667
662.735,985.867
663.129,981.133