File: spectra/VLFR_07-PET_nobio_Raman_cb905d4a.csv
nm,Intensity
791.377,11560.4
792.477,10454.6
793.576,9936.94
794.676,9592.36
795.775,9324.04
796.874,9336.46
797.973,9268.26
799.072,9201.54
800.171,9176.66
801.27,9091.06
802.368,9163.44
803.467,8841.02
804.565,8864.96
805.664,8622.12
806.762,8622.64
807.86,8542.64
808.958,8419.52
810.056,8394.52
811.153,8313.7
812.251,8264.86
813.349,8099.78
814.446,8045.38
815.543,8020.72
816.64,7873.24
817.737,7835.12
818.834,7763.8
819.931,7774.08
821.028,7744.0
822.125,7599.1
823.221,7553.44
824.317,7459.28
825.414,7639.78
826.51,7519.76
827.606,7320.12
828.702,7353.06
829.797,7259.24
830.893,7332.38
831.988,7161.58
833.084,7078.12
834.179,7059.44
835.274,6983.58
836.369,7019.18
837.464,7046.6
838.559,7060.96
839.654,6993.9
840.748,7085.26
841.843,7261.22
842.937,6893.54
844.031,6812.1
845.125,6627.54
846.219,6515.74
847.313,6549.34
848.407,6452.16
849.5,6470.06
850.593,6434.84
851.687,6450.72
852.78,6370.08
853.873,6328.44
854.966,6278.74
856.059,6268.0
857.151,6199.66
858.244,6293.96
859.336,6345.14
860.428,6384.84
861.52,6237.58
862.612,6066.6
863.704,6028.88
864.796,6154.62
865.888,6025.78
866.979,5968.3
868.07,5896.36
869.162,5971.12
870.253,5940.36
871.344,6103.22
872.434,6257.76
873.525,6259.66
874.615,6018.32
875.706,5831.34
876.796,5772.66
877.886,5745.24
878.976,5717.72
880.066,5656.32
881.156,5643.72
882.245,5652.84
883.335,5585.26
884.424,5589.94
885.513,5605.38
886.602,5508.48
887.691,5392.28
888.78,5446.88
889.868,5405.78
890.957,5338.14
892.045,5380.32
893.133,5309.22
894.221,5226.48
895.309,5235.98
896.397,5231.9
897.484,5463.44
898.571,5899.7
899.659,5542.28
900.746,5095.0
901.833,5033.14
902.92,5033.52
904.006,5029.94
905.093,4952.54
906.179,5097.26
907.266,5399.8
908.352,5472.56
909.438,5091.14
910.523,4922.76
911.609,4819.6
912.695,4766.66
913.78,4743.8
914.865,4709.82
915.95,4689.8
917.035,4665.1
918.12,4651.76
919.204,4639.24
920.289,4588.92
921.373,4586.82
922.457,4561.08
923.541,4524.08
924.625,4520.6
925.709,4468.44
926.792,4482.1
927.876,4440.88
928.959,4420.52
930.042,4367.56
931.125,4350.48
932.208,4344.36
933.29,4334.76
934.373,4324.22
935.455,4303.3
936.537,4271.56
937.619,4238.9
938.701,4235.94
939.782,4226.66
940.864,4205.42
941.945,4206.76
943.026,4178.18
944.107,4165.68
945.188,4145.42
946.269,4143.48
947.349,4134.42
948.43,4118.2
949.51,4096.78
950.59,4095.12
951.67,4079.46
952.75,4069.2
953.829,4070.7
954.909,4055.54
955.988,4037.38
957.067,4035.34
958.146,4017.64
959.224,4013.68
960.303,3998.44
961.381,3991.4
962.459,3993.38
963.537,3979.1
964.615,3965.6
965.693,3967.06
966.771,3948.52
967.848,3952.28
968.925,3944.28
970.002,3935.0
971.079,3930.26
972.156,3922.38
973.232,3921.74
974.309,3912.32
975.385,3906.7
976.461,3899.34
977.537,3893.1
978.612,3887.46
979.688,3882.88
980.763,3877.44
981.838,3873.0
982.913,3869.44
983.988,3864.2
985.063,3857.72
986.137,3853.46
987.211,3852.24
988.285,3855.5
989.359,3841.02
990.433,3840.14
991.506,3834.5
992.58,3829.6
993.653,3826.82
994.726,3821.44
995.799,3821.2
996.872,3815.38
997.944,3810.44
999.016,3806.56
1000.09,3806.86
1001.16,3803.04
1002.23,3797.2
1003.3,3798.34
1004.38,3793.38
1005.45,3787.84
1006.52,3789.32
1007.59,3784.88
1008.66,3781.84
1009.73,3778.34
1010.8,3775.96
1011.87,3777.26
1012.94,3775.42
1014.01,3773.06
1015.08,3772.94
1016.15,3769.18
1017.22,3768.88
1018.29,3767.76
1019.36,3766.66
1020.42,3766.0
1021.49,3769.92
1022.56,3772.54
1023.63,3773.62
1024.7,3768.3
1025.76,3762.16
1026.83,3756.74
1027.9,3754.9
1028.97,3751.76
1030.03,3748.76
1031.1,3747.98
1032.17,3746.92
1033.23,3748.64
1034.3,3751.04
1035.36,3752.1
1036.43,3750.36
1037.5,3746.74
1038.56,3742.56
1039.63,3740.58
1040.69,3739.44
1041.76,3737.8
1042.82,3737.68
1043.89,3736.08
1044.95,3735.36
1046.01,3733.8
1047.08,3734.14
1048.14,3733.0
1049.2,3733.36
1050.27,3732.06
1051.33,3732.96
1052.39,3733.46
1053.46,3732.44
1054.52,3731.84
1055.58,3732.36
1056.64,3731.8
1057.7,3731.92
1058.77,3730.84
1059.83,3730.3
1060.89,3729.94
1061.95,3730.12
1063.01,3729.74
1064.07,3730.12
1065.13,3729.92
1066.19,3730.32
1067.25,3729.04
1068.05,3728.24