File: spectra/VLFR_07-PET_bio_Raman_2427d467.csv
nm,Intensity
791.377,19390.7
792.477,17609.5
793.576,16479.2
794.676,16103.0
795.775,15886.7
796.874,15674.3
797.973,15516.3
799.072,15722.3
800.171,15421.7
801.27,15350.0
802.368,15539.1
803.467,14957.7
804.565,14933.9
805.664,14724.3
806.762,14456.0
807.86,14307.9
808.958,14112.3
810.056,14225.1
811.153,13951.7
812.251,13899.4
813.349,13849.9
814.446,13590.4
815.543,13452.7
816.64,13270.8
817.737,13167.6
818.834,12876.0
819.931,12952.1
821.028,12740.8
822.125,12472.3
823.221,12360.0
824.317,12392.4
825.414,12414.4
826.51,12269.5
827.606,11950.5
828.702,11754.3
829.797,11634.7
830.893,11774.0
831.988,11481.1
833.084,11494.4
834.179,11318.3
835.274,11036.8
836.369,11120.4
837.464,11164.9
838.559,10960.2
839.654,11078.0
840.748,11168.8
841.843,11214.4
842.937,10796.3
844.031,10737.3
845.125,10373.4
846.219,10072.2
847.313,10290.3
848.407,9894.02
849.5,9937.98
850.593,9767.96
851.687,9792.62
852.78,9650.8
853.873,9560.8
854.966,9534.44
856.059,9371.94
857.151,9367.26
858.244,9508.28
859.336,9319.76
860.428,9529.44
861.52,9208.04
862.612,9005.56
863.704,8878.66
864.796,8995.1
865.888,8901.06
866.979,8643.36
868.07,8671.04
869.162,8608.56
870.253,8589.64
871.344,8658.6
872.434,9087.22
873.525,9069.52
874.615,8571.68
875.706,8413.66
876.796,8235.24
877.886,8127.64
878.976,8006.48
880.066,7916.1
881.156,7969.24
882.245,7984.1
883.335,7766.76
884.424,7874.82
885.513,7797.46
886.602,7601.76
887.691,7606.56
888.78,7517.6
889.868,7419.98
890.957,7324.42
892.045,7368.22
893.133,7227.56
894.221,7201.52
895.309,7044.48
896.397,7060.86
897.484,7297.72
898.571,8045.48
899.659,7426.1
900.746,6865.92
901.833,6808.46
902.92,6683.02
904.006,6617.36
905.093,6568.58
906.179,6640.5
907.266,7161.06
908.352,7210.58
909.438,6696.64
910.523,6297.04
911.609,6216.06
912.695,6167.1
913.78,6017.96
914.865,6028.92
915.95,5935.68
917.035,5872.12
918.12,5854.72
919.204,5725.36
920.289,5710.08
921.373,5691.78
922.457,5635.9
923.541,5568.5
924.625,5518.66
925.709,5484.2
926.792,5363.4
927.876,5435.68
928.959,5336.08
930.042,5236.24
931.125,5243.78
932.208,5178.28
933.29,5133.2
934.373,5107.62
935.455,5111.24
936.537,4996.68
937.619,4973.78
938.701,4940.56
939.782,4928.92
940.864,4907.5
941.945,4821.32
943.026,4794.78
944.107,4772.18
945.188,4768.8
946.269,4696.32
947.349,4699.1
948.43,4659.24
949.51,4626.92
950.59,4597.68
951.67,4583.0
952.75,4586.66
953.829,4501.2
954.909,4499.18
955.988,4472.94
957.067,4435.6
958.146,4437.52
959.224,4403.66
960.303,4382.78
961.381,4368.82
962.459,4348.48
963.537,4327.86
964.615,4311.4
965.693,4297.78
966.771,4273.68
967.848,4268.44
968.925,4242.74
970.002,4229.14
971.079,4215.12
972.156,4213.6
973.232,4174.28
974.309,4170.56
975.385,4158.58
976.461,4149.96
977.537,4129.64
978.612,4119.26
979.688,4108.96
980.763,4096.56
981.838,4085.24
982.913,4077.24
983.988,4061.98
985.063,4056.42
986.137,4049.66
987.211,4038.84
988.285,4032.46
989.359,4016.56
990.433,4008.22
991.506,3996.86
992.58,3991.78
993.653,3981.94
994.726,3977.44
995.799,3966.4
996.872,3956.16
997.944,3954.52
999.016,3950.44
1000.09,3935.14
1001.16,3936.36
1002.23,3932.64
1003.3,3918.38
1004.38,3912.46
1005.45,3913.3
1006.52,3908.36
1007.59,3897.4
1008.66,3892.6
1009.73,3885.88
1010.8,3880.52
1011.87,3879.24
1012.94,3874.12
1014.01,3872.98
1015.08,3866.2
1016.15,3866.2
1017.22,3863.14
1018.29,3856.04
1019.36,3853.04
1020.42,3855.8
1021.49,3859.92
1022.56,3863.78
1023.63,3856.62
1024.7,3845.12
1025.76,3840.74
1026.83,3834.02
1027.9,3832.86
1028.97,3825.26
1030.03,3822.28
1031.1,3818.2
1032.17,3817.52
1033.23,3819.66
1034.3,3820.88
1035.36,3824.32
1036.43,3821.38
1037.5,3812.98
1038.56,3806.84
1039.63,3803.78
1040.69,3802.16
1041.76,3800.5
1042.82,3798.84
1043.89,3798.94
1044.95,3795.0
1046.01,3795.08
1047.08,3794.12
1048.14,3793.38
1049.2,3791.94
1050.27,3791.6
1051.33,3792.46
1052.39,3791.28
1053.46,3790.14
1054.52,3789.86
1055.58,3789.18
1056.64,3787.78
1057.7,3787.9
1058.77,3787.54
1059.83,3787.66
1060.89,3786.5
1061.95,3787.3
1063.01,3785.28
1064.07,3785.88
1065.13,3785.62
1066.19,3785.74
1067.25,3784.04
1068.05,3784.12