File: spectra/VLFR_02-HDPE_nobio_Raman_24bc6922.csv
nm,Intensity
526.547,833.2
527.094,831.4
527.641,832.4
528.188,833.5
528.734,832.3
529.281,833.6
529.827,832.1
530.373,832.2
530.92,832.4
531.466,832.0
532.011,841.8
532.557,831.9
533.103,833.0
533.648,834.7
534.193,894.8
534.738,892.2
535.283,880.4
535.828,876.7
536.373,873.8
536.917,867.7
537.462,867.5
538.006,869.9
538.55,863.9
539.094,862.8
539.638,862.3
540.182,864.3
540.726,859.8
541.269,861.7
541.812,858.9
542.356,860.3
542.899,860.2
543.442,859.4
543.985,860.4
544.527,859.9
545.07,860.5
545.612,858.3
546.155,863.0
546.697,858.9
547.239,859.5
547.781,857.0
548.323,858.1
548.865,860.5
549.406,860.7
549.948,860.8
550.489,860.9
551.03,858.6
551.572,858.9
552.113,861.1
552.654,861.5
553.194,860.8
553.735,863.4
554.276,863.8
554.816,866.0
555.356,864.2
555.896,864.1
556.437,862.8
556.977,870.7
557.516,870.0
558.056,869.4
558.596,871.7
559.135,873.0
559.675,872.8
560.214,872.1
560.753,873.0
561.292,870.9
561.831,874.7
562.37,874.6
562.909,877.4
563.448,882.8
563.986,955.3
564.525,898.0
565.063,893.3
565.601,893.0
566.139,1024.3
566.677,892.4
567.215,889.9
567.753,886.2
568.291,887.6
568.828,889.0
569.366,889.6
569.903,890.2
570.441,896.9
570.978,900.7
571.515,1047.2
572.052,920.1
572.589,908.4
573.126,908.0
573.662,909.8
574.199,917.5
574.735,917.8
575.272,928.6
575.808,972.3
576.344,1035.7
576.88,996.9
577.416,981.9
577.952,959.2
578.488,965.0
579.024,979.9
579.559,980.5
580.095,989.7
580.63,1002.1
581.166,1014.8
581.701,1021.7
582.236,1033.9
582.771,1038.4
583.306,1050.2
583.841,1057.8
584.376,1068.9
584.911,1077.2
585.445,1080.7
585.98,1085.7
586.514,1099.1
587.048,1092.7
587.583,1099.2
588.117,1101.8
588.651,1107.8
589.185,1108.0
589.719,1115.2
590.253,1117.9
590.786,1121.1
591.32,1123.5
591.853,1132.5
592.387,1134.4
592.92,1136.3
593.454,1133.3
593.987,1138.5
594.52,1141.0
595.053,1145.6
595.586,1145.6
596.119,1142.5
596.651,1143.8
597.184,1152.7
597.717,1150.8
598.249,1158.6
598.782,1165.4
599.314,1166.6
599.846,1159.4
600.379,1164.1
600.911,1162.9
601.443,1162.5
601.975,1169.3
602.507,1163.6
603.038,1167.1
603.57,1159.2
604.102,1161.5
604.633,1143.9
605.165,1139.3
605.696,1128.9
606.228,1127.3
606.759,1117.0
607.29,1110.9
607.821,1109.8
608.352,1101.6
608.883,1102.2
609.414,1092.5
609.945,1084.3
610.476,1078.1
611.006,1083.7
611.537,1073.8
612.067,1071.5
612.598,1068.2
613.128,1067.6
613.659,1065.8
614.189,1056.3
614.719,1052.6
615.249,1049.3
615.779,1046.5
616.309,1042.0
616.839,1039.7
617.369,1038.1
617.899,1043.2
618.428,1027.5
618.958,1030.0
619.487,1031.2
620.017,1027.5
620.546,1026.0
621.076,1020.5
621.605,1036.1
622.134,1052.6
622.663,1044.5
623.193,1029.9
623.722,1026.5
624.251,1023.5
624.78,1023.4
625.308,1019.9
625.837,1033.1
626.366,1051.9
626.895,1266.9
627.423,1560.9
627.952,1341.7
628.48,1568.0
629.009,1397.2
629.537,1304.5
630.065,1234.3
630.594,1205.0
631.122,1102.5
631.65,1056.6
632.178,1042.6
632.706,1040.1
633.234,1033.9
633.762,1029.0
634.29,1034.9
634.818,1023.0
635.346,1029.8
635.873,1032.4
636.401,1036.1
636.929,1027.2
637.456,1033.1
637.984,1029.5
638.511,1034.2
639.039,1032.1
639.566,1027.6
640.093,1025.4
640.62,1030.4
641.148,1028.5
641.675,1023.3
642.202,1027.3
642.729,1021.4
643.256,1021.2
643.783,1020.9
644.31,1021.8
644.837,1017.8
645.364,1021.0
645.891,1017.9
646.417,1017.0
646.944,1018.6
647.471,1011.6
647.997,1011.3
648.524,1013.4
649.051,1008.1
649.577,1012.8
650.104,1010.0
650.63,1007.9
651.157,1006.4
651.683,1000.8
652.209,1003.0
652.736,1004.9
653.262,1001.0
653.788,998.5
654.314,1000.0
654.84,995.6
655.366,999.7
655.893,991.6
656.419,992.2
656.945,986.2
657.471,988.5
657.997,983.4
658.522,984.2
659.048,981.2
659.574,980.2
660.1,980.7
660.626,975.9
661.152,970.3
661.677,967.7
662.203,959.3
662.729,959.8
663.123,954.2