File: spectra/VLFR_02-HDPE_bio_Raman_e51c0f41.csv
nm,Intensity
526.494,835.0
527.041,834.4
527.588,834.9
528.135,835.3
528.682,834.2
529.229,833.8
529.775,834.9
530.321,833.0
530.868,834.7
531.414,834.4
531.96,847.2
532.506,836.9
533.051,834.2
533.597,835.1
534.142,878.8
534.687,879.7
535.232,876.4
535.777,859.1
536.322,855.1
536.867,852.9
537.411,852.7
537.956,852.9
538.5,851.0
539.044,850.7
539.588,849.8
540.132,849.0
540.676,849.0
541.22,848.2
541.763,847.3
542.306,846.7
542.85,847.3
543.393,846.8
543.936,848.9
544.479,847.0
545.021,849.9
545.564,849.1
546.106,848.2
546.649,849.5
547.191,847.0
547.733,849.7
548.275,848.5
548.817,848.5
549.359,850.3
549.9,849.1
550.442,848.7
550.983,849.4
551.524,849.6
552.066,850.9
552.607,848.8
553.148,850.7
553.688,853.6
554.229,848.7
554.77,850.5
555.31,854.5
555.85,852.6
556.39,852.1
556.931,854.4
557.471,853.4
558.01,854.6
558.55,855.7
559.09,854.2
559.629,852.9
560.169,853.4
560.708,856.4
561.247,855.1
561.786,853.4
562.325,855.1
562.864,857.6
563.403,861.0
563.941,910.8
564.48,870.0
565.018,866.3
565.557,864.2
566.095,903.8
566.633,865.0
567.171,863.2
567.709,866.8
568.247,855.7
568.784,858.6
569.322,862.2
569.859,861.7
570.397,861.1
570.934,867.4
571.471,957.1
572.008,880.8
572.545,865.2
573.082,862.5
573.619,862.2
574.155,866.9
574.692,862.0
575.228,861.4
575.765,891.0
576.301,981.6
576.837,925.3
577.373,909.3
577.909,874.9
578.445,871.0
578.981,868.4
579.516,867.6
580.052,866.5
580.587,869.6
581.123,870.6
581.658,872.3
582.193,872.6
582.728,871.2
583.263,873.0
583.798,878.0
584.333,875.1
584.868,877.8
585.402,873.9
585.937,879.6
586.471,879.8
587.005,881.3
587.54,882.0
588.074,881.5
588.608,879.0
589.142,880.1
589.676,879.7
590.21,879.9
590.743,878.1
591.277,878.1
591.81,878.8
592.344,880.9
592.877,880.6
593.411,880.0
593.944,879.8
594.477,877.6
595.01,880.4
595.543,877.3
596.076,882.6
596.608,883.0
597.141,879.2
597.674,881.8
598.206,885.4
598.739,881.0
599.271,885.1
599.803,883.4
600.335,885.3
600.868,883.7
601.4,882.9
601.931,887.1
602.463,885.6
602.995,881.7
603.527,882.8
604.058,885.7
604.59,882.9
605.121,881.8
605.653,878.2
606.184,882.6
606.715,881.5
607.246,880.2
607.778,880.5
608.309,880.5
608.839,881.7
609.37,879.6
609.901,880.1
610.432,878.3
610.962,881.3
611.493,882.5
612.023,878.8
612.554,879.7
613.084,880.3
613.614,884.1
614.145,881.5
614.675,880.3
615.205,883.2
615.735,882.9
616.265,883.7
616.795,886.9
617.324,896.3
617.854,892.0
618.384,893.7
618.913,895.5
619.443,901.2
619.972,904.6
620.502,900.2
621.031,908.2
621.56,925.8
622.089,956.0
622.618,954.3
623.147,915.9
623.676,912.2
624.205,909.7
624.734,911.2
625.263,912.7
625.792,927.2
626.32,958.4
626.849,1273.7
627.377,1747.8
627.906,1390.8
628.434,1679.1
628.963,1372.3
629.491,1264.3
630.019,1148.1
630.547,1122.5
631.076,1005.6
631.604,933.8
632.132,920.1
632.66,912.7
633.188,911.8
633.715,902.2
634.243,902.8
634.771,900.1
635.299,898.3
635.826,899.7
636.354,893.6
636.881,894.4
637.409,889.4
637.936,890.2
638.464,887.1
638.991,885.8
639.518,885.0
640.045,883.0
640.573,883.9
641.1,881.3
641.627,883.1
642.154,880.9
642.681,877.7
643.208,875.7
643.735,877.0
644.261,874.6
644.788,877.1
645.315,876.3
645.842,874.6
646.368,875.6
646.895,873.6
647.421,874.0
647.948,873.4
648.474,872.3
649.001,875.4
649.527,871.4
650.054,873.8
650.58,873.0
651.106,870.0
651.633,868.1
652.159,869.9
652.685,869.1
653.211,868.1
653.737,867.9
654.263,868.5
654.789,870.4
655.315,867.1
655.841,867.1
656.367,866.3
656.893,866.3
657.419,866.5
657.945,867.1
658.47,868.6
658.996,867.1
659.522,866.0
660.047,867.8
660.573,866.6
661.099,865.9
661.624,863.2
662.15,864.7
662.675,865.8
663.07,863.3