File: spectra/VLFR_07-PET_nobio_Raman_74ee2681.csv
nm,Intensity
791.377,11039.8
792.477,9963.96
793.576,9305.8
794.676,9035.0
795.775,8787.26
796.874,8853.9
797.973,8752.54
799.072,8632.9
800.171,8645.76
801.27,8542.88
802.368,8655.94
803.467,8290.98
804.565,8291.7
805.664,8216.04
806.762,8141.74
807.86,8046.06
808.958,7914.1
810.056,7864.26
811.153,7870.92
812.251,7743.68
813.349,7690.6
814.446,7644.54
815.543,7526.98
816.64,7572.24
817.737,7435.68
818.834,7385.64
819.931,7395.26
821.028,7329.6
822.125,7189.5
823.221,7165.16
824.317,7108.42
825.414,7336.0
826.51,7062.42
827.606,6979.9
828.702,6871.94
829.797,6834.24
830.893,6997.48
831.988,6731.22
833.084,6702.46
834.179,6639.7
835.274,6618.72
836.369,6623.6
837.464,6740.72
838.559,6662.04
839.654,6602.36
840.748,6774.42
841.843,6887.74
842.937,6589.18
844.031,6511.8
845.125,6345.3
846.219,6277.02
847.313,6137.18
848.407,6206.52
849.5,6130.28
850.593,6150.58
851.687,6148.02
852.78,6151.98
853.873,6086.64
854.966,6086.36
856.059,5932.92
857.151,5997.02
858.244,6053.46
859.336,6182.06
860.428,6166.1
861.52,5991.7
862.612,5863.64
863.704,5861.9
864.796,5894.4
865.888,5803.04
866.979,5740.32
868.07,5692.8
869.162,5688.7
870.253,5757.84
871.344,5873.28
872.434,6051.86
873.525,6082.7
874.615,5819.08
875.706,5674.92
876.796,5583.56
877.886,5505.62
878.976,5533.48
880.066,5448.88
881.156,5439.7
882.245,5437.0
883.335,5459.24
884.424,5386.32
885.513,5389.74
886.602,5333.2
887.691,5291.38
888.78,5182.5
889.868,5185.52
890.957,5203.4
892.045,5205.32
893.133,5138.22
894.221,5092.12
895.309,5073.9
896.397,5096.4
897.484,5305.68
898.571,5925.74
899.659,5305.08
900.746,4983.54
901.833,4896.76
902.92,4887.62
904.006,4860.56
905.093,4842.46
906.179,5016.68
907.266,5390.2
908.352,5324.16
909.438,4992.48
910.523,4795.2
911.609,4704.84
912.695,4670.36
913.78,4627.48
914.865,4606.3
915.95,4589.04
917.035,4586.34
918.12,4546.42
919.204,4534.16
920.289,4517.08
921.373,4493.58
922.457,4455.5
923.541,4441.58
924.625,4419.32
925.709,4417.54
926.792,4369.06
927.876,4385.5
928.959,4329.12
930.042,4331.64
931.125,4300.08
932.208,4291.78
933.29,4271.46
934.373,4263.82
935.455,4249.2
936.537,4219.44
937.619,4226.12
938.701,4189.96
939.782,4184.08
940.864,4173.24
941.945,4160.38
943.026,4155.2
944.107,4134.98
945.188,4116.66
946.269,4105.74
947.349,4097.82
948.43,4093.38
949.51,4078.84
950.59,4061.08
951.67,4050.22
952.75,4049.38
953.829,4033.58
954.909,4030.7
955.988,4004.28
957.067,4025.42
958.146,3995.76
959.224,3992.9
960.303,3989.82
961.381,3974.18
962.459,3962.8
963.537,3962.38
964.615,3948.16
965.693,3946.82
966.771,3942.34
967.848,3934.12
968.925,3924.04
970.002,3927.0
971.079,3913.76
972.156,3909.66
973.232,3906.12
974.309,3903.76
975.385,3888.58
976.461,3887.66
977.537,3883.8
978.612,3878.24
979.688,3875.02
980.763,3864.4
981.838,3864.12
982.913,3861.6
983.988,3854.02
985.063,3850.2
986.137,3847.4
987.211,3845.96
988.285,3840.84
989.359,3835.92
990.433,3832.52
991.506,3829.2
992.58,3816.12
993.653,3823.62
994.726,3816.16
995.799,3813.04
996.872,3809.82
997.944,3810.06
999.016,3805.78
1000.09,3804.22
1001.16,3797.56
1002.23,3797.2
1003.3,3793.86
1004.38,3789.22
1005.45,3788.5
1006.52,3788.04
1007.59,3785.4
1008.66,3782.84
1009.73,3779.4
1010.8,3777.62
1011.87,3777.4
1012.94,3776.52
1014.01,3773.64
1015.08,3774.56
1016.15,3773.96
1017.22,3769.6
1018.29,3771.08
1019.36,3767.76
1020.42,3767.48
1021.49,3775.04
1022.56,3779.58
1023.63,3775.02
1024.7,3770.96
1025.76,3766.38
1026.83,3761.46
1027.9,3758.12
1028.97,3754.38
1030.03,3753.42
1031.1,3752.74
1032.17,3753.26
1033.23,3753.62
1034.3,3757.08
1035.36,3759.38
1036.43,3757.12
1037.5,3750.68
1038.56,3746.28
1039.63,3746.36
1040.69,3743.98
1041.76,3743.18
1042.82,3743.92
1043.89,3741.58
1044.95,3740.9
1046.01,3739.62
1047.08,3740.48
1048.14,3740.5
1049.2,3739.54
1050.27,3739.58
1051.33,3739.04
1052.39,3738.34
1053.46,3737.28
1054.52,3737.34
1055.58,3738.94
1056.64,3737.02
1057.7,3737.24
1058.77,3736.76
1059.83,3736.48
1060.89,3736.8
1061.95,3736.7
1063.01,3736.84
1064.07,3737.4
1065.13,3737.66
1066.19,3737.34
1067.25,3735.74
1068.05,3734.92