File: spectra/VLFR_07-PET_bio_Raman_708f4ecb.csv
nm,Intensity
791.588,10274.5
792.685,9875.6
793.781,9613.2
794.878,9475.2
795.975,9371.0
797.071,9348.7
798.168,9368.0
799.264,9414.9
800.36,9360.7
801.456,9326.9
802.552,9216.7
803.648,9079.6
804.744,9094.3
805.84,8989.0
806.936,9006.5
808.031,8849.2
809.127,8799.3
810.222,8800.6
811.317,8683.3
812.412,8593.0
813.507,8462.3
814.602,8492.1
815.697,8393.8
816.792,8232.0
817.887,8348.9
818.981,8182.7
820.076,8101.9
821.17,8017.8
822.265,7893.9
823.359,7860.2
824.453,7795.1
825.547,7846.1
826.641,7771.4
827.735,7593.7
828.828,7633.6
829.922,7541.1
831.016,7642.6
832.109,7464.6
833.202,7408.3
834.295,7255.8
835.388,7233.1
836.481,7220.8
837.574,7272.0
838.667,7244.8
839.76,7164.8
840.852,7213.5
841.945,7246.8
843.037,7094.1
844.129,7070.8
845.221,6931.9
846.314,6899.6
847.405,6828.4
848.497,6776.3
849.589,6679.8
850.68,6733.0
851.772,6715.5
852.863,6678.3
853.955,6627.8
855.046,6572.6
856.137,6513.7
857.228,6487.5
858.318,6505.3
859.409,6508.1
860.5,6526.7
861.59,6372.6
862.681,6382.5
863.771,6332.8
864.861,6294.1
865.951,6219.6
867.041,6116.3
868.131,6137.4
869.22,6126.7
870.31,6134.9
871.399,6203.8
872.488,6229.7
873.578,6243.2
874.667,6099.6
875.756,5986.4
876.845,5950.1
877.933,5905.7
879.022,5844.7
880.11,5821.6
881.199,5783.2
882.287,5796.0
883.375,5760.1
884.463,5740.4
885.551,5741.6
886.639,5666.9
887.726,5593.0
888.814,5586.7
889.901,5541.6
890.988,5537.6
892.075,5503.0
893.162,5443.8
894.249,5406.6
895.336,5351.0
896.423,5302.8
897.509,5393.4
898.595,5577.6
899.682,5395.1
900.768,5160.3
901.854,5180.5
902.94,5103.2
904.025,5115.3
905.111,5111.8
906.196,5134.5
907.282,5191.5
908.367,5211.8
909.452,5045.7
910.537,4917.6
911.622,4912.3
912.706,4840.8
913.791,4835.7
914.875,4766.6
915.959,4785.4
917.044,4733.3
918.128,4730.7
919.211,4692.4
920.295,4656.8
921.379,4620.6
922.462,4628.4
923.546,4579.8
924.629,4576.5
925.712,4536.3
926.795,4504.2
927.877,4490.9
928.96,4440.9
930.043,4432.6
931.125,4415.5
932.207,4378.9
933.289,4342.8
934.371,4315.3
935.453,4326.9
936.535,4284.4
937.616,4266.7
938.697,4269.2
939.779,4265.7
940.86,4235.9
941.941,4223.2
943.022,4199.5
944.102,4183.2
945.183,4166.7
946.263,4143.2
947.343,4139.4
948.423,4131.8
949.503,4125.5
950.583,4109.9
951.663,4084.2
952.742,4085.3
953.822,4069.3
954.901,4056.2
955.98,4057.4
957.059,4028.3
958.137,4030.3
959.216,4018.7
960.294,4007.8
961.373,4002.2
962.451,3989.1
963.529,3979.6
964.607,3977.4
965.684,3969.1
966.762,3952.4
967.839,3943.7
968.917,3956.6
969.994,3942.1
971.071,3930.8
972.147,3927.7
973.224,3922.4
974.3,3913.6
975.377,3899.2
976.453,3894.1
977.529,3887.5
978.605,3890.6
979.68,3882.6
980.756,3881.0
981.831,3875.5
982.907,3870.0
983.982,3864.1
985.057,3859.1
986.131,3856.7
987.206,3852.2
988.28,3846.9
989.355,3846.8
990.429,3837.0
991.503,3836.9
992.576,3830.4
993.65,3827.5
994.723,3820.1
995.797,3818.3
996.87,3817.0
997.943,3812.4
999.016,3809.4
1000.09,3805.2
1001.16,3800.9
1002.23,3799.9
1003.31,3798.2
1004.38,3791.6
1005.45,3796.3
1006.52,3794.0
1007.59,3786.7
1008.66,3787.6
1009.73,3781.8
1010.81,3781.5
1011.88,3777.2
1012.95,3778.4
1014.02,3777.2
1015.09,3773.2
1016.16,3771.3
1017.23,3769.0
1018.3,3769.5
1019.37,3766.4
1020.44,3763.9
1021.51,3764.7
1022.58,3767.2
1023.64,3765.0
1024.71,3762.6
1025.78,3758.3
1026.85,3757.4
1027.92,3755.4
1028.99,3752.2
1030.05,3752.4
1031.12,3750.3
1032.19,3749.4
1033.26,3748.4
1034.32,3750.5
1035.39,3750.2
1036.46,3748.2
1037.52,3748.0
1038.59,3745.7
1039.66,3743.9
1040.72,3742.2
1041.79,3742.3
1042.86,3741.7
1043.92,3740.9
1044.99,3740.0
1046.05,3738.8
1047.12,3738.3
1048.18,3740.0
1049.25,3739.5
1050.31,3737.2
1051.37,3735.8
1052.44,3735.0
1053.5,3737.5
1054.57,3737.3
1055.63,3737.1
1056.69,3738.0
1057.76,3736.4
1058.82,3734.5
1059.88,3737.6
1060.95,3734.4
1062.01,3733.8
1063.07,3734.5
1064.13,3734.7
1065.19,3734.6
1066.26,3733.8
1067.32,3735.1
1068.11,3730.5