File: spectra/VLFR_06-PET_nobio_Raman_d4b859f3.csv
nm,Intensity
526.486,829.7
527.033,830.1
527.579,830.2
528.126,831.1
528.672,829.4
529.219,829.8
529.765,831.6
530.311,830.5
530.857,830.9
531.403,829.6
531.948,835.2
532.494,831.5
533.039,829.8
533.585,836.5
534.13,1728.9
534.675,1515.9
535.22,1276.8
535.764,1151.5
536.309,1066.1
536.854,1032.4
537.398,1021.8
537.942,1017.7
538.486,1025.7
539.03,1030.7
539.574,1041.8
540.118,1050.1
540.662,1028.2
541.205,1020.9
541.749,1016.6
542.292,1018.7
542.835,1024.2
543.378,1021.1
543.921,1031.8
544.464,1030.1
545.006,1038.0
545.549,1035.3
546.091,1040.0
546.634,1042.3
547.176,1047.0
547.718,1049.5
548.26,1056.2
548.802,1058.2
549.343,1051.9
549.885,1063.7
550.426,1070.5
550.968,1083.1
551.509,1073.9
552.05,1076.0
552.591,1088.9
553.132,1097.3
553.673,1085.7
554.214,1094.3
554.754,1095.6
555.295,1107.1
555.835,1144.5
556.375,1151.4
556.915,1158.9
557.455,1253.0
557.995,1180.2
558.535,1181.4
559.075,1148.1
559.614,1131.8
560.154,1137.7
560.693,1152.0
561.232,1152.7
561.772,1155.1
562.311,1169.8
562.85,1180.9
563.388,1185.5
563.927,1186.2
564.466,1198.1
565.004,1236.1
565.543,1277.3
566.081,1295.0
566.619,1234.8
567.157,1221.7
567.695,1278.0
568.233,1237.5
568.771,1236.8
569.309,1254.0
569.846,1267.2
570.384,1308.8
570.921,1402.2
571.458,1497.8
571.995,1377.9
572.532,1317.9
573.069,1300.2
573.606,1314.0
574.143,1341.8
574.68,1325.2
575.216,1357.2
575.753,1345.1
576.289,1360.1
576.825,1381.8
577.361,1364.7
577.897,1356.9
578.433,1363.2
578.969,1374.4
579.505,1384.2
580.041,1393.7
580.576,1399.5
581.112,1410.8
581.647,1473.8
582.183,2304.9
582.718,1468.6
583.253,1444.8
583.788,1444.9
584.323,1449.3
584.858,1467.7
585.392,1529.6
585.927,1941.9
586.462,1760.9
586.996,1518.1
587.53,1496.5
588.065,1484.8
588.599,1488.4
589.133,1487.1
589.667,1500.4
590.201,1497.7
590.735,1498.4
591.268,1506.7
591.802,1509.7
592.335,1515.4
592.869,1509.9
593.402,1511.8
593.936,1508.5
594.469,1519.1
595.002,1530.4
595.535,1541.4
596.068,1544.3
596.601,1543.1
597.133,1552.7
597.666,1550.6
598.199,1567.1
598.731,1566.0
599.264,1581.4
599.796,1566.8
600.328,1574.4
600.86,1574.8
601.393,1571.7
601.925,1573.9
602.457,1586.8
602.988,1577.6
603.52,1588.0
604.052,1594.0
604.583,1588.7
605.115,1573.2
605.646,1584.5
606.178,1572.5
606.709,1567.7
607.24,1588.5
607.771,1585.7
608.302,1586.3
608.833,1603.3
609.364,1599.4
609.895,1603.1
610.426,1600.6
610.957,1592.8
611.487,1608.6
612.018,1619.3
612.548,1620.7
613.078,1636.7
613.609,1644.8
614.139,1654.1
614.669,1652.1
615.199,1654.7
615.729,1654.5
616.259,1652.7
616.789,1664.2
617.319,1656.9
617.849,1679.8
618.378,1677.6
618.908,1677.5
619.437,1664.4
619.967,1672.4
620.496,1670.5
621.025,1675.8
621.555,1677.3
622.084,1682.1
622.613,1693.6
623.142,1700.5
623.671,1708.0
624.2,1721.8
624.729,1730.9
625.258,1729.2
625.786,1736.0
626.315,1735.0
626.844,1740.9
627.372,1745.1
627.901,1752.1
628.429,1768.1
628.957,1797.7
629.486,1808.7
630.014,1807.4
630.542,1824.9
631.07,1871.3
631.598,1974.4
632.126,1965.9
632.654,1913.7
633.182,1891.4
633.71,1888.1
634.237,1862.7
634.765,1859.0
635.293,1878.1
635.82,1941.1
636.348,2046.9
636.875,2046.4
637.403,1943.2
637.93,1920.9
638.458,1921.5
638.985,1934.0
639.512,1942.9
640.039,1945.6
640.566,1955.0
641.093,1942.7
641.62,1967.8
642.147,1981.2
642.674,1971.2
643.201,1966.3
643.728,1980.4
644.255,1958.1
644.781,1963.2
645.308,1982.5
645.835,1977.3
646.361,1979.7
646.888,1972.9
647.414,1995.1
647.941,2003.2
648.467,2003.5
648.993,1992.3
649.52,1996.6
650.046,1988.5
650.572,1999.7
651.098,1985.2
651.625,1995.9
652.151,2002.9
652.677,2007.1
653.203,2023.0
653.729,2011.6
654.255,2019.2
654.78,2010.6
655.306,2015.4
655.832,2007.9
656.358,2017.0
656.884,2028.0
657.409,2010.7
657.935,2002.6
658.461,2015.4
658.986,2017.1
659.512,2034.6
660.037,2006.4
660.563,2006.9
661.088,2009.4
661.614,1974.6
662.139,1988.7
662.664,1976.1
663.058,1985.7