File: spectra/VLFR_02-HDPE_bio_Raman_2d355c0f.csv
nm,Intensity
526.508,830.6
527.055,829.4
527.602,829.7
528.149,830.2
528.695,830.4
529.241,828.6
529.787,830.9
530.334,829.2
530.879,829.4
531.425,829.4
531.971,834.4
532.516,831.6
533.062,828.7
533.607,830.3
534.152,868.3
534.697,862.5
535.242,858.8
535.786,850.9
536.331,848.4
536.876,847.0
537.42,848.0
537.964,845.1
538.508,847.5
539.052,844.4
539.596,844.1
540.14,842.8
540.683,839.2
541.227,843.0
541.77,842.6
542.313,842.6
542.856,841.1
543.399,842.6
543.942,842.7
544.485,840.6
545.027,840.2
545.57,842.5
546.112,843.7
546.654,840.2
547.196,842.6
547.738,841.1
548.28,840.8
548.822,843.2
549.363,843.1
549.905,843.0
550.446,841.7
550.988,843.0
551.529,844.1
552.07,842.8
552.611,842.8
553.152,844.8
553.692,844.8
554.233,845.1
554.773,846.1
555.314,843.0
555.854,843.4
556.394,846.5
556.934,848.1
557.474,847.7
558.014,849.3
558.553,849.1
559.093,847.9
559.632,848.4
560.172,848.9
560.711,849.1
561.25,847.7
561.789,848.5
562.328,851.6
562.867,851.5
563.406,854.0
563.944,897.5
564.483,862.5
565.021,857.7
565.559,857.8
566.098,936.2
566.636,858.8
567.174,854.8
567.711,853.9
568.249,851.7
568.787,850.3
569.324,852.8
569.862,852.5
570.399,854.9
570.936,858.3
571.474,942.7
572.011,869.7
572.548,857.3
573.084,854.9
573.621,853.1
574.158,859.1
574.694,855.5
575.231,859.1
575.767,891.6
576.303,924.0
576.84,893.1
577.376,883.1
577.912,861.1
578.447,861.4
578.983,858.7
579.519,861.4
580.054,863.3
580.59,861.8
581.125,862.9
581.661,862.9
582.196,869.1
582.731,871.5
583.266,869.9
583.801,873.2
584.336,876.3
584.87,878.3
585.405,880.8
585.94,882.7
586.474,888.3
587.008,888.6
587.543,889.9
588.077,897.4
588.611,900.2
589.145,895.7
589.679,902.6
590.213,903.3
590.747,913.6
591.28,908.1
591.814,907.0
592.347,914.5
592.881,910.8
593.414,912.9
593.947,909.5
594.48,910.5
595.014,911.6
595.547,909.7
596.079,909.2
596.612,911.8
597.145,912.8
597.678,914.0
598.21,914.9
598.743,916.8
599.275,915.3
599.807,913.8
600.34,915.1
600.872,909.5
601.404,915.5
601.936,915.9
602.468,917.4
603.0,909.1
603.532,910.7
604.063,909.2
604.595,908.5
605.126,904.7
605.658,901.8
606.189,901.2
606.721,897.9
607.252,896.8
607.783,895.3
608.314,893.6
608.845,895.6
609.376,889.5
609.907,891.8
610.438,892.6
610.968,889.0
611.499,890.3
612.03,889.1
612.56,887.9
613.091,887.5
613.621,883.8
614.151,886.4
614.681,882.0
615.212,885.1
615.742,882.9
616.272,882.4
616.802,885.1
617.332,882.3
617.861,882.7
618.391,885.3
618.921,882.4
619.45,884.1
619.98,881.4
620.509,884.9
621.039,882.9
621.568,889.6
622.097,898.4
622.627,898.3
623.156,887.5
623.685,881.8
624.214,881.2
624.743,883.3
625.272,882.9
625.801,886.5
626.33,897.4
626.858,1016.8
627.387,1240.7
627.916,1082.3
628.444,1189.8
628.973,1134.1
629.501,1073.7
630.029,1007.5
630.558,1002.0
631.086,935.1
631.614,896.5
632.142,885.8
632.67,883.9
633.198,877.2
633.726,882.2
634.254,877.3
634.782,876.5
635.31,878.2
635.838,878.9
636.365,876.5
636.893,880.0
637.421,878.5
637.948,879.7
638.476,875.6
639.003,878.3
639.531,880.6
640.058,876.9
640.585,877.0
641.113,878.8
641.64,878.6
642.167,882.1
642.694,880.1
643.221,878.8
643.748,879.4
644.275,879.6
644.802,879.2
645.329,879.3
645.856,877.2
646.382,880.0
646.909,880.1
647.436,877.4
647.962,880.0
648.489,879.9
649.016,877.7
649.542,875.6
650.069,876.2
650.595,874.0
651.121,873.3
651.648,875.5
652.174,871.9
652.7,875.8
653.227,873.8
653.753,876.9
654.279,874.4
654.805,874.0
655.331,873.0
655.857,872.2
656.383,874.0
656.909,872.8
657.435,872.5
657.961,872.4
658.487,871.0
659.013,870.1
659.538,871.0
660.064,872.8
660.59,868.6
661.116,866.8
661.641,865.8
662.167,866.0
662.692,863.4
663.087,865.9