File: spectra/VLFR_06-PET_bio_Raman_494e72ec.csv
nm,Intensity
528.637,1840.0
529.143,1840.5
529.648,1838.2
530.153,1840.8
530.659,1839.8
531.164,1842.1
531.669,1881.7
532.174,3970.4
532.679,1846.4
533.184,1861.9
533.689,4717.9
534.194,9895.6
534.699,8037.1
535.203,6066.5
535.708,4370.9
536.213,3500.9
536.717,3150.1
537.222,3039.0
537.726,2946.1
538.231,2985.3
538.735,2942.6
539.24,2973.2
539.744,3205.7
540.248,2988.9
540.752,2800.9
541.256,2684.6
541.761,2697.7
542.265,2713.0
542.769,2723.1
543.272,2723.7
543.776,2766.7
544.28,2764.7
544.784,2787.5
545.288,2805.0
545.791,2837.3
546.295,2837.0
546.798,2849.3
547.302,2830.9
547.805,2849.2
548.308,2902.7
548.812,2905.1
549.315,2904.7
549.818,2932.1
550.321,3165.1
550.824,3682.5
551.327,3039.6
551.83,3065.6
552.333,3122.1
552.836,3644.4
553.339,3117.4
553.842,3174.9
554.344,3187.3
554.847,3197.0
555.349,3497.8
555.852,3851.7
556.354,3982.3
556.857,4045.2
557.359,5258.0
557.861,4464.6
558.363,4198.5
558.866,3972.2
559.368,3527.7
559.87,3492.8
560.372,3492.5
560.873,3539.8
561.375,3646.0
561.877,3921.9
562.379,4437.1
562.88,4072.5
563.382,3958.9
563.883,3832.4
564.385,3960.5
564.886,4386.4
565.388,5000.2
565.889,5285.5
566.39,4430.7
566.891,4047.6
567.392,4401.5
567.893,4532.4
568.394,4053.9
568.895,4057.4
569.396,4191.3
569.897,4499.8
570.398,5072.5
570.898,6430.9
571.399,7313.8
571.899,5799.5
572.4,4752.4
572.9,4444.3
573.4,4392.1
573.901,4643.4
574.401,4532.7
574.901,4533.4
575.401,4980.7
575.901,4658.6
576.401,5069.9
576.901,5027.3
577.401,4709.9
577.9,4525.5
578.4,4598.3
578.9,4628.4
579.399,4717.3
579.899,4660.6
580.398,4823.2
580.897,5014.1
581.397,5375.6
581.896,11335.8
582.395,9506.4
582.894,5213.8
583.393,4951.0
583.892,4921.3
584.391,5067.9
584.889,5304.8
585.388,6918.2
585.887,11273.0
586.385,8974.3
586.884,5694.1
587.382,5212.9
587.881,5139.3
588.379,5178.0
588.877,5144.7
589.375,4969.3
589.874,4991.7
590.372,5037.1
590.87,5021.4
591.367,5104.0
591.865,4993.6
592.363,5169.7
592.861,5097.8
593.358,5071.5
593.856,5123.3
594.353,5118.0
594.851,5089.1
595.348,5140.4
595.845,5253.9
596.342,5238.7
596.84,5261.1
597.337,5167.7
597.833,5240.0
598.33,5280.9
598.827,5287.7
599.324,5182.7
599.821,5296.3
600.317,5392.4
600.814,5399.7
601.31,5339.6
601.807,5334.8
602.303,5315.2
602.799,5377.1
603.295,5362.9
603.791,5363.1
604.287,5326.7
604.783,5343.1
605.279,5363.2
605.775,5375.8
606.271,5453.1
606.766,5421.7
607.262,5404.4
607.757,5454.6
608.253,5448.0
608.748,5337.7
609.243,5429.0
609.738,5422.3
610.233,5445.5
610.729,5537.9
611.223,5405.8
611.718,5554.9
612.213,5443.1
612.708,5431.8
613.202,5470.7
613.697,5550.2
614.192,5481.2
614.686,5635.8
615.18,5424.8
615.675,5578.0
616.169,5579.3
616.663,5609.6
617.157,5600.2
617.651,5720.8
618.145,5680.0
618.638,5697.8
619.132,5672.6
619.626,5647.6
620.119,5724.6
620.613,5680.7
621.106,5597.7
621.599,5700.1
622.093,5782.3
622.586,5668.3
623.079,5789.8
623.572,5674.6
624.065,5813.0
624.558,5814.6
625.05,5946.9
625.543,5782.7
626.036,5756.0
626.528,5804.4
627.02,5729.6
627.513,6032.2
628.005,6137.0
628.497,6188.0
628.989,6502.6
629.481,6355.0
629.973,6297.5
630.465,6238.6
630.957,6891.2
631.449,8019.9
631.94,8119.1
632.432,7457.6
632.923,7113.5
633.414,7039.7
633.906,6883.6
634.397,6447.7
634.888,6410.5
635.379,6724.8
635.87,7353.5
636.361,8616.4
636.852,8041.3
637.342,6939.3
637.833,6647.7
638.323,6500.1
638.814,6439.2
639.304,6496.2
639.794,6428.2
640.285,6569.2
640.775,6546.0
641.265,6412.0
641.755,6437.8
642.244,6641.9
642.734,6463.2
643.224,6445.6
643.713,6618.2
644.203,6488.0
644.692,6511.5
645.181,6565.1
645.671,6455.5
646.16,6358.8
646.649,6520.9
647.138,6458.4
647.627,6541.7
648.115,6409.0
648.604,6421.1
649.093,6357.8
649.581,6323.6
650.07,6277.0
650.558,6293.7
651.046,6298.8
651.534,6344.0
652.023,6398.1
652.511,6134.4
652.998,6117.7
653.486,6012.9
653.974,6178.9
654.462,5978.7
654.949,5962.0
655.437,6062.5
655.924,6012.3
656.411,5799.5
656.898,5874.1
657.385,5913.7
657.872,5909.2
658.359,5792.5
658.846,5797.0
659.333,5507.3
659.82,5443.0
660.306,5688.1
660.793,5609.2
661.036,5529.3