File: spectra/VLFR_06-PET_bio_Raman_8e9859b1.csv
nm,Intensity
526.493,829.5
527.039,829.75
527.586,828.65
528.133,828.75
528.679,828.2
529.225,828.55
529.771,828.5
530.317,828.65
530.863,828.95
531.409,829.15
531.955,830.65
532.5,828.1
533.046,828.7
533.591,829.65
534.136,969.35
534.681,956.2
535.226,933.35
535.771,926.5
536.315,919.9
536.86,920.8
537.404,920.0
537.948,922.6
538.493,923.85
539.037,924.65
539.58,926.45
540.124,928.95
540.668,929.0
541.211,931.9
541.755,930.2
542.298,935.45
542.841,935.25
543.384,938.35
543.927,945.05
544.47,951.6
545.013,956.7
545.555,955.05
546.098,959.8
546.64,958.0
547.182,958.4
547.724,957.05
548.266,959.55
548.808,962.5
549.35,967.1
549.892,972.45
550.433,974.65
550.974,982.3
551.516,980.1
552.057,977.55
552.598,978.8
553.139,980.8
553.68,982.85
554.22,986.3
554.761,988.05
555.301,986.3
555.842,987.25
556.382,992.0
556.922,992.65
557.462,1005.75
558.002,1001.2
558.542,1002.3
559.082,998.55
559.621,1001.35
560.161,1006.45
560.7,1006.9
561.239,1010.5
561.778,1019.1
562.317,1112.85
562.856,1038.25
563.395,1021.05
563.934,1019.4
564.472,1024.85
565.011,1029.9
565.549,1041.9
566.088,1044.25
566.626,1038.4
567.164,1039.35
567.702,1039.25
568.24,1040.55
568.777,1038.6
569.315,1046.5
569.853,1049.9
570.39,1050.15
570.927,1059.9
571.465,1066.25
572.002,1059.45
572.539,1061.35
573.076,1062.5
573.612,1064.25
574.149,1068.9
574.686,1067.15
575.222,1070.0
575.759,1075.4
576.295,1079.0
576.831,1078.45
577.367,1077.95
577.903,1081.85
578.439,1080.85
578.975,1083.3
579.511,1084.85
580.046,1087.85
580.582,1086.2
581.117,1092.45
581.653,1095.4
582.188,1163.9
582.723,1102.2
583.258,1103.15
583.793,1106.05
584.328,1107.8
584.863,1108.8
585.398,1114.85
585.932,1148.0
586.467,1137.9
587.001,1118.55
587.535,1121.75
588.07,1121.5
588.604,1117.45
589.138,1122.1
589.672,1118.1
590.206,1118.95
590.739,1126.9
591.273,1126.4
591.807,1128.3
592.34,1128.85
592.873,1129.3
593.407,1130.7
593.94,1131.75
594.473,1133.05
595.006,1133.25
595.539,1130.4
596.072,1141.5
596.605,1141.75
597.138,1142.4
597.67,1142.25
598.203,1142.2
598.735,1147.7
599.268,1147.1
599.8,1146.25
600.332,1146.55
600.865,1145.5
601.397,1148.3
601.929,1144.0
602.46,1145.75
602.992,1152.8
603.524,1154.45
604.056,1153.2
604.587,1147.0
605.119,1150.05
605.65,1142.4
606.182,1144.3
606.713,1139.05
607.244,1144.55
607.775,1149.15
608.306,1152.65
608.837,1152.5
609.368,1149.05
609.899,1147.4
610.43,1148.45
610.961,1150.15
611.491,1146.95
612.022,1160.7
612.552,1153.4
613.083,1158.55
613.613,1162.15
614.143,1161.3
614.673,1161.3
615.203,1164.95
615.734,1165.05
616.263,1163.35
616.793,1159.4
617.323,1164.9
617.853,1161.35
618.383,1163.1
618.912,1162.85
619.442,1163.8
619.971,1163.0
620.501,1164.4
621.03,1160.9
621.56,1155.25
622.089,1163.95
622.618,1164.85
623.147,1167.4
623.676,1172.3
624.205,1173.9
624.734,1172.65
625.263,1168.2
625.792,1172.05
626.321,1169.0
626.849,1174.6
627.378,1170.85
627.906,1171.6
628.435,1173.85
628.963,1175.4
629.492,1176.65
630.02,1182.25
630.548,1172.0
631.077,1179.7
631.605,1186.9
632.133,1188.6
632.661,1184.05
633.189,1184.35
633.717,1178.55
634.245,1181.15
634.773,1179.85
635.3,1173.4
635.828,1187.05
636.356,1189.55
636.883,1191.9
637.411,1182.3
637.938,1184.45
638.466,1182.7
638.993,1186.1
639.521,1187.1
640.048,1180.35
640.575,1185.0
641.103,1186.6
641.63,1185.95
642.157,1181.55
642.684,1179.35
643.211,1177.3
643.738,1179.35
644.265,1172.5
644.792,1171.45
645.319,1167.7
645.845,1171.8
646.372,1169.55
646.899,1167.15
647.425,1173.3
647.952,1171.95
648.479,1166.45
649.005,1168.45
649.532,1165.95
650.058,1163.75
650.585,1162.05
651.111,1162.65
651.637,1162.0
652.164,1164.85
652.69,1162.95
653.216,1158.75
653.742,1157.55
654.268,1163.6
654.794,1159.05
655.32,1157.25
655.846,1153.4
656.372,1149.4
656.898,1152.85
657.424,1152.4
657.95,1147.0
658.476,1144.2
659.002,1146.9
659.528,1148.75
660.053,1145.85
660.579,1146.8
661.105,1135.45
661.63,1133.6
662.156,1136.15
662.681,1137.85
663.076,1126.9