File: spectra/VLFR_07-PET_bio_Raman_4d203758.csv
nm,Intensity
791.75,7482.45
792.846,7255.1
793.942,7112.45
795.037,7070.35
796.133,7062.25
797.228,7061.5
798.324,7080.25
799.419,7011.25
800.514,6985.35
801.61,6944.9
802.705,6887.7
803.8,6826.9
804.894,6812.2
805.989,6740.85
807.084,6687.15
808.178,6566.65
809.273,6587.4
810.367,6541.3
811.461,6476.1
812.556,6433.5
813.65,6318.9
814.744,6271.9
815.837,6246.1
816.931,6227.2
818.025,6161.05
819.118,6118.65
820.212,6051.2
821.305,6019.65
822.398,5932.45
823.491,5923.1
824.585,5959.25
825.677,5968.4
826.77,5819.4
827.863,5801.0
828.956,5729.5
830.048,5733.25
831.14,5688.8
832.233,5651.8
833.325,5570.7
834.417,5573.05
835.509,5552.1
836.601,5566.2
837.692,5547.5
838.784,5474.1
839.876,5468.55
840.967,5560.1
842.058,5457.1
843.149,5415.6
844.24,5304.6
845.331,5289.2
846.422,5249.45
847.513,5210.4
848.604,5180.95
849.694,5203.25
850.784,5134.9
851.875,5143.95
852.965,5121.2
854.055,5065.8
855.145,5093.8
856.235,5068.45
857.324,5071.85
858.414,5095.5
859.503,5066.75
860.593,5071.3
861.682,4976.3
862.771,4949.3
863.86,4989.6
864.949,4918.5
866.038,4879.7
867.126,4869.8
868.215,4863.3
869.303,4889.35
870.391,4912.4
871.479,4921.55
872.567,4956.3
873.655,4912.0
874.743,4847.75
875.831,4829.25
876.918,4784.75
878.006,4802.95
879.093,4724.75
880.18,4760.6
881.267,4731.8
882.354,4717.9
883.441,4726.65
884.527,4687.75
885.614,4691.6
886.7,4649.8
887.786,4615.3
888.872,4610.75
889.958,4587.85
891.044,4578.15
892.13,4562.7
893.216,4534.35
894.301,4524.0
895.386,4502.15
896.472,4519.85
897.557,4625.9
898.642,4631.85
899.726,4467.9
900.811,4411.15
901.896,4411.8
902.98,4402.5
904.064,4400.45
905.148,4376.25
906.232,4431.8
907.316,4479.55
908.4,4425.2
909.484,4347.65
910.567,4300.75
911.65,4274.85
912.734,4250.15
913.817,4232.6
914.9,4217.05
915.982,4216.7
917.065,4187.85
918.147,4177.6
919.23,4172.7
920.312,4170.2
921.394,4137.9
922.476,4118.7
923.558,4118.05
924.639,4098.3
925.721,4100.8
926.802,4076.85
927.884,4060.05
928.965,4042.6
930.046,4021.0
931.126,4017.9
932.207,4009.1
933.288,3998.0
934.368,3984.4
935.448,3982.2
936.528,3963.4
937.608,3956.45
938.688,3956.7
939.767,3945.6
940.847,3941.6
941.926,3923.9
943.005,3929.0
944.084,3910.95
945.163,3905.3
946.242,3902.65
947.321,3894.75
948.399,3883.85
949.477,3885.85
950.556,3878.35
951.634,3872.15
952.711,3865.9
953.789,3860.1
954.867,3855.6
955.944,3854.25
957.021,3848.85
958.098,3839.9
959.175,3837.25
960.252,3832.5
961.328,3832.1
962.405,3825.45
963.481,3822.85
964.557,3814.0
965.633,3813.05
966.709,3812.65
967.785,3812.7
968.86,3808.25
969.936,3808.95
971.011,3798.15
972.086,3797.7
973.161,3795.25
974.235,3789.5
975.31,3788.75
976.384,3787.85
977.459,3782.05
978.533,3782.65
979.607,3779.45
980.68,3780.1
981.754,3775.15
982.827,3769.2
983.901,3767.55
984.974,3769.05
986.047,3767.2
987.119,3764.65
988.192,3764.0
989.264,3763.05
990.337,3755.85
991.409,3755.0
992.481,3755.45
993.553,3752.8
994.624,3749.75
995.696,3749.1
996.767,3747.6
997.838,3747.0
998.909,3743.45
999.98,3742.5
1001.05,3743.25
1002.12,3740.85
1003.19,3738.3
1004.26,3738.75
1005.33,3734.05
1006.4,3734.05
1007.47,3730.05
1008.54,3731.0
1009.61,3730.7
1010.68,3730.95
1011.75,3729.25
1012.82,3728.75
1013.88,3728.2
1014.95,3725.8
1016.02,3725.15
1017.09,3725.25
1018.16,3722.8
1019.22,3722.4
1020.29,3723.4
1021.36,3724.3
1022.43,3722.2
1023.49,3721.35
1024.56,3721.4
1025.63,3717.4
1026.69,3717.6
1027.76,3714.5
1028.83,3713.0
1029.89,3712.75
1030.96,3712.85
1032.02,3713.3
1033.09,3714.7
1034.15,3714.6
1035.22,3714.5
1036.28,3711.75
1037.35,3711.05
1038.41,3709.65
1039.48,3710.3
1040.54,3709.2
1041.6,3708.65
1042.67,3709.05
1043.73,3706.95
1044.79,3707.25
1045.86,3707.35
1046.92,3707.05
1047.98,3706.9
1049.05,3707.7
1050.11,3705.45
1051.17,3705.6
1052.23,3706.9
1053.29,3706.55
1054.36,3705.45
1055.42,3706.25
1056.48,3704.8
1057.54,3705.2
1058.6,3705.5
1059.66,3705.1
1060.72,3704.65
1061.78,3704.85
1062.84,3705.5
1063.9,3703.95
1064.96,3704.45
1066.02,3704.85
1067.08,3704.0
1067.88,3703.4