File: spectra/VLFR_07-PET_nobio_Raman_53abcf2b.csv
nm,Intensity
791.75,14663.8
792.846,13691.1
793.942,13097.3
795.037,13030.8
796.133,12911.5
797.228,12802.0
798.324,12758.5
799.419,12724.9
800.514,12710.7
801.61,12916.0
802.705,12547.1
803.8,12278.3
804.894,12275.3
805.989,12217.9
807.084,11958.3
808.178,11858.9
809.273,11779.1
810.367,11630.9
811.461,11409.7
812.556,11369.5
813.65,11366.8
814.744,11006.2
815.837,10900.5
816.931,10806.3
818.025,10875.0
819.118,10625.6
820.212,10614.4
821.305,10373.4
822.398,10267.5
823.491,10135.3
824.585,10172.3
825.677,10492.9
826.77,9935.2
827.863,9832.8
828.956,9709.1
830.048,9794.35
831.14,9540.6
832.233,9418.45
833.325,9342.0
834.417,9240.55
835.509,9116.9
836.601,9312.85
837.692,9233.2
838.784,9157.1
839.876,9023.8
840.967,9370.75
842.058,9005.65
843.149,8835.8
844.24,8707.7
845.331,8426.95
846.422,8403.1
847.513,8241.85
848.604,8214.65
849.694,8117.4
850.784,8021.0
851.875,8140.45
852.965,8108.0
854.055,7964.4
855.145,7771.8
856.235,7857.65
857.324,7901.75
858.414,7885.2
859.503,8011.55
860.593,7831.45
861.682,7618.85
862.771,7492.4
863.86,7556.4
864.949,7481.4
866.038,7325.0
867.126,7335.1
868.215,7197.6
869.303,7279.45
870.391,7340.1
871.479,7553.05
872.567,7724.05
873.655,7407.5
874.743,7200.5
875.831,7071.8
876.918,6988.05
878.006,6883.35
879.093,6875.9
880.18,6809.35
881.267,6845.1
882.354,6772.6
883.441,6758.9
884.527,6682.95
885.614,6662.35
886.7,6529.15
887.786,6498.85
888.872,6437.0
889.958,6390.85
891.044,6399.65
892.13,6370.2
893.216,6237.55
894.301,6246.65
895.386,6166.9
896.472,6211.4
897.557,6892.45
898.642,6754.2
899.726,6203.9
900.811,5991.15
901.896,5854.85
902.98,5830.5
904.064,5836.75
905.148,5812.85
906.232,6157.85
907.316,6318.15
908.4,6158.95
909.484,5723.45
910.567,5572.75
911.65,5457.05
912.734,5423.85
913.817,5387.25
914.9,5355.25
915.982,5323.05
917.065,5247.75
918.147,5249.25
919.23,5205.25
920.312,5135.75
921.394,5067.7
922.476,5067.5
923.558,5027.1
924.639,4987.9
925.721,4984.05
926.802,4912.45
927.884,4911.8
928.965,4857.5
930.046,4788.6
931.126,4788.05
932.207,4754.0
933.288,4711.85
934.368,4680.6
935.448,4635.5
936.528,4629.05
937.608,4582.8
938.688,4548.3
939.767,4559.35
940.847,4544.1
941.926,4497.55
943.005,4436.4
944.084,4421.2
945.163,4422.15
946.242,4398.0
947.321,4381.4
948.399,4343.2
949.477,4340.0
950.556,4324.9
951.634,4296.0
952.711,4269.8
953.789,4260.6
954.867,4229.25
955.944,4231.15
957.021,4196.35
958.098,4193.3
959.175,4188.95
960.252,4153.8
961.328,4146.6
962.405,4137.0
963.481,4113.5
964.557,4103.4
965.633,4084.9
966.709,4079.55
967.785,4063.35
968.86,4046.25
969.936,4046.9
971.011,4025.15
972.086,4016.0
973.161,4006.5
974.235,4004.6
975.31,3985.0
976.384,3972.2
977.459,3972.85
978.533,3956.4
979.607,3950.5
980.68,3947.05
981.754,3928.3
982.827,3916.6
983.901,3922.1
984.974,3919.1
986.047,3903.35
987.119,3895.75
988.192,3892.0
989.264,3884.4
990.337,3877.9
991.409,3873.5
992.481,3863.2
993.553,3862.7
994.624,3848.55
995.696,3853.15
996.767,3838.35
997.838,3838.55
998.909,3831.65
999.98,3821.95
1001.05,3818.45
1002.12,3814.1
1003.19,3812.5
1004.26,3805.8
1005.33,3805.65
1006.4,3799.05
1007.47,3795.6
1008.54,3788.4
1009.61,3783.1
1010.68,3781.5
1011.75,3785.75
1012.82,3776.15
1013.88,3778.1
1014.95,3774.95
1016.02,3772.2
1017.09,3768.95
1018.16,3766.75
1019.22,3764.2
1020.29,3767.65
1021.36,3769.6
1022.43,3766.9
1023.49,3764.95
1024.56,3761.4
1025.63,3753.0
1026.69,3749.45
1027.76,3745.1
1028.83,3742.45
1029.89,3737.3
1030.96,3737.65
1032.02,3736.55
1033.09,3739.2
1034.15,3741.95
1035.22,3740.75
1036.28,3735.35
1037.35,3730.55
1038.41,3725.8
1039.48,3723.5
1040.54,3722.3
1041.6,3724.4
1042.67,3720.8
1043.73,3721.15
1044.79,3719.35
1045.86,3717.3
1046.92,3719.4
1047.98,3717.55
1049.05,3716.05
1050.11,3715.25
1051.17,3716.65
1052.23,3715.45
1053.29,3715.35
1054.36,3714.05
1055.42,3714.55
1056.48,3713.75
1057.54,3712.4
1058.6,3712.6
1059.66,3713.05
1060.72,3711.65
1061.78,3712.0
1062.84,3710.45
1063.9,3710.55
1064.96,3710.75
1066.02,3709.35
1067.08,3711.3
1067.88,3709.65