File: spectra/VLFR_06-PET_bio_Raman_6af04281.csv
nm,Intensity
528.65,1844.65
529.155,1845.3
529.66,1844.55
530.165,1845.4
530.67,1845.9
531.175,1846.45
531.68,1881.35
532.185,3617.0
532.69,1857.25
533.194,1875.25
533.699,5550.6
534.204,14884.2
534.708,11476.0
535.213,8592.7
535.717,6121.2
536.222,4602.85
536.726,4130.75
537.231,3749.55
537.735,3643.05
538.239,3727.3
538.743,3659.05
539.247,3827.2
539.751,4097.05
540.255,3794.95
540.759,3457.5
541.263,3326.7
541.767,3323.6
542.271,3305.2
542.775,3317.65
543.279,3304.95
543.782,3394.0
544.286,3374.55
544.789,3400.3
545.293,3402.95
545.796,3409.4
546.3,3457.65
546.803,3537.2
547.306,3506.75
547.81,3568.6
548.313,3583.15
548.816,3594.95
549.319,3577.15
549.822,3576.85
550.325,3921.75
550.828,4921.25
551.331,3800.7
551.834,3732.6
552.337,3857.3
552.839,4618.45
553.342,3867.45
553.844,3970.55
554.347,3960.25
554.849,4033.05
555.352,4461.1
555.854,4989.45
556.357,5156.95
556.859,5365.2
557.361,7257.25
557.863,6299.1
558.365,5682.15
558.867,5207.05
559.369,4525.4
559.871,4459.85
560.373,4466.55
560.875,4502.95
561.377,4728.8
561.878,4830.45
562.38,4944.6
562.881,5169.35
563.383,5135.45
563.884,4925.5
564.386,5060.7
564.887,5641.05
565.388,6620.6
565.89,7276.6
566.391,5705.45
566.892,5289.35
567.393,5668.55
567.894,6028.55
568.395,5344.0
568.896,5357.1
569.396,5489.45
569.897,5808.6
570.398,6880.3
570.898,8781.35
571.399,10236.1
571.9,7834.65
572.4,6374.45
572.9,5758.55
573.401,5788.6
573.901,6136.05
574.401,5935.05
574.901,6104.2
575.401,6553.9
575.901,6148.1
576.401,6702.4
576.901,6719.55
577.401,6111.8
577.901,6023.85
578.4,6220.65
578.9,6189.5
579.399,6194.35
579.899,6286.15
580.398,6311.0
580.898,6636.55
581.397,7124.65
581.896,15359.5
582.395,13885.8
582.895,6805.95
583.394,6654.05
583.893,6643.1
584.391,6886.35
584.89,7081.55
585.389,9420.95
585.888,16550.7
586.386,12720.8
586.885,7759.2
587.384,6987.95
587.882,6869.45
588.38,6917.45
588.879,6877.45
589.377,6823.6
589.875,6862.5
590.373,6793.55
590.871,6790.55
591.369,6888.25
591.867,6898.4
592.365,7045.4
592.863,6801.05
593.361,6974.15
593.858,6995.95
594.356,7035.45
594.853,6996.4
595.351,7193.6
595.848,7181.55
596.345,7077.3
596.843,7154.2
597.34,7153.5
597.837,7100.75
598.334,6961.35
598.831,7317.3
599.328,7225.2
599.824,7258.1
600.321,7181.25
600.818,7284.3
601.314,7251.65
601.811,7266.05
602.307,7309.65
602.804,7264.95
603.3,7289.8
603.796,7263.5
604.293,7294.65
604.789,7225.8
605.285,7464.9
605.781,7415.7
606.277,7343.95
606.772,7378.65
607.268,7386.85
607.764,7541.3
608.259,7363.85
608.755,7431.0
609.25,7408.1
609.746,7328.55
610.241,7471.2
610.736,7372.5
611.231,7293.25
611.727,7430.9
612.222,7328.3
612.716,7333.8
613.211,7367.1
613.706,7518.1
614.201,7503.6
614.695,7523.05
615.19,7541.35
615.684,7516.8
616.179,7621.15
616.673,7526.4
617.168,7575.25
617.662,7644.35
618.156,7517.3
618.65,7675.05
619.144,7600.85
619.638,7597.95
620.131,7551.8
620.625,7536.65
621.119,7653.7
621.612,7588.15
622.106,7556.2
622.599,7576.2
623.093,7663.0
623.586,7675.55
624.079,7725.3
624.572,7906.8
625.065,7751.95
625.558,7872.6
626.051,7679.5
626.544,7810.2
627.037,7694.75
627.529,8006.4
628.022,7911.35
628.514,8230.25
629.007,8538.85
629.499,8599.75
629.991,8267.7
630.483,8490.55
630.976,9107.55
631.468,11004.3
631.959,11385.8
632.451,10291.5
632.943,9818.9
633.435,9585.65
633.926,9318.95
634.418,8761.35
634.909,8868.3
635.401,9023.95
635.892,10019.3
636.383,11867.6
636.874,10865.3
637.365,9391.3
637.856,9067.9
638.347,9032.35
638.838,8768.6
639.329,8937.2
639.819,8754.35
640.31,8664.2
640.8,8753.3
641.291,8792.5
641.781,8809.35
642.271,8925.75
642.761,8970.7
643.251,8981.6
643.741,8782.55
644.231,8765.45
644.721,9129.95
645.211,9146.1
645.7,8884.15
646.19,8763.95
646.679,9315.65
647.169,8808.2
647.658,8870.0
648.147,9006.2
648.636,8851.1
649.125,8754.7
649.614,8808.0
650.103,8911.85
650.592,8877.8
651.08,8598.25
651.569,8545.15
652.058,8698.05
652.546,8517.65
653.034,8566.3
653.523,8408.05
654.011,8400.35
654.499,8288.0
654.987,8231.85
655.475,8415.1
655.963,8279.1
656.45,8138.35
656.938,8123.35
657.425,8004.3
657.913,8016.05
658.4,7987.8
658.888,7725.85
659.375,7786.8
659.862,7701.7
660.349,7479.75
660.836,7555.5
661.079,7471.45