File: spectra/VLFR_02-HDPE_nobio_Raman_8fbbef83.csv
nm,Intensity
526.508,829.7
527.055,830.0
527.602,829.6
528.149,829.4
528.695,829.5
529.241,829.8
529.787,830.6
530.334,831.4
530.879,829.5
531.425,831.5
531.971,833.2
532.516,830.0
533.062,828.8
533.607,830.2
534.152,879.6
534.697,878.4
535.242,876.2
535.786,857.3
536.331,852.3
536.876,851.0
537.42,850.2
537.964,850.3
538.508,850.8
539.052,847.2
539.596,846.3
540.14,846.0
540.683,845.8
541.227,843.1
541.77,843.0
542.313,845.2
542.856,845.7
543.399,844.4
543.942,845.6
544.485,846.0
545.027,844.3
545.57,845.3
546.112,846.6
546.654,845.5
547.196,845.5
547.738,845.3
548.28,846.2
548.822,845.0
549.363,844.5
549.905,845.7
550.446,846.7
550.988,845.1
551.529,845.2
552.07,845.8
552.611,847.3
553.152,845.5
553.692,847.9
554.233,849.0
554.773,850.1
555.314,847.3
555.854,850.6
556.394,850.0
556.934,850.1
557.474,850.4
558.014,851.5
558.553,852.0
559.093,852.5
559.632,854.6
560.172,852.7
560.711,851.8
561.25,851.4
561.789,851.7
562.328,854.4
562.867,856.7
563.406,858.6
563.944,913.8
564.483,872.2
565.021,864.8
565.559,864.5
566.098,924.0
566.636,864.4
567.174,859.2
567.711,860.5
568.249,855.6
568.787,855.4
569.324,855.7
569.862,858.8
570.399,860.1
570.936,865.9
571.474,952.0
572.011,880.6
572.548,862.2
573.084,859.4
573.621,857.2
574.158,865.1
574.694,858.0
575.231,861.1
575.767,894.5
576.303,962.7
576.84,918.3
577.376,892.9
577.912,864.1
578.447,856.0
578.983,857.1
579.519,860.3
580.054,856.2
580.59,857.9
581.125,856.7
581.661,857.2
582.196,857.1
582.731,858.1
583.266,860.2
583.801,859.1
584.336,859.4
584.87,859.9
585.405,860.8
585.94,860.6
586.474,863.4
587.008,863.7
587.543,863.8
588.077,865.6
588.611,869.0
589.145,866.0
589.679,868.6
590.213,870.5
590.747,872.0
591.28,876.6
591.814,876.0
592.347,878.2
592.881,880.1
593.414,878.3
593.947,879.1
594.48,881.0
595.014,881.3
595.547,884.9
596.079,883.8
596.612,886.0
597.145,883.0
597.678,884.7
598.21,885.1
598.743,885.7
599.275,887.7
599.807,882.8
600.34,886.3
600.872,881.8
601.404,881.6
601.936,882.3
602.468,882.5
603.0,882.3
603.532,880.7
604.063,880.3
604.595,883.7
605.126,875.4
605.658,876.6
606.189,875.2
606.721,876.1
607.252,873.2
607.783,875.6
608.314,873.1
608.845,876.9
609.376,874.0
609.907,876.3
610.438,874.4
610.968,877.1
611.499,873.8
612.03,873.9
612.56,877.1
613.091,876.1
613.621,874.7
614.151,876.4
614.681,874.1
615.212,874.1
615.742,874.2
616.272,873.2
616.802,878.5
617.332,882.9
617.861,882.8
618.391,880.5
618.921,879.1
619.45,881.7
619.98,883.5
620.509,882.6
621.039,889.2
621.568,894.7
622.097,922.3
622.627,912.7
623.156,888.4
623.685,884.8
624.214,881.6
624.743,883.3
625.272,884.9
625.801,890.3
626.33,917.6
626.858,1162.2
627.387,1564.3
627.916,1271.0
628.444,1488.5
628.973,1274.3
629.501,1176.3
630.029,1082.0
630.558,1052.9
631.086,958.8
631.614,898.5
632.142,886.3
632.67,877.2
633.198,876.0
633.726,875.0
634.254,872.8
634.782,869.3
635.31,870.0
635.838,869.5
636.365,868.8
636.893,868.2
637.421,864.6
637.948,862.5
638.476,864.7
639.003,865.9
639.531,865.1
640.058,864.9
640.585,864.5
641.113,868.0
641.64,865.6
642.167,864.1
642.694,863.3
643.221,864.4
643.748,868.0
644.275,865.7
644.802,865.5
645.329,864.8
645.856,866.2
646.382,867.6
646.909,866.6
647.436,866.0
647.962,864.2
648.489,862.5
649.016,864.9
649.542,866.3
650.069,866.0
650.595,865.6
651.121,864.2
651.648,863.3
652.174,864.1
652.7,862.1
653.227,864.2
653.753,860.9
654.279,859.8
654.805,862.7
655.331,861.5
655.857,862.4
656.383,860.1
656.909,860.5
657.435,862.5
657.961,861.2
658.487,861.8
659.013,856.6
659.538,859.6
660.064,860.2
660.59,859.0
661.116,859.0
661.641,856.7
662.167,857.4
662.692,857.1
663.087,856.3