File: spectra/VLFR_07-PET_nobio_Raman_cb252e98.csv
nm,Intensity
791.377,11550.5
792.477,10632.3
793.576,10041.2
794.676,9814.68
795.775,9691.94
796.874,9609.7
797.973,9538.88
799.072,9569.08
800.171,9457.32
801.27,9383.44
802.368,9430.56
803.467,9210.94
804.565,8993.36
805.664,8896.46
806.762,8844.62
807.86,8759.58
808.958,8722.84
810.056,8640.62
811.153,8593.78
812.251,8496.72
813.349,8322.88
814.446,8387.06
815.543,8303.42
816.64,8268.54
817.737,8178.74
818.834,8124.86
819.931,8118.52
821.028,7971.48
822.125,7888.6
823.221,7866.7
824.317,7756.9
825.414,7927.86
826.51,7745.8
827.606,7526.18
828.702,7566.54
829.797,7535.38
830.893,7551.18
831.988,7397.16
833.084,7351.04
834.179,7267.82
835.274,7160.32
836.369,7314.14
837.464,7298.66
838.559,7234.32
839.654,7081.02
840.748,7378.62
841.843,7392.68
842.937,7169.76
844.031,6999.7
845.125,6814.02
846.219,6809.4
847.313,6659.98
848.407,6768.22
849.5,6605.8
850.593,6651.26
851.687,6701.24
852.78,6640.32
853.873,6604.24
854.966,6544.22
856.059,6546.5
857.151,6443.62
858.244,6579.0
859.336,6698.9
860.428,6606.46
861.52,6499.34
862.612,6353.34
863.704,6374.88
864.796,6340.42
865.888,6293.42
866.979,6192.64
868.07,6200.4
869.162,6144.82
870.253,6216.72
871.344,6290.0
872.434,6521.82
873.525,6523.02
874.615,6248.8
875.706,6116.3
876.796,5987.38
877.886,5904.38
878.976,5988.34
880.066,5841.98
881.156,5913.8
882.245,5816.78
883.335,5879.84
884.424,5777.32
885.513,5790.92
886.602,5749.08
887.691,5663.42
888.78,5621.16
889.868,5550.74
890.957,5588.18
892.045,5581.42
893.133,5528.98
894.221,5474.56
895.309,5384.6
896.397,5426.82
897.484,5697.26
898.571,6174.34
899.659,5681.66
900.746,5312.26
901.833,5222.28
902.92,5253.6
904.006,5179.74
905.093,5193.78
906.179,5284.6
907.266,5615.16
908.352,5603.82
909.438,5321.76
910.523,5079.32
911.609,4929.02
912.695,4964.82
913.78,4915.92
914.865,4854.24
915.95,4832.78
917.035,4825.86
918.12,4791.6
919.204,4811.12
920.289,4741.0
921.373,4711.46
922.457,4667.76
923.541,4641.4
924.625,4639.72
925.709,4636.34
926.792,4566.52
927.876,4571.88
928.959,4529.74
930.042,4524.56
931.125,4480.46
932.208,4461.32
933.29,4456.6
934.373,4414.02
935.455,4384.94
936.537,4383.06
937.619,4374.58
938.701,4327.54
939.782,4335.14
940.864,4300.82
941.945,4291.34
943.026,4287.76
944.107,4251.24
945.188,4241.3
946.269,4234.14
947.349,4202.98
948.43,4204.14
949.51,4180.7
950.59,4164.98
951.67,4159.9
952.75,4133.92
953.829,4142.24
954.909,4119.08
955.988,4094.96
957.067,4106.26
958.146,4080.12
959.224,4074.58
960.303,4054.8
961.381,4055.4
962.459,4041.84
963.537,4037.06
964.615,4026.12
965.693,4019.92
966.771,4001.78
967.848,3990.2
968.925,3991.42
970.002,3980.98
971.079,3967.64
972.156,3965.84
973.232,3951.78
974.309,3946.88
975.385,3943.82
976.461,3932.26
977.537,3924.14
978.612,3917.16
979.688,3915.16
980.763,3905.16
981.838,3902.26
982.913,3897.56
983.988,3896.54
985.063,3883.66
986.137,3877.74
987.211,3879.36
988.285,3875.46
989.359,3870.72
990.433,3859.16
991.506,3861.02
992.58,3847.8
993.653,3846.44
994.726,3842.52
995.799,3840.98
996.872,3836.12
997.944,3832.22
999.016,3825.5
1000.09,3825.6
1001.16,3817.2
1002.23,3815.94
1003.3,3814.98
1004.38,3811.04
1005.45,3810.02
1006.52,3803.96
1007.59,3799.62
1008.66,3798.28
1009.73,3793.56
1010.8,3790.92
1011.87,3791.58
1012.94,3789.08
1014.01,3786.74
1015.08,3784.48
1016.15,3784.0
1017.22,3782.52
1018.29,3780.88
1019.36,3776.62
1020.42,3777.66
1021.49,3782.58
1022.56,3786.94
1023.63,3783.96
1024.7,3778.48
1025.76,3772.62
1026.83,3770.16
1027.9,3763.26
1028.97,3760.6
1030.03,3760.02
1031.1,3757.46
1032.17,3757.32
1033.23,3759.04
1034.3,3761.58
1035.36,3762.68
1036.43,3760.38
1037.5,3755.42
1038.56,3750.2
1039.63,3749.2
1040.69,3748.22
1041.76,3745.96
1042.82,3745.64
1043.89,3744.88
1044.95,3744.02
1046.01,3741.36
1047.08,3742.8
1048.14,3742.08
1049.2,3741.12
1050.27,3741.2
1051.33,3741.38
1052.39,3740.04
1053.46,3741.56
1054.52,3739.72
1055.58,3739.24
1056.64,3739.48
1057.7,3738.68
1058.77,3737.96
1059.83,3738.74
1060.89,3738.22
1061.95,3739.22
1063.01,3737.62
1064.07,3738.32
1065.13,3737.54
1066.19,3736.74
1067.25,3736.92
1068.05,3736.04