File: spectra/VLFR_08-PLA_nobio_Raman_48b87dbb.csv
cm-1,Intensity
-123.878,1851.15
-105.821,1851.1
-87.8007,1853.15
-69.8161,1852.45
-51.8675,1853.75
-33.9547,1853.8
-16.0776,1883.55
1.76388,3006.45
19.5698,1853.85
37.3403,1855.35
55.0755,2031.45
72.7754,2495.85
90.4402,2434.4
108.07,2383.95
125.665,2360.2
143.225,2344.05
160.75,2375.15
178.241,2350.3
195.697,2358.35
213.119,2333.55
230.506,2328.7
247.859,2345.2
265.178,2339.55
282.463,2348.8
299.713,2383.7
316.93,2373.4
334.113,2364.25
351.263,2360.9
368.379,2378.85
385.461,2419.9
402.51,2482.6
419.526,2428.75
436.508,2411.4
453.458,2376.5
470.374,2414.35
487.257,2406.1
504.107,2423.1
520.925,2429.65
537.71,2440.0
554.462,2474.8
571.182,2484.6
587.87,2478.7
604.525,2463.5
621.148,2487.75
637.739,2516.55
654.297,2523.65
670.824,2574.55
687.319,2545.15
703.782,2540.7
720.213,2540.05
736.613,2581.65
752.981,2585.55
769.317,2561.9
785.623,2541.7
801.897,2548.2
818.139,2550.05
834.351,2570.3
850.532,2625.7
866.681,2950.25
882.8,2821.2
898.888,2648.35
914.945,2631.35
930.972,2614.9
946.968,2604.75
962.934,2617.9
978.869,2599.45
994.774,2618.85
1010.65,2622.25
1026.49,2686.9
1042.31,2786.75
1058.09,2691.65
1073.85,2658.85
1089.57,2775.45
1105.27,2769.2
1120.93,2867.3
1136.57,2826.15
1152.18,2722.8
1167.75,2699.3
1183.3,2745.75
1198.82,2749.6
1214.31,2755.35
1229.77,2722.65
1245.2,2757.65
1260.6,2750.8
1275.97,2770.45
1291.32,2847.1
1306.63,2864.5
1321.92,2821.65
1337.18,2852.95
1352.41,2824.8
1367.61,2833.95
1382.78,2877.1
1397.93,2807.3
1413.05,2797.6
1428.14,2840.0
1443.2,2978.7
1458.23,3046.3
1473.23,2872.15
1488.21,2828.15
1503.16,2788.35
1518.08,2786.15
1532.97,2802.4
1547.84,2796.65
1562.68,2813.85
1577.49,2812.0
1592.27,2825.6
1607.03,2794.0
1621.76,2779.2
1636.46,2781.35
1651.14,2791.95
1665.78,2817.2
1680.41,2784.65
1695.0,2791.65
1709.57,2798.1
1724.11,2809.25
1738.62,2822.35
1753.11,2968.6
1767.57,3050.2
1782.01,2939.85
1796.41,2823.55
1810.8,2792.85
1825.15,2782.75
1839.48,2784.8
1853.79,2757.25
1868.06,2785.45
1882.31,2763.95
1896.54,2776.45
1910.74,2791.05
1924.91,2763.1
1939.06,2750.45
1953.19,2769.65
1967.28,2767.1
1981.35,2762.1
1995.4,2754.8
2009.42,2782.05
2023.42,2795.1
2037.39,2772.0
2051.33,2770.05
2065.25,2749.35
2079.15,2779.8
2093.01,2752.65
2106.86,2784.6
2120.68,2778.2
2134.47,2763.3
2148.24,2779.1
2161.99,2757.2
2175.71,2796.7
2189.41,2754.1
2203.08,2785.05
2216.73,2759.0
2230.35,2748.0
2243.95,2762.2
2257.52,2783.25
2271.07,2769.7
2284.6,2759.75
2298.1,2753.0
2311.58,2759.85
2325.03,2733.05
2338.46,2776.9
2351.87,2741.1
2365.25,2772.75
2378.61,2732.3
2391.94,2742.7
2405.26,2779.4
2418.54,2771.65
2431.81,2752.7
2445.05,2758.15
2458.27,2764.4
2471.46,2763.75
2484.63,2777.55
2497.78,2727.45
2510.9,2758.2
2524.0,2769.7
2537.08,2726.9
2550.14,2733.6
2563.17,2753.55
2576.18,2732.6
2589.17,2724.15
2602.13,2745.5
2615.07,2744.8
2627.99,2728.95
2640.89,2757.35
2653.76,2746.6
2666.61,2706.0
2679.44,2723.8
2692.25,2760.75
2705.03,2737.7
2717.79,2717.15
2730.53,2750.45
2743.25,2796.55
2755.94,2769.45
2768.61,2723.2
2781.27,2706.6
2793.89,2702.65
2806.5,2694.8
2819.09,2716.3
2831.65,2709.35
2844.19,2697.3
2856.71,2724.85
2869.21,2820.35
2881.69,3074.55
2894.14,2972.2
2906.58,3018.3
2918.99,2991.55
2931.38,3387.2
2943.75,4988.45
2956.1,4189.0
2968.42,3320.8
2980.73,3181.1
2993.01,3400.65
3005.28,3569.05
3017.52,3189.3
3029.74,2818.05
3041.94,2708.05
3054.12,2635.8
3066.28,2601.8
3078.42,2605.1
3090.54,2579.05
3102.63,2574.5
3114.71,2529.3
3126.77,2564.25
3138.8,2539.65
3150.82,2560.0
3162.81,2541.1
3174.78,2534.7
3186.74,2497.1
3198.67,2522.9
3210.58,2519.3
3222.47,2527.65
3234.35,2489.55
3246.2,2481.0
3258.03,2479.1
3269.84,2454.0
3281.64,2456.35
3293.41,2470.9
3305.16,2436.05
3316.89,2433.55
3328.61,2432.35
3340.3,2422.4
3351.97,2428.45
3363.63,2423.55
3375.26,2386.55
3386.88,2415.9
3398.47,2384.7
3410.05,2390.3
3421.6,2377.65
3433.14,2377.65
3444.66,2369.6
3456.15,2392.35
3467.63,2352.4
3479.09,2368.5
3490.53,2349.75
3501.96,2348.65
3513.36,2327.8
3524.74,2325.25
3536.11,2303.8
3547.45,2317.05
3558.78,2295.45
3570.09,2304.6
3581.37,2314.85
3592.64,2292.2
3603.9,2268.4
3615.13,2282.4
3626.34,2253.1
3637.54,2249.4
3648.72,2262.15
3659.87,2260.4
3665.45,2263.35