File: spectra/VLFR_01-LDPE_bio_Raman_41330f71.csv
nm,Intensity
526.495,830.3
527.042,829.8
527.589,830.1
528.136,827.1
528.682,828.7
529.229,828.9
529.775,829.8
530.321,829.9
530.867,829.3
531.413,828.5
531.959,832.9
532.505,830.8
533.051,830.1
533.596,829.2
534.141,838.3
534.687,838.2
535.232,839.5
535.777,837.7
536.321,837.1
536.866,837.3
537.41,835.9
537.955,838.1
538.499,837.9
539.043,837.1
539.587,837.2
540.131,837.5
540.675,837.6
541.219,837.0
541.762,835.9
542.305,835.2
542.849,836.3
543.392,837.0
543.935,837.4
544.478,835.9
545.02,836.9
545.563,837.3
546.106,835.5
546.648,835.2
547.19,836.1
547.732,836.2
548.274,836.3
548.816,836.6
549.358,836.1
549.9,836.1
550.441,836.0
550.983,836.5
551.524,834.4
552.065,836.6
552.606,836.1
553.147,835.4
553.688,834.8
554.229,836.1
554.769,835.5
555.31,835.6
555.85,837.0
556.391,835.0
556.931,838.3
557.471,836.1
558.011,836.6
558.551,836.3
559.09,836.8
559.63,839.6
560.169,837.2
560.709,837.0
561.248,838.5
561.787,837.3
562.326,837.1
562.865,838.8
563.404,837.7
563.943,842.8
564.481,838.3
565.02,839.8
565.558,839.0
566.096,846.1
566.634,839.5
567.172,840.3
567.71,840.5
568.248,839.3
568.786,840.7
569.324,840.1
569.861,841.3
570.399,841.8
570.936,841.9
571.473,849.0
572.01,844.6
572.547,846.3
573.084,844.5
573.621,841.6
574.158,844.9
574.694,842.7
575.231,844.2
575.767,849.9
576.303,854.0
576.84,849.3
577.376,849.6
577.912,849.2
578.448,848.0
578.984,851.5
579.519,849.3
580.055,849.2
580.59,851.3
581.126,851.3
581.661,852.2
582.196,858.3
582.731,856.9
583.267,858.5
583.801,859.2
584.336,861.0
584.871,856.1
585.406,862.1
585.94,863.7
586.475,864.0
587.009,866.6
587.543,869.8
588.078,870.3
588.612,872.3
589.146,875.5
589.68,876.7
590.214,879.0
590.747,879.0
591.281,882.8
591.815,884.8
592.348,884.4
592.881,888.2
593.415,887.8
593.948,895.4
594.481,894.6
595.014,897.3
595.547,900.0
596.08,905.0
596.613,909.0
597.146,914.2
597.678,912.8
598.211,917.4
598.743,922.3
599.276,925.5
599.808,924.4
600.34,923.1
600.872,922.7
601.404,925.4
601.936,921.5
602.468,925.3
603.0,922.0
603.532,919.9
604.064,916.5
604.595,911.5
605.127,904.6
605.658,904.6
606.189,902.8
606.721,892.9
607.252,894.1
607.783,890.9
608.314,894.6
608.845,885.1
609.376,887.8
609.907,882.1
610.438,881.8
610.968,881.3
611.499,881.7
612.029,884.2
612.56,877.6
613.09,876.0
613.621,878.0
614.151,874.9
614.681,876.0
615.211,874.2
615.741,872.4
616.271,869.8
616.801,871.4
617.331,871.2
617.861,868.5
618.39,869.6
618.92,868.3
619.45,864.6
619.979,867.3
620.509,868.3
621.038,868.0
621.567,869.3
622.096,867.4
622.626,867.9
623.155,868.2
623.684,864.3
624.213,864.5
624.742,864.9
625.271,864.4
625.799,864.2
626.328,865.1
626.857,874.5
627.386,900.3
627.914,885.5
628.443,892.6
628.971,891.2
629.5,880.7
630.028,876.8
630.556,878.5
631.084,867.5
631.613,864.6
632.141,860.8
632.669,861.6
633.197,863.6
633.725,859.4
634.253,857.6
634.781,861.3
635.308,859.4
635.836,860.0
636.364,861.6
636.891,861.5
637.419,860.0
637.947,859.7
638.474,862.5
639.002,864.0
639.529,863.5
640.056,859.1
640.584,863.0
641.111,862.9
641.638,862.0
642.165,865.5
642.692,865.9
643.219,866.0
643.746,866.2
644.273,867.4
644.8,866.8
645.327,868.0
645.854,868.0
646.381,869.9
646.908,867.9
647.434,869.5
647.961,866.8
648.488,871.3
649.014,871.9
649.541,869.4
650.067,869.9
650.594,869.5
651.12,872.2
651.646,872.0
652.173,871.2
652.699,871.9
653.225,872.3
653.752,873.2
654.278,875.5
654.804,870.7
655.33,871.2
655.856,872.0
656.382,867.9
656.908,868.8
657.434,868.9
657.96,867.8
658.486,868.4
659.012,864.9
659.538,863.6
660.064,863.6
660.589,865.0
661.115,861.5
661.641,861.6
662.166,859.6
662.692,856.7
663.086,857.4