File: spectra/VLFR_06-PET_nobio_Raman_4343f96a.csv
nm,Intensity
526.5,829.4
527.047,829.1
527.594,828.8
528.14,829.5
528.687,830.0
529.233,828.0
529.779,827.9
530.325,830.1
530.871,828.4
531.417,828.1
531.962,831.0
532.508,828.4
533.053,828.7
533.599,836.0
534.144,1527.4
534.689,1336.0
535.234,1152.1
535.778,1038.9
536.323,968.3
536.867,941.1
537.412,930.7
537.956,921.8
538.5,931.2
539.044,932.6
539.588,936.7
540.132,940.8
540.675,919.0
541.219,914.4
541.762,913.2
542.305,912.5
542.848,920.1
543.391,914.8
543.934,920.7
544.477,922.5
545.02,921.1
545.562,925.0
546.105,925.5
546.647,928.3
547.189,929.9
547.731,933.0
548.273,935.6
548.815,930.9
549.356,938.5
549.898,936.3
550.439,947.3
550.981,956.5
551.522,948.5
552.063,950.6
552.604,954.1
553.145,963.9
553.686,959.2
554.226,956.1
554.767,961.7
555.307,968.5
555.848,1002.3
556.388,1004.2
556.928,1009.6
557.468,1088.8
558.008,1029.7
558.547,1024.2
559.087,1003.8
559.626,985.9
560.166,986.7
560.705,989.7
561.244,993.8
561.783,995.5
562.322,1011.3
562.861,1019.2
563.4,1023.8
563.939,1013.6
564.477,1030.8
565.015,1051.9
565.554,1083.4
566.092,1089.7
566.63,1044.4
567.168,1031.5
567.706,1081.4
568.244,1043.0
568.781,1041.4
569.319,1047.2
569.857,1064.6
570.394,1099.4
570.931,1166.5
571.468,1233.4
572.005,1149.2
572.542,1093.6
573.079,1076.8
573.616,1082.5
574.153,1097.3
574.689,1090.3
575.226,1109.7
575.762,1098.8
576.298,1117.3
576.834,1122.1
577.371,1110.7
577.907,1108.4
578.442,1109.0
578.978,1110.2
579.514,1115.8
580.049,1117.1
580.585,1126.4
581.12,1140.8
581.656,1186.9
582.191,1851.7
582.726,1177.6
583.261,1145.9
583.796,1149.1
584.331,1160.2
584.865,1163.4
585.4,1210.4
585.935,1526.9
586.469,1388.1
587.004,1206.2
587.538,1171.8
588.072,1172.5
588.606,1175.2
589.14,1170.2
589.674,1169.6
590.208,1176.7
590.742,1182.1
591.275,1180.8
591.809,1183.6
592.342,1181.6
592.876,1185.9
593.409,1185.8
593.942,1187.6
594.476,1191.8
595.009,1192.1
595.542,1195.4
596.075,1198.3
596.607,1194.5
597.14,1205.6
597.673,1202.4
598.205,1210.5
598.738,1215.0
599.27,1219.3
599.803,1219.0
600.335,1203.7
600.867,1208.5
601.399,1215.6
601.931,1217.0
602.463,1217.8
602.995,1224.8
603.527,1223.8
604.058,1226.9
604.59,1219.9
605.122,1221.5
605.653,1215.9
606.184,1215.1
606.716,1215.0
607.247,1225.2
607.778,1224.2
608.309,1228.1
608.84,1225.6
609.371,1232.6
609.902,1234.5
610.433,1230.1
610.964,1228.1
611.494,1229.1
612.025,1239.0
612.556,1239.8
613.086,1247.0
613.616,1253.0
614.147,1259.2
614.677,1256.4
615.207,1249.0
615.737,1264.0
616.267,1258.8
616.797,1260.5
617.327,1263.8
617.857,1273.9
618.387,1279.7
618.917,1281.4
619.446,1270.1
619.976,1274.1
620.505,1275.0
621.035,1272.7
621.564,1275.0
622.093,1285.7
622.623,1285.8
623.152,1291.1
623.681,1298.8
624.21,1300.5
624.739,1310.8
625.268,1314.4
625.797,1318.0
626.326,1307.3
626.855,1320.5
627.383,1323.8
627.912,1336.0
628.441,1338.2
628.969,1366.2
629.498,1359.1
630.026,1367.4
630.554,1369.5
631.083,1415.9
631.611,1498.0
632.139,1494.0
632.667,1441.4
633.195,1432.5
633.724,1427.4
634.252,1409.0
634.779,1401.0
635.307,1414.8
635.835,1455.5
636.363,1541.8
636.891,1548.2
637.418,1461.8
637.946,1444.4
638.474,1450.6
639.001,1442.7
639.529,1449.1
640.056,1453.9
640.583,1453.8
641.111,1466.4
641.638,1463.1
642.165,1474.7
642.692,1488.8
643.22,1473.9
643.747,1474.9
644.274,1479.5
644.801,1475.6
645.328,1475.4
645.854,1483.0
646.381,1481.3
646.908,1489.2
647.435,1503.1
647.962,1501.5
648.488,1500.4
649.015,1499.5
649.542,1499.9
650.068,1505.6
650.595,1503.9
651.121,1508.7
651.648,1508.5
652.174,1503.6
652.7,1515.0
653.227,1508.4
653.753,1519.8
654.279,1523.1
654.805,1526.9
655.331,1524.7
655.858,1513.6
656.384,1517.4
656.91,1525.8
657.436,1527.6
657.962,1522.2
658.488,1521.3
659.013,1523.1
659.539,1528.6
660.065,1525.4
660.591,1531.8
661.117,1517.8
661.642,1514.4
662.168,1511.6
662.694,1521.6
663.088,1513.3