File: spectra/VLFR_07-PET_bio_Raman_1352fdf4.csv
nm,Intensity
791.75,10474.0
792.846,10149.3
793.942,9745.65
795.037,9700.8
796.133,9723.8
797.228,9714.05
798.324,9671.8
799.419,9692.4
800.514,9599.4
801.61,9632.15
802.705,9630.35
803.8,9518.95
804.894,9415.1
805.989,9485.3
807.084,9275.7
808.178,9241.9
809.273,9125.7
810.367,9095.2
811.461,9046.75
812.556,8936.3
813.65,8814.4
814.744,8695.15
815.837,8687.6
816.931,8634.3
818.025,8599.85
819.118,8401.7
820.212,8555.25
821.305,8331.95
822.398,8266.15
823.491,8178.35
824.585,8146.85
825.677,8224.1
826.77,8028.35
827.863,7943.0
828.956,7814.8
830.048,7897.15
831.14,7792.7
832.233,7649.25
833.325,7581.2
834.417,7533.05
835.509,7502.05
836.601,7480.45
837.692,7469.7
838.784,7437.75
839.876,7279.7
840.967,7449.75
842.058,7365.55
843.149,7250.85
844.24,7139.8
845.331,7024.75
846.422,7043.0
847.513,6883.25
848.604,6847.15
849.694,6826.7
850.784,6834.25
851.875,6804.0
852.965,6809.25
854.055,6708.55
855.145,6747.45
856.235,6720.5
857.324,6641.9
858.414,6712.85
859.503,6638.35
860.593,6607.6
861.682,6546.25
862.771,6549.15
863.86,6458.35
864.949,6503.5
866.038,6340.05
867.126,6388.8
868.215,6267.75
869.303,6296.85
870.391,6342.45
871.479,6455.1
872.567,6518.5
873.655,6428.7
874.743,6245.6
875.831,6184.05
876.918,6119.8
878.006,6105.7
879.093,6118.95
880.18,6021.65
881.267,5997.2
882.354,5969.85
883.441,5992.0
884.527,5972.15
885.614,5881.8
886.7,5875.05
887.786,5862.95
888.872,5771.6
889.958,5731.6
891.044,5752.15
892.13,5695.15
893.216,5645.85
894.301,5596.3
895.386,5533.8
896.472,5521.2
897.557,5696.4
898.642,5779.45
899.726,5583.9
900.811,5398.2
901.896,5333.6
902.98,5259.05
904.064,5299.75
905.148,5287.2
906.232,5313.3
907.316,5437.15
908.4,5400.55
909.484,5256.25
910.567,5105.25
911.65,5078.25
912.734,5005.75
913.817,4983.4
914.9,4932.5
915.982,4896.9
917.065,4898.45
918.147,4857.45
919.23,4818.95
920.312,4844.8
921.394,4800.05
922.476,4733.25
923.558,4736.15
924.639,4669.45
925.721,4652.5
926.802,4643.35
927.884,4608.5
928.965,4557.9
930.046,4558.5
931.126,4515.3
932.207,4474.3
933.288,4451.75
934.368,4456.95
935.448,4409.3
936.528,4384.25
937.608,4405.55
938.688,4364.2
939.767,4331.7
940.847,4330.8
941.926,4300.25
943.005,4284.55
944.084,4248.4
945.163,4257.25
946.242,4233.6
947.321,4226.55
948.399,4187.8
949.477,4197.1
950.556,4169.65
951.634,4159.45
952.711,4160.8
953.789,4129.25
954.867,4131.05
955.944,4103.55
957.021,4111.05
958.098,4090.05
959.175,4071.85
960.252,4058.05
961.328,4064.65
962.405,4045.55
963.481,4031.2
964.557,4037.45
965.633,4017.05
966.709,4025.6
967.785,4005.3
968.86,3991.7
969.936,3990.75
971.011,3983.4
972.086,3973.3
973.161,3970.15
974.235,3956.0
975.31,3948.5
976.384,3935.75
977.459,3934.7
978.533,3931.95
979.607,3926.0
980.68,3917.45
981.754,3912.9
982.827,3908.25
983.901,3899.4
984.974,3895.4
986.047,3889.15
987.119,3888.2
988.192,3883.95
989.264,3881.5
990.337,3875.9
991.409,3866.2
992.481,3862.45
993.553,3859.55
994.624,3850.1
995.696,3850.5
996.767,3841.6
997.838,3843.5
998.909,3838.05
999.98,3828.45
1001.05,3824.3
1002.12,3829.1
1003.19,3820.45
1004.26,3816.8
1005.33,3815.9
1006.4,3811.4
1007.47,3810.2
1008.54,3803.3
1009.61,3800.85
1010.68,3799.7
1011.75,3798.4
1012.82,3793.35
1013.88,3793.95
1014.95,3789.6
1016.02,3788.25
1017.09,3785.5
1018.16,3781.5
1019.22,3784.45
1020.29,3780.9
1021.36,3780.05
1022.43,3782.35
1023.49,3779.6
1024.56,3773.85
1025.63,3772.95
1026.69,3765.05
1027.76,3763.95
1028.83,3762.45
1029.89,3763.75
1030.96,3761.8
1032.02,3760.2
1033.09,3760.1
1034.15,3760.35
1035.22,3760.5
1036.28,3758.55
1037.35,3756.75
1038.41,3753.2
1039.48,3752.0
1040.54,3748.9
1041.6,3749.95
1042.67,3749.05
1043.73,3746.9
1044.79,3747.2
1045.86,3745.55
1046.92,3746.2
1047.98,3744.5
1049.05,3745.65
1050.11,3743.5
1051.17,3744.1
1052.23,3743.85
1053.29,3744.25
1054.36,3742.2
1055.42,3742.7
1056.48,3740.9
1057.54,3739.35
1058.6,3741.15
1059.66,3741.15
1060.72,3740.95
1061.78,3739.1
1062.84,3740.45
1063.9,3738.45
1064.96,3739.45
1066.02,3737.95
1067.08,3737.55
1067.88,3737.3