File: spectra/VLFR_01-LDPE_bio_Raman_a57e93d4.csv
nm,Intensity
526.547,832.05
527.095,830.8
527.642,833.2
528.189,832.65
528.736,832.15
529.283,832.05
529.829,832.3
530.376,832.15
530.922,833.4
531.468,832.65
532.014,835.7
532.56,832.65
533.106,832.85
533.651,833.35
534.196,907.5
534.742,891.9
535.287,881.75
535.832,872.8
536.376,868.7
536.921,866.3
537.465,863.55
538.01,863.75
538.554,862.0
539.098,859.95
539.642,858.15
540.186,856.0
540.729,855.75
541.273,853.6
541.816,853.6
542.36,854.75
542.903,854.9
543.446,853.55
543.988,853.6
544.531,852.55
545.074,852.05
545.616,851.75
546.158,852.2
546.701,851.1
547.243,851.45
547.785,850.25
548.326,851.0
548.868,850.65
549.41,850.55
549.951,849.25
550.492,849.0
551.034,850.85
551.575,849.15
552.116,850.55
552.656,850.7
553.197,851.05
553.738,853.1
554.278,852.2
554.819,855.7
555.359,855.3
555.899,858.2
556.439,858.1
556.979,860.0
557.519,861.85
558.058,865.95
558.598,864.85
559.137,862.45
559.677,861.6
560.216,860.8
560.755,860.75
561.294,861.15
561.833,862.5
562.371,866.55
562.91,869.75
563.449,876.1
563.987,938.15
564.525,895.45
565.064,889.4
565.602,882.45
566.14,963.05
566.678,890.4
567.216,880.65
567.753,881.2
568.291,881.85
568.828,884.15
569.366,887.15
569.903,889.2
570.44,895.7
570.977,901.95
571.514,1019.4
572.051,932.75
572.588,916.3
573.125,914.75
573.661,920.25
574.198,935.0
574.734,934.6
575.271,949.3
575.807,995.55
576.343,1082.65
576.879,1054.0
577.415,1035.5
577.951,1024.0
578.486,1040.95
579.022,1058.7
579.557,1077.2
580.093,1098.2
580.628,1120.75
581.164,1142.0
581.699,1154.55
582.234,1170.65
582.769,1192.1
583.304,1203.8
583.838,1219.8
584.373,1226.35
584.908,1245.85
585.442,1253.1
585.977,1267.95
586.511,1277.4
587.045,1301.05
587.58,1319.8
588.114,1327.2
588.648,1342.8
589.182,1359.35
589.715,1372.65
590.249,1389.2
590.783,1400.2
591.316,1418.55
591.85,1430.35
592.383,1422.05
592.917,1429.3
593.45,1431.65
593.983,1432.1
594.516,1434.65
595.049,1444.65
595.582,1448.85
596.115,1451.15
596.648,1472.45
597.18,1472.7
597.713,1490.95
598.245,1508.2
598.778,1529.0
599.31,1530.3
599.842,1536.25
600.375,1529.2
600.907,1542.65
601.439,1530.15
601.971,1519.95
602.503,1511.25
603.034,1500.05
603.566,1483.1
604.098,1454.6
604.629,1426.4
605.161,1401.8
605.692,1371.6
606.224,1348.55
606.755,1325.4
607.286,1307.5
607.817,1288.85
608.348,1275.9
608.879,1259.3
609.41,1245.3
609.941,1235.05
610.472,1217.95
611.002,1217.55
611.533,1201.1
612.063,1195.3
612.594,1192.4
613.124,1185.95
613.655,1175.25
614.185,1171.2
614.715,1162.4
615.245,1153.9
615.775,1147.1
616.305,1135.45
616.835,1132.85
617.365,1131.85
617.895,1126.05
618.425,1119.0
618.954,1118.35
619.484,1115.9
620.013,1112.7
620.543,1110.1
621.072,1107.9
621.602,1113.6
622.131,1135.75
622.66,1130.1
623.189,1112.1
623.718,1106.6
624.247,1106.3
624.776,1106.0
625.305,1107.45
625.834,1118.5
626.363,1141.15
626.891,1345.5
627.42,1676.1
627.949,1461.7
628.477,1689.3
629.006,1540.4
629.534,1456.0
630.062,1374.05
630.591,1347.15
631.119,1237.55
631.647,1183.0
632.175,1160.9
632.703,1152.15
633.231,1151.8
633.759,1147.5
634.287,1150.65
634.815,1155.05
635.343,1156.55
635.871,1152.8
636.398,1156.65
636.926,1161.6
637.454,1158.05
637.981,1162.6
638.509,1160.35
639.036,1170.65
639.564,1170.3
640.091,1175.05
640.618,1178.65
641.146,1186.0
641.673,1189.45
642.2,1193.05
642.727,1190.15
643.254,1194.45
643.781,1195.3
644.308,1191.5
644.835,1192.9
645.362,1196.3
645.889,1192.55
646.416,1189.95
646.942,1196.4
647.469,1196.3
647.996,1190.9
648.522,1189.6
649.049,1188.95
649.576,1184.5
650.102,1182.15
650.629,1181.2
651.155,1180.4
651.682,1181.75
652.208,1183.45
652.734,1185.55
653.261,1185.5
653.787,1184.75
654.313,1185.0
654.839,1182.6
655.365,1175.15
655.892,1171.65
656.418,1171.05
656.944,1164.5
657.47,1152.05
657.996,1143.45
658.522,1142.4
659.048,1129.9
659.574,1122.9
660.099,1113.6
660.625,1104.05
661.151,1094.7
661.677,1082.2
662.203,1066.55
662.728,1065.85
663.123,1054.9