File: spectra/VLFR_06-PET_bio_Raman_28d56d51.csv
nm,Intensity
526.508,830.3
527.055,830.5
527.602,828.9
528.149,829.0
528.695,830.1
529.241,830.6
529.787,829.9
530.334,830.4
530.879,831.1
531.425,829.3
531.971,832.8
532.516,830.8
533.062,830.9
533.607,838.4
534.152,2202.9
534.697,1848.4
535.242,1498.2
535.786,1266.7
536.331,1129.6
536.876,1079.6
537.42,1050.1
537.964,1044.7
538.508,1056.4
539.052,1052.8
539.596,1071.8
540.14,1078.3
540.683,1042.8
541.227,1028.5
541.77,1023.1
542.313,1025.2
542.856,1030.1
543.399,1026.5
543.942,1044.9
544.485,1040.3
545.027,1040.6
545.57,1042.3
546.112,1046.4
546.654,1050.7
547.196,1048.5
547.738,1060.6
548.28,1059.9
548.822,1065.1
549.363,1060.9
549.905,1070.5
550.446,1085.7
550.988,1101.2
551.529,1080.3
552.07,1084.9
552.611,1091.9
553.152,1118.8
553.692,1098.9
554.233,1105.8
554.773,1112.1
555.314,1125.4
555.854,1182.7
556.394,1183.7
556.934,1194.8
557.474,1342.4
558.014,1235.5
558.553,1220.8
559.093,1184.9
559.632,1153.7
560.172,1149.5
560.711,1165.5
561.25,1164.5
561.789,1181.0
562.328,1199.5
562.867,1209.7
563.406,1219.6
563.944,1214.3
564.483,1223.7
565.021,1271.6
565.559,1344.6
566.098,1355.2
566.636,1263.3
567.174,1238.4
567.711,1329.8
568.249,1258.6
568.787,1250.1
569.324,1268.7
569.862,1310.6
570.399,1358.6
570.936,1494.9
571.474,1619.1
572.011,1450.9
572.548,1349.4
573.084,1322.6
573.621,1324.6
574.158,1366.6
574.694,1347.5
575.231,1385.7
575.767,1359.6
576.303,1405.8
576.84,1415.0
577.376,1387.9
577.912,1379.7
578.447,1392.8
578.983,1387.1
579.519,1396.4
580.054,1402.3
580.59,1409.1
581.125,1433.9
581.661,1517.8
582.196,2762.8
582.731,1512.1
583.266,1460.5
583.801,1457.5
584.336,1467.5
584.87,1482.8
585.405,1582.5
585.94,2147.1
586.474,1898.5
587.008,1552.3
587.543,1507.8
588.077,1502.2
588.611,1499.8
589.145,1500.9
589.679,1494.3
590.213,1492.7
590.747,1508.1
591.28,1513.8
591.814,1509.7
592.347,1515.1
592.881,1512.8
593.414,1520.3
593.947,1526.8
594.48,1520.2
595.014,1529.2
595.547,1537.4
596.079,1539.3
596.612,1542.4
597.145,1551.3
597.678,1555.8
598.21,1561.0
598.743,1568.0
599.275,1566.3
599.807,1563.1
600.34,1563.9
600.872,1573.0
601.404,1560.9
601.936,1557.5
602.468,1572.1
603.0,1576.9
603.532,1578.7
604.063,1579.6
604.595,1579.4
605.126,1568.3
605.658,1554.3
606.189,1559.5
606.721,1560.5
607.252,1574.1
607.783,1579.2
608.314,1578.5
608.845,1591.0
609.376,1580.8
609.907,1583.5
610.438,1582.0
610.968,1577.6
611.499,1584.3
612.03,1589.0
612.56,1588.2
613.091,1611.5
613.621,1620.4
614.151,1621.1
614.681,1625.3
615.212,1621.2
615.742,1619.8
616.272,1626.6
616.802,1629.3
617.332,1636.5
617.861,1640.2
618.391,1653.4
618.921,1655.8
619.45,1646.7
619.98,1648.9
620.509,1642.1
621.039,1648.5
621.568,1651.7
622.097,1655.2
622.627,1671.9
623.156,1672.1
623.685,1675.5
624.214,1695.1
624.743,1698.4
625.272,1708.6
625.801,1707.4
626.33,1708.6
626.858,1705.6
627.387,1725.2
627.916,1722.7
628.444,1745.9
628.973,1779.1
629.501,1788.5
630.029,1776.7
630.558,1785.8
631.086,1849.8
631.614,1979.2
632.142,1966.1
632.67,1887.3
633.198,1885.9
633.726,1861.9
634.254,1852.8
634.782,1843.6
635.31,1836.7
635.838,1918.0
636.365,2039.8
636.893,2048.6
637.421,1925.4
637.948,1895.2
638.476,1887.3
639.003,1896.6
639.531,1900.8
640.058,1903.7
640.585,1907.6
641.113,1926.5
641.64,1936.8
642.167,1943.4
642.694,1935.4
643.221,1944.3
643.748,1913.1
644.275,1925.1
644.802,1932.5
645.329,1947.5
645.856,1942.9
646.382,1954.2
646.909,1957.5
647.436,1958.9
647.962,1976.6
648.489,1969.2
649.016,1960.1
649.542,1971.5
650.069,1959.4
650.595,1972.2
651.121,1963.8
651.648,1967.0
652.174,1979.5
652.7,1979.6
653.227,1982.9
653.753,1987.3
654.279,1976.0
654.805,1968.3
655.331,1968.3
655.857,1982.4
656.383,1977.8
656.909,1981.5
657.435,1982.9
657.961,1979.6
658.487,1996.1
659.013,1979.4
659.538,1986.9
660.064,1986.0
660.59,1993.0
661.116,1969.6
661.641,1957.7
662.167,1956.4
662.692,1956.7
663.087,1947.8