File: spectra/VLFR_07-PET_bio_Raman_2e038444.csv
nm,Intensity
791.377,4207.2
792.477,4196.9
793.576,4195.5
794.676,4199.6
795.775,4210.1
796.874,4190.9
797.973,4184.1
799.072,4182.7
800.171,4207.9
801.27,4168.6
802.368,4141.8
803.467,4141.6
804.565,4146.7
805.664,4146.9
806.762,4139.0
807.86,4135.3
808.958,4125.9
810.056,4111.1
811.153,4114.8
812.251,4132.5
813.349,4161.7
814.446,4119.8
815.543,4090.8
816.64,4079.0
817.737,4072.7
818.834,4068.7
819.931,4067.8
821.028,4063.2
822.125,4059.0
823.221,4099.2
824.317,4082.8
825.414,4056.5
826.51,4041.3
827.606,4040.4
828.702,4023.2
829.797,4012.4
830.893,4005.7
831.988,4004.4
833.084,3995.1
834.179,3993.8
835.274,3988.2
836.369,3982.1
837.464,3979.6
838.559,3980.3
839.654,3972.7
840.748,3966.4
841.843,3967.9
842.937,3964.5
844.031,3956.7
845.125,3957.3
846.219,3955.4
847.313,3950.5
848.407,3949.7
849.5,3953.5
850.593,3960.8
851.687,4288.1
852.78,4128.0
853.873,3952.4
854.966,3930.3
856.059,3937.0
857.151,3937.3
858.244,3956.2
859.336,3950.4
860.428,3927.8
861.52,3928.6
862.612,3926.2
863.704,3923.6
864.796,3913.3
865.888,3906.4
866.979,3902.7
868.07,3905.7
869.162,3901.4
870.253,3895.7
871.344,3894.2
872.434,3894.2
873.525,3900.5
874.615,3893.1
875.706,3890.4
876.796,3886.0
877.886,3890.4
878.976,3878.9
880.066,3883.3
881.156,3880.3
882.245,3874.7
883.335,3868.9
884.424,3872.9
885.513,3870.7
886.602,3867.9
887.691,3867.7
888.78,3864.0
889.868,3860.3
890.957,3863.6
892.045,3860.1
893.133,3855.1
894.221,3846.5
895.309,3850.0
896.397,3851.4
897.484,3843.6
898.571,3846.9
899.659,3849.8
900.746,3842.2
901.833,3844.0
902.92,3840.2
904.006,3835.4
905.093,3832.8
906.179,3829.7
907.266,3832.0
908.352,3831.5
909.438,3827.5
910.523,3825.0
911.609,3820.9
912.695,3817.8
913.78,3815.0
914.865,3817.3
915.95,3818.0
917.035,3811.1
918.12,3807.8
919.204,3805.8
920.289,3807.1
921.373,3803.7
922.457,3803.5
923.541,3800.6
924.625,3800.5
925.709,3801.1
926.792,3796.3
927.876,3798.3
928.959,3792.5
930.042,3796.0
931.125,3791.8
932.208,3792.0
933.29,3787.0
934.373,3793.3
935.455,3789.6
936.537,3787.1
937.619,3784.8
938.701,3784.2
939.782,3785.3
940.864,3784.0
941.945,3785.0
943.026,3781.7
944.107,3781.6
945.188,3779.5
946.269,3780.2
947.349,3776.7
948.43,3775.1
949.51,3774.9
950.59,3778.7
951.67,3775.4
952.75,3776.0
953.829,3771.2
954.909,3772.3
955.988,3770.4
957.067,3771.2
958.146,3769.8
959.224,3768.9
960.303,3769.1
961.381,3769.1
962.459,3766.8
963.537,3768.2
964.615,3766.8
965.693,3769.1
966.771,3765.4
967.848,3766.4
968.925,3765.6
970.002,3766.1
971.079,3763.4
972.156,3763.2
973.232,3764.1
974.309,3764.5
975.385,3764.3
976.461,3762.9
977.537,3760.9
978.612,3763.1
979.688,3766.0
980.763,3759.8
981.838,3759.4
982.913,3762.8
983.988,3761.3
985.063,3760.9
986.137,3760.2
987.211,3758.3
988.285,3760.2
989.359,3759.5
990.433,3759.1
991.506,3761.1
992.58,3759.3
993.653,3759.6
994.726,3758.5
995.799,3757.3
996.872,3759.1
997.944,3758.1
999.016,3759.3
1000.09,3758.1
1001.16,3757.5
1002.23,3757.0
1003.3,3758.2
1004.38,3756.2
1005.45,3758.0
1006.52,3756.6
1007.59,3756.7
1008.66,3757.4
1009.73,3758.2
1010.8,3756.5
1011.87,3756.0
1012.94,3755.7
1014.01,3758.4
1015.08,3756.2
1016.15,3755.6
1017.22,3755.7
1018.29,3756.6
1019.36,3756.7
1020.42,3757.2
1021.49,3756.7
1022.56,3755.8
1023.63,3755.7
1024.7,3755.5
1025.76,3754.4
1026.83,3755.1
1027.9,3754.2
1028.97,3754.7
1030.03,3754.3
1031.1,3753.0
1032.17,3754.6
1033.23,3754.1
1034.3,3754.7
1035.36,3755.1
1036.43,3754.9
1037.5,3755.4
1038.56,3754.1
1039.63,3754.3
1040.69,3753.4
1041.76,3755.6
1042.82,3753.2
1043.89,3752.5
1044.95,3754.7
1046.01,3752.2
1047.08,3755.5
1048.14,3754.9
1049.2,3753.2
1050.27,3754.4
1051.33,3753.6
1052.39,3756.0
1053.46,3754.5
1054.52,3753.3
1055.58,3754.3
1056.64,3752.5
1057.7,3752.9
1058.77,3754.0
1059.83,3755.9
1060.89,3753.4
1061.95,3754.2
1063.01,3753.6
1064.07,3753.8
1065.13,3753.6
1066.19,3754.1
1067.25,3754.1
1068.05,3755.0