File: spectra/VLFR_07-PET_nobio_Raman_541dce09.csv
nm,Intensity
791.75,14953.6
792.846,13675.9
793.942,12992.1
795.037,12981.3
796.133,12483.0
797.228,12627.6
798.324,12777.0
799.419,12679.6
800.514,12705.7
801.61,12834.3
802.705,12441.5
803.8,12258.8
804.894,12272.7
805.989,12005.2
807.084,11911.0
808.178,11905.4
809.273,11638.0
810.367,11549.7
811.461,11447.1
812.556,11372.8
813.65,11069.1
814.744,11008.3
815.837,11138.7
816.931,10807.1
818.025,10836.6
819.118,10671.3
820.212,10573.7
821.305,10458.8
822.398,10257.5
823.491,10250.7
824.585,10114.0
825.677,10313.6
826.77,9852.2
827.863,9883.4
828.956,9700.6
830.048,9736.1
831.14,9596.6
832.233,9459.3
833.325,9434.9
834.417,9204.6
835.509,9170.1
836.601,9375.6
837.692,9304.3
838.784,9285.7
839.876,9140.4
840.967,9566.9
842.058,9176.0
843.149,8997.0
844.24,8866.9
845.331,8538.8
846.422,8335.9
847.513,8457.3
848.604,8276.7
849.694,8204.2
850.784,8293.4
851.875,8226.6
852.965,8169.4
854.055,8062.1
855.145,8096.5
856.235,7970.3
857.324,7901.8
858.414,8208.3
859.503,8208.4
860.593,8017.5
861.682,7805.8
862.771,7590.3
863.86,7758.5
864.949,7726.4
866.038,7489.6
867.126,7503.8
868.215,7519.9
869.303,7486.1
870.391,7396.4
871.479,7739.5
872.567,7845.3
873.655,7793.8
874.743,7416.9
875.831,7256.0
876.918,7213.3
878.006,7094.4
879.093,7131.8
880.18,6996.5
881.267,7057.1
882.354,7024.4
883.441,7020.4
884.527,6977.3
885.614,6968.6
886.7,6856.9
887.786,6710.3
888.872,6603.0
889.958,6644.3
891.044,6679.7
892.13,6630.0
893.216,6378.7
894.301,6467.8
895.386,6428.1
896.472,6490.7
897.557,7068.1
898.642,7072.3
899.726,6427.6
900.811,6077.6
901.896,6183.6
902.98,5991.9
904.064,6060.0
905.148,5950.2
906.232,6347.9
907.316,6679.2
908.4,6327.4
909.484,5900.4
910.567,5741.6
911.65,5646.3
912.734,5581.3
913.817,5541.0
914.9,5480.6
915.982,5482.1
917.065,5399.9
918.147,5376.6
919.23,5386.4
920.312,5278.9
921.394,5244.7
922.476,5194.3
923.558,5153.6
924.639,5082.6
925.721,5071.1
926.802,5011.2
927.884,4979.1
928.965,4930.4
930.046,4918.1
931.126,4856.8
932.207,4817.6
933.288,4820.2
934.368,4775.3
935.448,4728.6
936.528,4682.6
937.608,4661.1
938.688,4654.9
939.767,4597.2
940.847,4601.6
941.926,4530.0
943.005,4516.7
944.084,4500.3
945.163,4460.7
946.242,4462.6
947.321,4413.5
948.399,4423.1
949.477,4391.4
950.556,4368.4
951.634,4348.1
952.711,4317.5
953.789,4297.3
954.867,4286.3
955.944,4260.1
957.021,4245.7
958.098,4235.5
959.175,4218.2
960.252,4202.4
961.328,4186.7
962.405,4176.7
963.481,4149.2
964.557,4137.2
965.633,4131.4
966.709,4106.8
967.785,4116.2
968.86,4075.6
969.936,4070.0
971.011,4059.1
972.086,4054.3
973.161,4046.7
974.235,4028.3
975.31,4009.6
976.384,3999.4
977.459,3999.3
978.533,3983.9
979.607,3971.2
980.68,3975.2
981.754,3960.1
982.827,3952.4
983.901,3945.7
984.974,3932.8
986.047,3932.9
987.119,3930.0
988.192,3911.5
989.264,3917.6
990.337,3894.9
991.409,3893.5
992.481,3882.3
993.553,3880.8
994.624,3876.4
995.696,3863.4
996.767,3859.7
997.838,3855.5
998.909,3852.5
999.98,3849.4
1001.05,3837.9
1002.12,3832.8
1003.19,3832.4
1004.26,3825.9
1005.33,3817.8
1006.4,3810.5
1007.47,3811.1
1008.54,3805.6
1009.61,3800.0
1010.68,3800.8
1011.75,3793.6
1012.82,3793.0
1013.88,3790.9
1014.95,3790.1
1016.02,3782.3
1017.09,3780.3
1018.16,3773.9
1019.22,3776.4
1020.29,3778.3
1021.36,3786.4
1022.43,3781.7
1023.49,3780.4
1024.56,3767.3
1025.63,3762.2
1026.69,3757.3
1027.76,3751.4
1028.83,3748.2
1029.89,3745.0
1030.96,3746.7
1032.02,3744.1
1033.09,3746.7
1034.15,3752.4
1035.22,3748.0
1036.28,3746.0
1037.35,3738.1
1038.41,3735.1
1039.48,3728.5
1040.54,3729.9
1041.6,3726.9
1042.67,3726.5
1043.73,3727.3
1044.79,3722.1
1045.86,3724.2
1046.92,3724.4
1047.98,3722.2
1049.05,3723.2
1050.11,3720.5
1051.17,3721.5
1052.23,3717.3
1053.29,3720.2
1054.36,3719.1
1055.42,3716.4
1056.48,3714.9
1057.54,3717.0
1058.6,3716.5
1059.66,3716.6
1060.72,3716.8
1061.78,3715.5
1062.84,3714.8
1063.9,3715.0
1064.96,3716.1
1066.02,3714.5
1067.08,3715.3
1067.88,3714.0