File: spectra/VLFR_08-PLA_bio_Raman_a8463a3d.csv
nm,Intensity
526.547,833.05
527.095,832.65
527.642,831.3
528.189,831.8
528.736,832.8
529.283,833.0
529.829,832.05
530.376,832.7
530.922,832.45
531.468,831.45
532.014,834.8
532.56,832.75
533.106,831.85
533.651,833.0
534.196,917.75
534.742,904.45
535.287,893.5
535.832,889.65
536.376,886.9
536.921,886.1
537.465,884.15
538.01,884.35
538.554,879.0
539.098,880.6
539.642,879.5
540.186,877.65
540.729,883.05
541.273,884.75
541.816,885.0
542.36,880.15
542.903,883.85
543.446,891.35
543.988,894.35
544.531,888.0
545.074,884.95
545.616,882.15
546.158,883.9
546.701,886.85
547.243,884.1
547.785,884.05
548.326,884.6
548.868,888.5
549.41,888.4
549.951,887.85
550.492,890.85
551.034,891.35
551.575,889.65
552.116,893.4
552.656,894.4
553.197,890.65
553.738,893.55
554.278,896.8
554.819,890.5
555.359,893.85
555.899,891.4
556.439,892.6
556.979,893.0
557.519,898.5
558.058,933.9
558.598,901.1
559.137,897.25
559.677,896.95
560.216,896.45
560.755,895.55
561.294,896.1
561.833,895.45
562.371,940.7
562.91,902.55
563.449,912.2
563.987,907.3
564.525,901.85
565.064,908.95
565.602,908.05
566.14,918.7
566.678,911.15
567.216,899.7
567.753,905.15
568.291,903.45
568.828,903.65
569.366,907.6
569.903,904.8
570.44,903.25
570.977,905.55
571.514,909.55
572.051,910.1
572.588,908.85
573.125,909.95
573.661,911.55
574.198,910.85
574.734,913.55
575.271,904.45
575.807,906.6
576.343,913.15
576.879,929.0
577.415,913.05
577.951,910.15
578.486,909.85
579.022,907.1
579.557,908.85
580.093,907.15
580.628,909.6
581.164,909.05
581.699,909.75
582.234,909.15
582.769,911.75
583.304,909.75
583.838,908.85
584.373,911.3
584.908,909.3
585.442,912.4
585.977,910.55
586.511,917.1
587.045,926.6
587.58,931.95
588.114,919.85
588.648,912.6
589.182,910.55
589.715,909.8
590.249,910.5
590.783,909.5
591.316,911.1
591.85,909.3
592.383,912.6
592.917,911.3
593.45,909.85
593.983,910.85
594.516,911.45
595.049,911.7
595.582,912.0
596.115,910.35
596.648,912.55
597.18,910.8
597.713,913.0
598.245,913.55
598.778,912.95
599.31,911.4
599.842,911.05
600.375,914.45
600.907,914.05
601.439,911.6
601.971,912.65
602.503,911.55
603.034,912.45
603.566,912.9
604.098,910.05
604.629,911.05
605.161,914.2
605.692,908.35
606.224,906.0
606.755,907.5
607.286,906.35
607.817,907.6
608.348,910.95
608.879,909.3
609.41,909.9
609.941,907.4
610.472,909.75
611.002,909.35
611.533,907.75
612.063,908.1
612.594,909.8
613.124,910.15
613.655,908.4
614.185,909.15
614.715,908.85
615.245,907.85
615.775,906.45
616.305,904.7
616.835,907.35
617.365,910.25
617.895,908.45
618.425,906.9
618.954,905.6
619.484,906.8
620.013,904.1
620.543,902.65
621.072,906.05
621.602,905.55
622.131,907.1
622.66,909.35
623.189,907.6
623.718,907.8
624.247,906.75
624.776,904.1
625.305,903.2
625.834,905.45
626.363,904.75
626.891,904.2
627.42,905.55
627.949,904.4
628.477,923.3
629.006,918.55
629.534,918.05
630.062,915.95
630.591,935.05
631.119,1025.75
631.647,958.65
632.175,933.9
632.703,928.4
633.231,947.2
633.759,937.25
634.287,915.8
634.815,901.95
635.343,897.7
635.871,896.75
636.398,896.45
636.926,895.35
637.454,895.2
637.981,897.25
638.509,894.85
639.036,895.3
639.564,892.3
640.091,894.65
640.618,896.55
641.146,893.9
641.673,894.15
642.2,893.35
642.727,895.0
643.254,890.9
643.781,890.45
644.308,891.05
644.835,889.15
645.362,890.3
645.889,890.65
646.416,890.7
646.942,891.9
647.469,889.4
647.996,886.6
648.522,888.6
649.049,889.6
649.576,891.0
650.102,889.3
650.629,889.25
651.155,887.4
651.682,885.9
652.208,887.25
652.734,887.05
653.261,885.45
653.787,887.05
654.313,883.2
654.839,887.65
655.365,883.05
655.892,882.2
656.418,882.65
656.944,884.9
657.47,884.75
657.996,884.55
658.522,884.35
659.048,881.95
659.574,882.75
660.099,885.35
660.625,881.6
661.151,879.9
661.677,880.8
662.203,880.65
662.728,878.9
663.123,878.6