File: spectra/VLFR_08-PLA_bio_Raman_2df54897.csv
nm,Intensity
526.508,829.2
527.055,828.2
527.602,829.0
528.149,828.9
528.695,829.2
529.241,829.7
529.787,828.9
530.334,828.7
530.879,827.8
531.425,828.5
531.971,832.4
532.516,831.2
533.062,829.6
533.607,829.1
534.152,913.6
534.697,918.7
535.242,912.5
535.786,916.5
536.331,913.1
536.876,913.1
537.42,908.5
537.964,911.9
538.508,910.5
539.052,914.7
539.596,915.7
540.14,914.4
540.683,913.9
541.227,917.5
541.77,917.2
542.313,920.9
542.856,921.2
543.399,923.7
543.942,924.5
544.485,929.8
545.027,927.8
545.57,929.8
546.112,934.7
546.654,933.0
547.196,932.4
547.738,928.7
548.28,933.6
548.822,934.8
549.363,940.9
549.905,942.8
550.446,942.6
550.988,943.9
551.529,943.1
552.07,943.7
552.611,943.1
553.152,945.5
553.692,943.9
554.233,944.8
554.773,948.5
555.314,943.2
555.854,942.2
556.394,950.6
556.934,950.9
557.474,947.6
558.014,950.2
558.553,951.6
559.093,950.5
559.632,955.4
560.172,961.3
560.711,953.2
561.25,955.3
561.789,956.2
562.328,970.3
562.867,984.5
563.406,963.0
563.944,968.7
564.483,968.0
565.021,971.0
565.559,971.7
566.098,975.8
566.636,971.0
567.174,972.3
567.711,974.7
568.249,974.2
568.787,982.1
569.324,981.5
569.862,987.1
570.399,988.6
570.936,989.1
571.474,986.9
572.011,989.9
572.548,997.9
573.084,999.1
573.621,1003.0
574.158,997.4
574.694,1003.0
575.231,1002.7
575.767,1000.6
576.303,1002.7
576.84,1001.3
577.376,1003.2
577.912,999.5
578.447,1005.7
578.983,1006.7
579.519,1004.8
580.054,1005.4
580.59,1006.8
581.125,1013.6
581.661,1016.7
582.196,1018.3
582.731,1014.8
583.266,1003.4
583.801,1010.4
584.336,1007.3
584.87,1007.8
585.405,1009.5
585.94,1010.0
586.474,1007.7
587.008,1012.9
587.543,1015.1
588.077,1008.4
588.611,1013.5
589.145,1007.1
589.679,1010.7
590.213,1012.8
590.747,1019.7
591.28,1015.0
591.814,1016.6
592.347,1014.4
592.881,1016.0
593.414,1018.6
593.947,1016.2
594.48,1017.8
595.014,1019.7
595.547,1018.8
596.079,1022.7
596.612,1019.2
597.145,1026.2
597.678,1022.6
598.21,1025.1
598.743,1021.0
599.275,1023.8
599.807,1023.6
600.34,1025.0
600.872,1024.3
601.404,1021.2
601.936,1017.7
602.468,1022.4
603.0,1025.5
603.532,1023.5
604.063,1024.0
604.595,1020.1
605.126,1021.2
605.658,1019.6
606.189,1019.6
606.721,1023.0
607.252,1019.2
607.783,1027.2
608.314,1028.1
608.845,1028.8
609.376,1024.6
609.907,1023.2
610.438,1031.1
610.968,1026.9
611.499,1026.6
612.03,1028.4
612.56,1032.5
613.091,1036.7
613.621,1031.1
614.151,1035.8
614.681,1037.1
615.212,1041.4
615.742,1037.2
616.272,1038.1
616.802,1034.1
617.332,1041.5
617.861,1041.2
618.391,1037.1
618.921,1036.9
619.45,1037.2
619.98,1035.2
620.509,1033.6
621.039,1038.0
621.568,1040.3
622.097,1044.0
622.627,1039.1
623.156,1042.8
623.685,1041.3
624.214,1040.2
624.743,1042.5
625.272,1036.6
625.801,1040.2
626.33,1032.0
626.858,1038.2
627.387,1040.1
627.916,1039.0
628.444,1037.0
628.973,1038.7
629.501,1043.5
630.029,1047.5
630.558,1047.7
631.086,1048.3
631.614,1040.9
632.142,1046.0
632.67,1044.2
633.198,1043.3
633.726,1040.3
634.254,1034.5
634.782,1036.2
635.31,1036.8
635.838,1036.0
636.365,1035.1
636.893,1037.3
637.421,1036.1
637.948,1034.9
638.476,1033.9
639.003,1032.2
639.531,1034.6
640.058,1037.2
640.585,1033.6
641.113,1035.5
641.64,1029.4
642.167,1036.6
642.694,1030.9
643.221,1032.1
643.748,1028.5
644.275,1024.5
644.802,1028.3
645.329,1022.6
645.856,1032.9
646.382,1024.4
646.909,1022.6
647.436,1025.1
647.962,1023.7
648.489,1023.6
649.016,1015.9
649.542,1016.2
650.069,1016.9
650.595,1015.8
651.121,1018.2
651.648,1011.2
652.174,1016.7
652.7,1015.2
653.227,1012.6
653.753,1010.6
654.279,1019.9
654.805,1014.1
655.331,1013.7
655.857,1012.3
656.383,1018.1
656.909,1012.2
657.435,1012.8
657.961,1014.3
658.487,1008.4
659.013,1014.3
659.538,1013.7
660.064,1012.7
660.59,1007.6
661.116,1011.5
661.641,1003.0
662.167,1008.6
662.692,1006.3
663.087,1004.9