File: spectra/VLFR_07-PET_nobio_Raman_32c359bc.csv
nm,Intensity
791.377,11633.2
792.477,10603.0
793.576,9940.82
794.676,9536.52
795.775,9391.64
796.874,9332.3
797.973,9366.64
799.072,9344.38
800.171,9301.84
801.27,9311.24
802.368,9295.5
803.467,8968.22
804.565,8890.04
805.664,8845.4
806.762,8816.86
807.86,8615.62
808.958,8678.46
810.056,8511.28
811.153,8447.44
812.251,8386.1
813.349,8284.96
814.446,8244.52
815.543,8199.2
816.64,8079.04
817.737,8015.72
818.834,7961.32
819.931,7961.32
821.028,7854.0
822.125,7796.74
823.221,7749.28
824.317,7605.84
825.414,7848.68
826.51,7752.82
827.606,7446.22
828.702,7436.82
829.797,7309.58
830.893,7469.7
831.988,7239.64
833.084,7197.06
834.179,7181.16
835.274,7111.0
836.369,7159.48
837.464,7202.7
838.559,7172.8
839.654,7154.56
840.748,7320.7
841.843,7313.54
842.937,7017.94
844.031,6954.46
845.125,6756.7
846.219,6626.84
847.313,6599.46
848.407,6593.4
849.5,6538.52
850.593,6505.24
851.687,6497.0
852.78,6477.42
853.873,6405.94
854.966,6330.76
856.059,6300.12
857.151,6249.06
858.244,6397.56
859.336,6468.86
860.428,6467.92
861.52,6206.24
862.612,6139.7
863.704,6145.16
864.796,6129.1
865.888,6054.6
866.979,5925.78
868.07,5921.24
869.162,5993.16
870.253,5986.6
871.344,6102.06
872.434,6264.94
873.525,6247.64
874.615,6064.08
875.706,5869.06
876.796,5792.72
877.886,5766.42
878.976,5707.38
880.066,5702.84
881.156,5687.04
882.245,5646.26
883.335,5632.48
884.424,5569.68
885.513,5595.86
886.602,5547.9
887.691,5470.34
888.78,5420.62
889.868,5422.92
890.957,5371.06
892.045,5400.52
893.133,5315.7
894.221,5278.86
895.309,5240.58
896.397,5261.96
897.484,5486.78
898.571,5948.46
899.659,5561.18
900.746,5161.84
901.833,5065.38
902.92,5050.66
904.006,5037.12
905.093,5002.16
906.179,5171.92
907.266,5416.12
908.352,5463.92
909.438,5197.68
910.523,4940.46
911.609,4837.24
912.695,4794.46
913.78,4767.82
914.865,4751.04
915.95,4705.92
917.035,4695.5
918.12,4664.18
919.204,4657.62
920.289,4596.68
921.373,4620.78
922.457,4561.32
923.541,4550.88
924.625,4528.5
925.709,4515.56
926.792,4492.4
927.876,4453.98
928.959,4420.34
930.042,4408.04
931.125,4366.32
932.208,4349.08
933.29,4320.46
934.373,4332.16
935.455,4298.48
936.537,4278.66
937.619,4252.4
938.701,4255.36
939.782,4226.6
940.864,4224.3
941.945,4210.18
943.026,4183.46
944.107,4173.44
945.188,4160.64
946.269,4150.96
947.349,4130.36
948.43,4119.28
949.51,4120.88
950.59,4087.78
951.67,4086.7
952.75,4081.48
953.829,4062.5
954.909,4049.0
955.988,4040.86
957.067,4043.76
958.146,4025.6
959.224,4009.0
960.303,4007.98
961.381,3989.54
962.459,3998.66
963.537,3978.0
964.615,3978.22
965.693,3966.84
966.771,3960.92
967.848,3954.16
968.925,3950.24
970.002,3940.22
971.079,3935.48
972.156,3925.78
973.232,3924.6
974.309,3909.04
975.385,3909.44
976.461,3901.8
977.537,3896.26
978.612,3885.5
979.688,3888.72
980.763,3879.0
981.838,3878.44
982.913,3876.48
983.988,3867.54
985.063,3866.08
986.137,3862.88
987.211,3853.34
988.285,3851.2
989.359,3851.48
990.433,3841.44
991.506,3838.22
992.58,3834.84
993.653,3830.5
994.726,3828.76
995.799,3823.22
996.872,3821.2
997.944,3816.62
999.016,3819.32
1000.09,3807.48
1001.16,3805.98
1002.23,3801.08
1003.3,3799.62
1004.38,3800.48
1005.45,3794.4
1006.52,3790.68
1007.59,3791.36
1008.66,3789.66
1009.73,3786.22
1010.8,3780.56
1011.87,3783.2
1012.94,3778.44
1014.01,3780.02
1015.08,3779.04
1016.15,3777.42
1017.22,3775.58
1018.29,3770.06
1019.36,3770.32
1020.42,3770.2
1021.49,3778.64
1022.56,3778.04
1023.63,3776.5
1024.7,3771.56
1025.76,3767.16
1026.83,3762.28
1027.9,3758.34
1028.97,3757.04
1030.03,3753.42
1031.1,3752.3
1032.17,3752.54
1033.23,3752.72
1034.3,3756.16
1035.36,3759.44
1036.43,3756.76
1037.5,3750.58
1038.56,3746.88
1039.63,3745.28
1040.69,3744.66
1041.76,3742.74
1042.82,3742.18
1043.89,3741.96
1044.95,3740.6
1046.01,3739.3
1047.08,3739.58
1048.14,3738.06
1049.2,3737.74
1050.27,3737.78
1051.33,3737.08
1052.39,3737.54
1053.46,3737.1
1054.52,3737.36
1055.58,3736.88
1056.64,3735.84
1057.7,3737.06
1058.77,3734.42
1059.83,3735.28
1060.89,3735.18
1061.95,3735.06
1063.01,3735.46
1064.07,3735.34
1065.13,3734.42
1066.19,3733.88
1067.25,3733.56
1068.05,3733.32