File: spectra/VLFR_01-LDPE_nobio_Raman_1fb2f857.csv
cm-1,Intensity
-123.878,1855.05
-105.821,1854.65
-87.8007,1855.25
-69.8161,1855.2
-51.8675,1856.15
-33.9547,1857.55
-16.0776,1874.6
1.76388,2719.7
19.5698,1858.4
37.3403,1860.05
55.0755,2219.45
72.7754,3342.15
90.4402,3452.9
108.07,3530.55
125.665,3629.9
143.225,3608.8
160.75,3586.0
178.241,3672.3
195.697,3767.85
213.119,3776.85
230.506,3760.55
247.859,3851.15
265.178,3906.5
282.463,3953.7
299.713,3922.4
316.93,3963.75
334.113,3990.25
351.263,4058.65
368.379,4141.35
385.461,4142.8
402.51,4216.4
419.526,4234.05
436.508,4251.25
453.458,4178.2
470.374,4385.0
487.257,4388.0
504.107,4470.25
520.925,4310.4
537.71,4447.55
554.462,4531.55
571.182,4553.25
587.87,4526.7
604.525,4583.25
621.148,4536.15
637.739,4622.55
654.297,4692.65
670.824,4760.4
687.319,4800.0
703.782,4702.15
720.213,4833.2
736.613,4920.7
752.981,4910.3
769.317,4938.15
785.623,4946.8
801.897,4939.0
818.139,5076.75
834.351,5040.85
850.532,5092.0
866.681,5162.85
882.8,5227.0
898.888,5132.8
914.945,5255.9
930.972,5329.5
946.968,5248.1
962.934,5379.4
978.869,5435.1
994.774,5473.5
1010.65,5422.9
1026.49,5523.55
1042.31,5562.3
1058.09,5583.9
1073.85,5619.95
1089.57,5695.0
1105.27,5684.05
1120.93,5684.6
1136.57,5773.15
1152.18,5740.2
1167.75,5851.45
1183.3,5874.15
1198.82,5902.4
1214.31,5891.5
1229.77,5979.5
1245.2,6025.45
1260.6,6184.25
1275.97,6049.75
1291.32,6049.0
1306.63,6331.25
1321.92,6395.7
1337.18,6385.75
1352.41,6307.5
1367.61,6287.8
1382.78,6270.5
1397.93,6365.25
1413.05,6348.65
1428.14,6307.9
1443.2,6380.55
1458.23,6346.4
1473.23,6352.95
1488.21,6421.6
1503.16,6333.6
1518.08,6410.6
1532.97,6528.45
1547.84,6671.75
1562.68,6605.4
1577.49,6749.6
1592.27,6621.2
1607.03,6646.85
1621.76,6568.6
1636.46,6530.15
1651.14,6501.25
1665.78,6463.2
1680.41,6413.35
1695.0,6485.55
1709.57,6392.55
1724.11,6353.35
1738.62,6348.55
1753.11,6447.9
1767.57,6497.85
1782.01,6642.3
1796.41,6495.65
1810.8,6450.6
1825.15,6400.75
1839.48,6483.3
1853.79,6440.1
1868.06,6523.9
1882.31,6594.3
1896.54,6496.2
1910.74,6598.7
1924.91,6598.9
1939.06,6654.35
1953.19,6658.05
1967.28,6466.9
1981.35,6559.8
1995.4,6711.1
2009.42,6872.15
2023.42,6905.25
2037.39,6656.7
2051.33,6730.1
2065.25,6574.85
2079.15,6750.8
2093.01,6795.45
2106.86,6774.9
2120.68,6641.75
2134.47,6848.05
2148.24,6765.75
2161.99,6776.05
2175.71,6768.55
2189.41,6865.45
2203.08,6899.75
2216.73,6755.7
2230.35,6660.55
2243.95,6718.95
2257.52,6719.55
2271.07,6733.75
2284.6,6770.3
2298.1,6896.05
2311.58,6862.35
2325.03,6734.7
2338.46,6734.5
2351.87,6783.3
2365.25,6769.7
2378.61,6893.25
2391.94,6711.65
2405.26,6822.25
2418.54,6663.5
2431.81,6955.3
2445.05,6937.3
2458.27,6671.75
2471.46,6857.25
2484.63,6733.35
2497.78,6928.8
2510.9,6840.15
2524.0,6834.2
2537.08,6818.3
2550.14,6994.25
2563.17,6841.15
2576.18,6803.45
2589.17,6721.9
2602.13,6952.45
2615.07,6920.35
2627.99,6723.15
2640.89,7054.6
2653.76,6808.85
2666.61,6762.05
2679.44,6860.4
2692.25,6701.5
2705.03,6766.2
2717.79,6921.0
2730.53,6820.9
2743.25,6815.05
2755.94,6759.95
2768.61,6697.35
2781.27,6819.1
2793.89,6881.4
2806.5,6700.65
2819.09,6899.6
2831.65,6713.25
2844.19,6985.95
2856.71,7113.3
2869.21,6773.35
2881.69,6894.35
2894.14,6952.6
2906.58,6842.7
2918.99,6748.25
2931.38,6786.05
2943.75,6675.55
2956.1,6700.5
2968.42,6572.85
2980.73,6696.1
2993.01,6672.9
3005.28,6612.25
3017.52,6568.5
3029.74,6563.65
3041.94,6735.7
3054.12,6340.5
3066.28,6490.95
3078.42,6487.9
3090.54,6595.15
3102.63,6400.9
3114.71,6517.95
3126.77,6382.3
3138.8,6425.75
3150.82,6475.95
3162.81,6462.35
3174.78,6422.65
3186.74,6292.25
3198.67,6441.4
3210.58,6396.95
3222.47,6187.65
3234.35,6229.95
3246.2,6063.15
3258.03,6231.7
3269.84,6165.2
3281.64,6188.8
3293.41,5960.8
3305.16,6183.35
3316.89,5959.6
3328.61,5897.1
3340.3,5827.0
3351.97,5953.35
3363.63,5919.7
3375.26,5975.95
3386.88,5788.05
3398.47,5898.65
3410.05,5784.3
3421.6,5747.8
3433.14,5779.55
3444.66,5829.65
3456.15,5684.5
3467.63,5668.95
3479.09,5593.0
3490.53,5554.2
3501.96,5419.0
3513.36,5515.35
3524.74,5509.8
3536.11,5400.15
3547.45,5461.9
3558.78,5201.75
3570.09,5368.35
3581.37,5349.55
3592.64,5009.9
3603.9,5132.3
3615.13,5207.4
3626.34,5180.15
3637.54,5255.65
3648.72,5040.05
3659.87,4803.0
3665.45,5052.6