File: spectra/VLFR_01-LDPE_bio_Raman_86a5d224.csv
nm,Intensity
528.625,1844.8
529.13,1843.8
529.636,1844.8
530.141,1845.4
530.646,1846.5
531.152,1846.8
531.657,1887.5
532.162,3305.1
532.667,1846.1
533.172,1846.4
533.677,2035.5
534.182,2453.3
534.687,2401.3
535.192,2295.4
535.697,2223.4
536.201,2166.2
536.706,2141.5
537.211,2154.6
537.715,2147.2
538.22,2135.7
538.724,2108.9
539.229,2098.8
539.733,2081.7
540.238,2086.3
540.742,2075.9
541.246,2081.5
541.75,2083.9
542.254,2085.8
542.758,2071.5
543.262,2083.6
543.766,2082.2
544.27,2090.2
544.774,2079.5
545.278,2088.8
545.781,2093.0
546.285,2093.8
546.789,2091.0
547.292,2098.6
547.796,2099.4
548.299,2102.9
548.803,2100.0
549.306,2093.7
549.809,2090.9
550.312,2103.6
550.816,2107.8
551.319,2113.9
551.822,2107.4
552.325,2118.6
552.828,2133.7
553.33,2171.5
553.833,2178.8
554.336,2178.5
554.839,2193.1
555.341,2200.7
555.844,2220.7
556.346,2235.0
556.849,2246.8
557.351,2286.2
557.854,2318.7
558.356,2332.2
558.858,2317.0
559.36,2284.9
559.862,2283.0
560.364,2274.3
560.866,2278.9
561.368,2277.0
561.87,2296.2
562.372,2326.0
562.874,2376.3
563.375,2434.2
563.877,3073.9
564.378,2663.3
564.88,2568.1
565.381,2492.2
565.883,2949.6
566.384,2850.1
566.885,2449.5
567.386,2485.8
567.888,2398.9
568.389,2403.6
568.89,2399.6
569.391,2409.3
569.891,2435.7
570.392,2494.6
570.893,2571.2
571.394,3752.4
571.894,3030.9
572.395,2706.7
572.895,2602.4
573.396,2601.3
573.896,2719.2
574.396,2657.1
574.897,2683.7
575.397,3187.5
575.897,3510.1
576.397,4224.9
576.897,3855.5
577.397,3405.1
577.897,3191.9
578.396,3252.1
578.896,3275.2
579.396,3373.7
579.895,3453.1
580.395,3556.1
580.894,3650.0
581.393,3767.1
581.893,3805.8
582.392,3918.6
582.891,3972.9
583.39,4113.4
583.889,4127.7
584.388,4148.5
584.887,4181.6
585.386,4315.8
585.885,4307.7
586.383,4393.2
586.882,4498.3
587.381,4554.6
587.879,4680.1
588.377,4735.5
588.876,4791.2
589.374,4859.7
589.872,4898.6
590.37,4919.3
590.869,5064.7
591.367,5118.4
591.864,5239.5
592.362,5201.2
592.86,5215.7
593.358,5080.2
593.855,5199.0
594.353,5218.9
594.851,5200.3
595.348,5254.6
595.845,5318.5
596.343,5357.2
596.84,5534.5
597.337,5480.3
597.834,5539.0
598.331,5641.8
598.828,5671.8
599.325,5647.9
599.822,5884.9
600.318,5843.6
600.815,5799.9
601.311,5764.7
601.808,5924.6
602.304,5887.8
602.801,5632.3
603.297,5711.9
603.793,5484.9
604.289,5530.7
604.785,5449.5
605.281,5261.4
605.777,5094.3
606.273,4993.1
606.769,4994.1
607.265,4889.7
607.76,4810.5
608.256,4711.1
608.751,4650.6
609.246,4518.1
609.742,4503.8
610.237,4439.1
610.732,4401.4
611.227,4345.2
611.722,4306.0
612.217,4160.5
612.712,4166.9
613.207,4126.1
613.701,4091.8
614.196,4036.6
614.691,3929.4
615.185,3956.0
615.679,3904.7
616.174,3851.4
616.668,3837.3
617.162,3850.2
617.656,3829.8
618.15,3798.2
618.644,3788.5
619.138,3776.9
619.632,3727.7
620.125,3698.6
620.619,3734.7
621.112,3776.7
621.606,3877.5
622.099,4125.4
622.592,3986.3
623.086,3703.4
623.579,3557.6
624.072,3634.0
624.565,3601.1
625.058,3651.6
625.55,3667.9
626.043,3801.6
626.536,4779.6
627.028,10265.0
627.521,9832.9
628.013,8383.0
628.505,11351.3
628.998,8788.0
629.49,7780.5
629.982,6759.0
630.474,6422.3
630.966,5122.5
631.458,4224.0
631.949,3968.0
632.441,3714.8
632.933,3705.0
633.424,3661.8
633.915,3719.7
634.407,3577.3
634.898,3585.9
635.389,3522.2
635.88,3551.1
636.371,3582.0
636.862,3523.8
637.353,3564.1
637.844,3587.8
638.334,3570.9
638.825,3656.2
639.315,3623.6
639.806,3617.9
640.296,3545.0
640.786,3614.2
641.276,3542.2
641.766,3619.4
642.256,3680.4
642.746,3630.1
643.236,3554.5
643.726,3667.5
644.215,3640.7
644.705,3633.9
645.194,3607.6
645.684,3621.0
646.173,3607.9
646.662,3619.1
647.151,3513.7
647.64,3540.5
648.129,3535.6
648.618,3521.7
649.107,3489.0
649.595,3512.7
650.084,3372.4
650.572,3425.8
651.061,3401.2
651.549,3473.9
652.037,3412.0
652.526,3429.0
653.014,3333.9
653.502,3344.4
653.989,3311.4
654.477,3322.1
654.965,3258.7
655.452,3279.7
655.94,3244.5
656.427,3239.1
656.915,3211.9
657.402,3165.7
657.889,3165.8
658.376,3039.1
658.863,3012.9
659.35,2980.9
659.837,2935.3
660.323,2960.4
660.81,2850.2
661.053,2875.1