File: spectra/VLFR_01-LDPE_bio_Raman_5580dad3.csv
nm,Intensity
526.508,831.0
527.055,829.0
527.602,829.6
528.149,831.4
528.695,831.0
529.241,830.0
529.787,829.2
530.334,830.0
530.879,830.7
531.425,830.6
531.971,835.4
532.516,831.3
533.062,830.5
533.607,830.2
534.152,950.5
534.697,929.5
535.242,914.4
535.786,890.4
536.331,881.7
536.876,877.3
537.42,875.8
537.964,873.8
538.508,871.8
539.052,866.8
539.596,863.7
540.14,862.4
540.683,860.0
541.227,857.9
541.77,856.1
542.313,856.7
542.856,855.6
543.399,854.4
543.942,855.9
544.485,854.8
545.027,856.4
545.57,851.5
546.112,854.3
546.654,852.5
547.196,854.5
547.738,854.5
548.28,851.1
548.822,849.1
549.363,851.5
549.905,851.8
550.446,849.5
550.988,849.3
551.529,852.6
552.07,851.8
552.611,852.7
553.152,853.0
553.692,857.8
554.233,859.6
554.773,859.6
555.314,857.2
555.854,859.5
556.394,863.0
556.934,867.3
557.474,870.9
558.014,872.5
558.553,875.4
559.093,870.5
559.632,870.2
560.172,872.9
560.711,872.3
561.25,876.3
561.789,877.3
562.328,881.1
562.867,884.8
563.406,890.9
563.944,962.2
564.483,919.9
565.021,909.5
565.559,906.2
566.098,982.1
566.636,909.7
567.174,906.3
567.711,912.9
568.249,905.4
568.787,906.2
569.324,910.4
569.862,921.0
570.399,928.6
570.936,937.8
571.474,1064.7
572.011,988.4
572.548,965.7
573.084,965.7
573.621,974.7
574.158,994.3
574.694,995.1
575.231,1015.2
575.767,1082.8
576.303,1241.4
576.84,1188.9
577.376,1177.2
577.912,1156.5
578.447,1186.3
578.983,1217.2
579.519,1269.0
580.054,1303.8
580.59,1343.5
581.125,1389.3
581.661,1418.3
582.196,1450.6
582.731,1476.2
583.266,1499.1
583.801,1513.3
584.336,1513.5
584.87,1530.4
585.405,1523.6
585.94,1525.3
586.474,1542.1
587.008,1561.1
587.543,1580.6
588.077,1595.7
588.611,1598.6
589.145,1632.0
589.679,1645.1
590.213,1663.6
590.747,1694.8
591.28,1705.6
591.814,1728.1
592.347,1738.4
592.881,1732.6
593.414,1731.9
593.947,1734.3
594.48,1738.0
595.014,1735.7
595.547,1734.9
596.079,1734.0
596.612,1735.7
597.145,1728.8
597.678,1731.6
598.21,1727.5
598.743,1740.7
599.275,1742.3
599.807,1735.8
600.34,1728.1
600.872,1708.7
601.404,1704.8
601.936,1694.9
602.468,1668.7
603.0,1662.4
603.532,1621.2
604.063,1601.1
604.595,1580.8
605.126,1551.4
605.658,1508.7
606.189,1478.6
606.721,1453.3
607.252,1432.1
607.783,1408.8
608.314,1402.0
608.845,1378.6
609.376,1357.3
609.907,1340.4
610.438,1327.3
610.968,1309.7
611.499,1307.7
612.03,1291.0
612.56,1286.9
613.091,1280.2
613.621,1270.6
614.151,1264.3
614.681,1247.4
615.212,1239.8
615.742,1232.4
616.272,1222.9
616.802,1215.6
617.332,1219.1
617.861,1219.8
618.391,1210.8
618.921,1215.2
619.45,1201.3
619.98,1204.7
620.509,1202.4
621.039,1203.7
621.568,1219.6
622.097,1261.4
622.627,1254.2
623.156,1229.3
623.685,1219.3
624.214,1210.2
624.743,1222.2
625.272,1228.6
625.801,1239.1
626.33,1284.9
626.858,1612.7
627.387,2246.3
627.916,1862.8
628.444,2185.9
628.973,1925.3
629.501,1795.7
630.029,1671.4
630.558,1634.6
631.086,1467.4
631.614,1376.4
632.142,1346.2
632.67,1340.7
633.198,1330.8
633.726,1329.2
634.254,1326.3
634.782,1326.2
635.31,1325.5
635.838,1327.9
636.365,1324.9
636.893,1326.3
637.421,1308.8
637.948,1306.6
638.476,1305.7
639.003,1307.2
639.531,1305.5
640.058,1313.7
640.585,1304.7
641.113,1311.2
641.64,1305.9
642.167,1310.4
642.694,1310.0
643.221,1312.5
643.748,1313.9
644.275,1309.3
644.802,1297.4
645.329,1302.8
645.856,1294.0
646.382,1300.3
646.909,1298.4
647.436,1287.6
647.962,1291.8
648.489,1284.1
649.016,1277.2
649.542,1272.9
650.069,1266.3
650.595,1253.9
651.121,1252.8
651.648,1251.0
652.174,1250.6
652.7,1243.3
653.227,1238.6
653.753,1238.4
654.279,1239.2
654.805,1225.0
655.331,1218.8
655.857,1217.0
656.383,1209.4
656.909,1202.6
657.435,1195.8
657.961,1185.1
658.487,1180.6
659.013,1169.1
659.538,1162.5
660.064,1147.7
660.59,1136.5
661.116,1127.7
661.641,1110.4
662.167,1105.0
662.692,1092.9
663.087,1087.2