File: spectra/VLFR_07-PET_bio_Raman_107b17f9.csv
nm,Intensity
791.75,10534.3
792.846,9906.2
793.942,9501.05
795.037,9399.65
796.133,9339.0
797.228,9347.6
798.324,9350.35
799.419,9175.2
800.514,9206.85
801.61,9280.8
802.705,8991.3
803.8,8958.85
804.894,8817.5
805.989,8823.0
807.084,8750.75
808.178,8528.85
809.273,8494.75
810.367,8575.55
811.461,8471.2
812.556,8344.2
813.65,8226.45
814.744,8238.15
815.837,8151.9
816.931,8164.6
818.025,8091.25
819.118,8017.0
820.212,7925.9
821.305,7798.4
822.398,7683.65
823.491,7679.95
824.585,7797.15
825.677,7916.9
826.77,7479.5
827.863,7456.75
828.956,7391.6
830.048,7380.7
831.14,7318.25
832.233,7227.7
833.325,7150.65
834.417,7093.65
835.509,7013.95
836.601,7109.05
837.692,7073.35
838.784,6969.85
839.876,6940.4
840.967,7248.0
842.058,6937.55
843.149,6854.25
844.24,6694.8
845.331,6629.4
846.422,6543.6
847.513,6535.75
848.604,6446.55
849.694,6459.55
850.784,6427.8
851.875,6617.45
852.965,6444.75
854.055,6313.45
855.145,6290.05
856.235,6265.5
857.324,6257.35
858.414,6356.2
859.503,6323.05
860.593,6327.95
861.682,6155.05
862.771,6084.05
863.86,6212.85
864.949,6080.15
866.038,5985.4
867.126,5984.6
868.215,5954.1
869.303,6007.2
870.391,6009.15
871.479,6213.2
872.567,6280.2
873.655,6131.9
874.743,5941.2
875.831,5889.8
876.918,5759.6
878.006,5846.7
879.093,5749.95
880.18,5678.1
881.267,5677.5
882.354,5660.1
883.441,5664.55
884.527,5651.45
885.614,5616.0
886.7,5551.95
887.786,5465.75
888.872,5470.2
889.958,5423.2
891.044,5397.8
892.13,5389.25
893.216,5295.85
894.301,5320.05
895.386,5275.45
896.472,5301.7
897.557,5748.9
898.642,5656.75
899.726,5277.0
900.811,5116.1
901.896,5088.25
902.98,5033.65
904.064,5027.75
905.148,5045.5
906.232,5239.45
907.316,5378.9
908.4,5224.45
909.484,5003.9
910.567,4876.9
911.65,4819.85
912.734,4797.05
913.817,4774.85
914.9,4720.25
915.982,4722.95
917.065,4691.45
918.147,4660.6
919.23,4654.25
920.312,4628.85
921.394,4594.3
922.476,4548.05
923.558,4551.4
924.639,4521.55
925.721,4508.25
926.802,4461.75
927.884,4426.15
928.965,4417.55
930.046,4391.5
931.126,4376.75
932.207,4360.75
933.288,4349.05
934.368,4306.3
935.448,4294.75
936.528,4268.75
937.608,4261.0
938.688,4241.65
939.767,4232.1
940.847,4214.85
941.926,4199.5
943.005,4177.4
944.084,4147.85
945.163,4161.5
946.242,4143.55
947.321,4122.75
948.399,4114.6
949.477,4099.05
950.556,4080.1
951.634,4073.9
952.711,4052.4
953.789,4048.0
954.867,4039.7
955.944,4022.9
957.021,4017.3
958.098,4003.85
959.175,3991.9
960.252,3984.8
961.328,3974.4
962.405,3975.0
963.481,3967.0
964.557,3947.25
965.633,3936.75
966.709,3941.5
967.785,3931.85
968.86,3921.2
969.936,3923.2
971.011,3904.45
972.086,3905.1
973.161,3895.35
974.235,3885.5
975.31,3884.75
976.384,3876.65
977.459,3868.9
978.533,3865.0
979.607,3856.3
980.68,3860.6
981.754,3857.0
982.827,3840.3
983.901,3842.95
984.974,3839.4
986.047,3836.3
987.119,3829.0
988.192,3827.15
989.264,3822.65
990.337,3811.05
991.409,3808.75
992.481,3807.6
993.553,3802.8
994.624,3801.2
995.696,3797.1
996.767,3793.6
997.838,3790.95
998.909,3786.4
999.98,3778.9
1001.05,3780.8
1002.12,3778.5
1003.19,3772.3
1004.26,3772.45
1005.33,3764.5
1006.4,3766.9
1007.47,3763.35
1008.54,3754.45
1009.61,3758.3
1010.68,3756.9
1011.75,3755.25
1012.82,3751.8
1013.88,3750.3
1014.95,3751.7
1016.02,3745.05
1017.09,3743.75
1018.16,3743.85
1019.22,3743.55
1020.29,3744.4
1021.36,3745.75
1022.43,3749.25
1023.49,3743.6
1024.56,3739.7
1025.63,3735.95
1026.69,3730.45
1027.76,3732.35
1028.83,3726.75
1029.89,3726.4
1030.96,3723.05
1032.02,3722.6
1033.09,3725.9
1034.15,3728.0
1035.22,3726.5
1036.28,3723.5
1037.35,3720.35
1038.41,3715.8
1039.48,3716.85
1040.54,3715.1
1041.6,3715.55
1042.67,3714.55
1043.73,3714.5
1044.79,3712.75
1045.86,3712.05
1046.92,3710.9
1047.98,3710.4
1049.05,3710.1
1050.11,3710.25
1051.17,3710.1
1052.23,3710.7
1053.29,3709.0
1054.36,3709.05
1055.42,3710.6
1056.48,3708.7
1057.54,3706.4
1058.6,3710.4
1059.66,3708.25
1060.72,3708.1
1061.78,3707.7
1062.84,3707.4
1063.9,3706.45
1064.96,3706.55
1066.02,3706.5
1067.08,3705.2
1067.88,3706.6