File: spectra/VLFR_09-PET_bio_Raman_20d7697b.csv
nm,Intensity
526.493,828.8
527.039,829.38
527.586,828.66
528.133,828.74
528.679,829.82
529.225,829.28
529.771,829.1
530.317,829.44
530.863,829.08
531.409,829.16
531.955,830.22
532.5,829.28
533.046,828.36
533.591,828.72
534.136,848.86
534.681,848.34
535.226,846.9
535.771,847.32
536.315,847.68
536.86,847.44
537.404,847.16
537.948,849.74
538.493,852.0
539.037,849.08
539.58,849.98
540.124,855.04
540.668,851.24
541.211,850.0
541.755,849.14
542.298,848.48
542.841,848.96
543.384,849.92
543.927,848.78
544.47,847.98
545.013,848.16
545.555,848.9
546.098,848.58
546.64,847.12
547.182,847.66
547.724,848.76
548.266,848.1
548.808,848.48
549.35,848.48
549.892,849.56
550.433,849.44
550.974,849.98
551.516,850.26
552.057,850.3
552.598,849.8
553.139,848.44
553.68,847.24
554.22,847.08
554.761,846.48
555.301,846.44
555.842,844.98
556.382,845.32
556.922,845.44
557.462,845.82
558.002,845.14
558.542,844.48
559.082,844.9
559.621,845.0
560.161,845.64
560.7,846.24
561.239,845.56
561.778,845.98
562.317,846.0
562.856,845.14
563.395,846.64
563.934,845.98
564.472,845.9
565.011,847.8
565.549,848.36
566.088,848.0
566.626,848.46
567.164,847.62
567.702,849.0
568.24,849.32
568.777,849.56
569.315,849.92
569.853,850.54
570.39,850.18
570.927,851.58
571.465,850.58
572.002,851.64
572.539,853.14
573.076,851.24
573.612,852.06
574.149,850.88
574.686,851.18
575.222,851.3
575.759,850.46
576.295,851.64
576.831,850.9
577.367,850.66
577.903,851.0
578.439,851.2
578.975,851.42
579.511,851.5
580.046,852.02
580.582,851.88
581.117,852.24
581.653,851.98
582.188,851.96
582.723,851.8
583.258,851.42
583.793,851.52
584.328,852.3
584.863,851.3
585.398,851.28
585.932,852.34
586.467,850.9
587.001,851.84
587.535,852.46
588.07,851.94
588.604,851.94
589.138,852.98
589.672,852.4
590.206,852.54
590.739,853.2
591.273,853.62
591.807,853.26
592.34,853.8
592.873,852.78
593.407,854.4
593.94,853.18
594.473,853.6
595.006,853.78
595.539,854.52
596.072,854.78
596.605,853.82
597.138,855.56
597.67,854.82
598.203,854.92
598.735,855.38
599.268,855.2
599.8,856.38
600.332,855.48
600.865,856.68
601.397,856.8
601.929,856.04
602.46,857.04
602.992,855.32
603.524,856.48
604.056,857.28
604.587,855.82
605.119,856.3
605.65,857.74
606.182,858.18
606.713,857.36
607.244,856.48
607.775,857.38
608.306,858.0
608.837,857.56
609.368,859.18
609.899,857.96
610.43,857.7
610.961,857.68
611.491,859.1
612.022,859.48
612.552,858.62
613.083,859.48
613.613,859.84
614.143,859.94
614.673,860.46
615.203,860.44
615.734,860.6
616.263,860.64
616.793,862.1
617.323,861.64
617.853,861.08
618.383,862.72
618.912,862.2
619.442,861.74
619.971,861.76
620.501,861.46
621.03,861.52
621.56,862.0
622.089,861.44
622.618,862.44
623.147,862.46
623.676,863.06
624.205,862.82
624.734,862.56
625.263,862.98
625.792,864.0
626.321,863.58
626.849,863.5
627.378,864.02
627.906,863.66
628.435,862.54
628.963,864.84
629.492,863.74
630.02,863.8
630.548,863.98
631.077,864.74
631.605,864.76
632.133,864.34
632.661,864.22
633.189,864.54
633.717,864.8
634.245,864.36
634.773,863.9
635.3,864.76
635.828,865.06
636.356,865.32
636.883,864.8
637.411,864.76
637.938,864.82
638.466,865.86
638.993,863.22
639.521,864.46
640.048,865.58
640.575,864.66
641.103,865.0
641.63,865.26
642.157,866.4
642.684,864.56
643.211,865.6
643.738,865.32
644.265,865.82
644.792,863.48
645.319,864.26
645.845,863.78
646.372,863.94
646.899,865.1
647.425,865.36
647.952,864.88
648.479,865.66
649.005,864.0
649.532,865.38
650.058,864.36
650.585,864.3
651.111,865.44
651.637,865.2
652.164,864.46
652.69,865.04
653.216,866.0
653.742,864.68
654.268,866.46
654.794,865.44
655.32,866.04
655.846,865.34
656.372,864.96
656.898,867.14
657.424,865.28
657.95,867.4
658.476,865.3
659.002,866.36
659.528,866.86
660.053,866.5
660.579,866.52
661.105,867.32
661.63,866.24
662.156,867.06
662.681,866.0
663.076,864.84