File: spectra/VLFR_06-PET_bio_Raman_3d1992f5.csv
nm,Intensity
526.508,829.5
527.055,830.8
527.602,830.9
528.149,829.5
528.695,828.9
529.241,829.2
529.787,831.8
530.334,830.8
530.879,830.5
531.425,830.1
531.971,832.5
532.516,831.5
533.062,830.2
533.607,839.9
534.152,2317.7
534.697,1932.1
535.242,1513.1
535.786,1265.7
536.331,1105.9
536.876,1047.7
537.42,1021.1
537.964,1009.0
538.508,1020.5
539.052,1009.7
539.596,1033.3
540.14,1045.2
540.683,991.5
541.227,981.7
541.77,971.6
542.313,976.5
542.856,974.4
543.399,977.4
543.942,988.8
544.485,982.2
545.027,986.1
545.57,983.0
546.112,984.9
546.654,992.3
547.196,994.9
547.738,998.9
548.28,998.9
548.822,992.4
549.363,1001.5
549.905,999.4
550.446,1026.2
550.988,1034.1
551.529,1014.5
552.07,1019.1
552.611,1026.1
553.152,1052.3
553.692,1033.3
554.233,1026.7
554.773,1031.8
555.314,1049.1
555.854,1110.7
556.394,1118.5
556.934,1130.8
557.474,1300.9
558.014,1162.7
558.553,1160.2
559.093,1104.2
559.632,1067.5
560.172,1071.8
560.711,1074.4
561.25,1078.4
561.789,1087.1
562.328,1109.0
562.867,1118.9
563.406,1125.4
563.944,1116.0
564.483,1131.4
565.021,1184.3
565.559,1257.6
566.098,1265.2
566.636,1153.1
567.174,1127.6
567.711,1231.6
568.249,1150.3
568.787,1148.2
569.324,1154.6
569.862,1187.6
570.399,1231.3
570.936,1395.1
571.474,1529.5
572.011,1363.4
572.548,1229.6
573.084,1198.9
573.621,1199.2
574.158,1233.1
574.694,1216.7
575.231,1246.7
575.767,1226.1
576.303,1259.9
576.84,1279.1
577.376,1244.1
577.912,1223.0
578.447,1233.5
578.983,1236.4
579.519,1237.3
580.054,1246.2
580.59,1259.9
581.125,1286.2
581.661,1370.7
582.196,2750.1
582.731,1350.8
583.266,1292.3
583.801,1283.0
584.336,1298.8
584.87,1305.7
585.405,1431.5
585.94,2051.3
586.474,1770.6
587.008,1377.7
587.543,1324.2
588.077,1317.9
588.611,1318.6
589.145,1308.2
589.679,1313.9
590.213,1318.2
590.747,1323.4
591.28,1327.5
591.814,1326.3
592.347,1325.5
592.881,1322.9
593.414,1328.1
593.947,1325.9
594.48,1342.5
595.014,1342.2
595.547,1347.5
596.079,1340.3
596.612,1350.0
597.145,1358.0
597.678,1356.1
598.21,1362.5
598.743,1368.8
599.275,1373.8
599.807,1364.8
600.34,1369.0
600.872,1369.1
601.404,1370.3
601.936,1368.7
602.468,1368.0
603.0,1374.9
603.532,1367.8
604.063,1372.0
604.595,1374.6
605.126,1375.3
605.658,1362.2
606.189,1364.7
606.721,1369.9
607.252,1368.9
607.783,1373.4
608.314,1372.8
608.845,1379.0
609.376,1387.5
609.907,1371.6
610.438,1383.5
610.968,1378.7
611.499,1375.9
612.03,1383.0
612.56,1395.3
613.091,1400.9
613.621,1413.1
614.151,1413.3
614.681,1418.9
615.212,1419.7
615.742,1417.8
616.272,1418.3
616.802,1430.9
617.332,1441.6
617.861,1437.3
618.391,1449.2
618.921,1447.5
619.45,1437.0
619.98,1436.8
620.509,1433.7
621.039,1438.8
621.568,1445.3
622.097,1446.2
622.627,1454.0
623.156,1459.4
623.685,1472.7
624.214,1471.2
624.743,1488.6
625.272,1488.9
625.801,1485.4
626.33,1486.2
626.858,1490.0
627.387,1491.7
627.916,1510.1
628.444,1521.3
628.973,1559.3
629.501,1574.1
630.029,1569.5
630.558,1566.6
631.086,1637.2
631.614,1790.6
632.142,1782.1
632.67,1694.1
633.198,1662.5
633.726,1652.7
634.254,1630.8
634.782,1614.6
635.31,1626.6
635.838,1696.9
636.365,1838.5
636.893,1851.2
637.421,1688.6
637.948,1667.6
638.476,1656.5
639.003,1652.8
639.531,1670.1
640.058,1660.3
640.585,1682.2
641.113,1684.9
641.64,1684.5
642.167,1712.6
642.694,1719.1
643.221,1698.2
643.748,1693.2
644.275,1708.9
644.802,1706.5
645.329,1701.0
645.856,1703.9
646.382,1715.1
646.909,1717.5
647.436,1721.2
647.962,1729.0
648.489,1734.1
649.016,1725.1
649.542,1735.6
650.069,1736.3
650.595,1741.3
651.121,1740.6
651.648,1747.0
652.174,1747.8
652.7,1755.8
653.227,1751.3
653.753,1762.9
654.279,1763.0
654.805,1750.3
655.331,1772.9
655.857,1755.1
656.383,1772.1
656.909,1771.6
657.435,1766.8
657.961,1770.1
658.487,1762.9
659.013,1765.1
659.538,1775.9
660.064,1779.5
660.59,1770.5
661.116,1754.9
661.641,1756.8
662.167,1747.2
662.692,1771.2
663.087,1752.4