File: spectra/VLFR_06-PET_bio_Raman_13cd97dc.csv
nm,Intensity
526.508,831.5
527.055,830.5
527.602,828.7
528.149,831.0
528.695,830.8
529.241,831.4
529.787,830.8
530.334,829.2
530.879,830.0
531.425,830.4
531.971,831.7
532.516,830.4
533.062,830.9
533.607,832.8
534.152,1352.9
534.697,1223.0
535.242,1097.4
535.786,1026.6
536.331,982.9
536.876,958.9
537.42,957.2
537.964,952.1
538.508,954.8
539.052,956.0
539.596,964.4
540.14,970.2
540.683,955.9
541.227,951.7
541.77,956.2
542.313,958.1
542.856,960.2
543.399,961.6
543.942,963.5
544.485,966.2
545.027,967.3
545.57,972.6
546.112,967.8
546.654,972.5
547.196,974.7
547.738,979.5
548.28,984.2
548.822,982.8
549.363,989.9
549.905,988.0
550.446,993.7
550.988,1000.8
551.529,996.0
552.07,1001.5
552.611,1000.0
553.152,1018.0
553.692,1009.8
554.233,1010.1
554.773,1012.3
555.314,1020.1
555.854,1034.2
556.394,1044.8
556.934,1045.4
557.474,1100.2
558.014,1064.9
558.553,1065.5
559.093,1050.5
559.632,1040.6
560.172,1042.4
560.711,1047.3
561.25,1052.8
561.789,1054.0
562.328,1062.7
562.867,1073.3
563.406,1076.5
563.944,1077.2
564.483,1082.2
565.021,1104.0
565.559,1131.2
566.098,1138.5
566.636,1101.5
567.174,1094.0
567.711,1124.5
568.249,1106.7
568.787,1109.7
569.324,1114.5
569.862,1125.5
570.399,1155.9
570.936,1194.8
571.474,1233.8
572.011,1192.8
572.548,1155.6
573.084,1146.0
573.621,1148.5
574.158,1169.9
574.694,1164.6
575.231,1167.4
575.767,1163.7
576.303,1189.5
576.84,1194.3
577.376,1180.9
577.912,1188.5
578.447,1190.3
578.983,1183.4
579.519,1197.0
580.054,1193.7
580.59,1198.2
581.125,1207.8
581.661,1242.5
582.196,1642.5
582.731,1247.0
583.266,1227.3
583.801,1233.0
584.336,1236.6
584.87,1241.3
585.405,1274.3
585.94,1464.0
586.474,1381.3
587.008,1273.8
587.543,1258.6
588.077,1251.9
588.611,1250.9
589.145,1253.7
589.679,1251.1
590.213,1258.8
590.747,1260.3
591.28,1260.6
591.814,1266.9
592.347,1270.6
592.881,1267.3
593.414,1261.3
593.947,1273.1
594.48,1273.0
595.014,1278.8
595.547,1271.2
596.079,1278.0
596.612,1282.4
597.145,1289.6
597.678,1280.4
598.21,1297.0
598.743,1294.3
599.275,1295.3
599.807,1294.1
600.34,1291.7
600.872,1294.9
601.404,1284.9
601.936,1287.8
602.468,1282.9
603.0,1294.8
603.532,1291.8
604.063,1303.0
604.595,1298.1
605.126,1286.1
605.658,1284.4
606.189,1288.3
606.721,1281.5
607.252,1283.7
607.783,1283.8
608.314,1298.4
608.845,1297.7
609.376,1295.9
609.907,1291.6
610.438,1293.5
610.968,1289.3
611.499,1294.0
612.03,1301.8
612.56,1304.7
613.091,1306.8
613.621,1315.9
614.151,1307.8
614.681,1309.9
615.212,1312.5
615.742,1303.6
616.272,1309.4
616.802,1313.3
617.332,1310.1
617.861,1321.1
618.391,1323.9
618.921,1321.8
619.45,1313.7
619.98,1323.3
620.509,1316.7
621.039,1312.6
621.568,1324.2
622.097,1314.6
622.627,1334.7
623.156,1333.1
623.685,1346.0
624.214,1338.0
624.743,1351.1
625.272,1344.7
625.801,1344.8
626.33,1343.4
626.858,1349.1
627.387,1349.1
627.916,1362.0
628.444,1361.8
628.973,1375.8
629.501,1379.9
630.029,1377.9
630.558,1371.6
631.086,1397.2
631.614,1432.8
632.142,1440.7
632.67,1419.3
633.198,1407.0
633.726,1409.7
634.254,1403.5
634.782,1400.3
635.31,1408.2
635.838,1424.8
636.365,1468.5
636.893,1468.9
637.421,1434.4
637.948,1410.6
638.476,1416.1
639.003,1422.2
639.531,1430.0
640.058,1424.8
640.585,1430.9
641.113,1433.4
641.64,1447.9
642.167,1440.9
642.694,1442.3
643.221,1422.9
643.748,1434.2
644.275,1433.4
644.802,1430.7
645.329,1428.0
645.856,1434.8
646.382,1434.8
646.909,1437.2
647.436,1439.9
647.962,1427.7
648.489,1436.5
649.016,1432.1
649.542,1431.7
650.069,1429.5
650.595,1422.6
651.121,1426.0
651.648,1430.0
652.174,1425.9
652.7,1430.8
653.227,1427.7
653.753,1427.8
654.279,1424.4
654.805,1425.3
655.331,1416.2
655.857,1420.2
656.383,1418.2
656.909,1420.7
657.435,1419.3
657.961,1412.7
658.487,1419.6
659.013,1416.7
659.538,1410.2
660.064,1412.8
660.59,1414.2
661.116,1398.5
661.641,1396.9
662.167,1383.8
662.692,1379.3
663.087,1379.9