File: spectra/VLFR_06-PET_bio_Raman_bf6f0c2d.csv
nm,Intensity
526.493,828.95
527.039,828.65
527.586,828.95
528.133,829.4
528.679,829.2
529.225,828.35
529.771,829.2
530.317,830.2
530.863,828.7
531.409,827.65
531.955,831.7
532.5,829.0
533.046,829.05
533.591,838.1
534.136,1872.45
534.681,1587.55
535.226,1313.75
535.771,1135.85
536.315,1033.45
536.86,988.5
537.404,968.55
537.948,964.5
538.493,967.05
539.037,972.3
539.58,976.8
540.124,980.65
540.668,951.8
541.211,940.0
541.755,932.1
542.298,937.5
542.841,937.15
543.384,935.1
543.927,944.9
544.47,937.7
545.013,937.85
545.555,938.0
546.098,943.9
546.64,944.1
547.182,944.0
547.724,946.2
548.266,947.4
548.808,951.9
549.35,952.4
549.892,950.55
550.433,964.9
550.974,973.6
551.516,962.25
552.057,963.35
552.598,966.55
553.139,982.5
553.68,965.0
554.22,966.3
554.761,968.05
555.301,976.9
555.842,1015.95
556.382,1017.25
556.922,1027.7
557.462,1123.85
558.002,1043.55
558.542,1038.0
559.082,1005.05
559.621,985.25
560.161,985.3
560.7,986.25
561.239,984.9
561.778,990.95
562.317,1003.95
562.856,1011.3
563.395,1016.55
563.934,1002.4
564.472,1013.6
565.011,1046.0
565.549,1096.3
566.088,1098.1
566.626,1028.25
567.164,1010.6
567.702,1079.35
568.24,1023.75
568.777,1021.15
569.315,1025.35
569.853,1047.1
570.39,1081.25
570.927,1184.2
571.465,1268.3
572.002,1151.5
572.539,1067.2
573.076,1044.6
573.612,1047.05
574.149,1061.15
574.686,1052.1
575.222,1072.35
575.759,1057.9
576.295,1080.0
576.831,1086.25
577.367,1063.7
577.903,1054.55
578.439,1060.35
578.975,1058.2
579.511,1061.65
580.046,1066.4
580.582,1067.8
581.117,1082.05
581.653,1140.85
582.188,2025.25
582.723,1123.15
583.258,1082.2
583.793,1082.05
584.328,1085.65
584.863,1095.7
585.398,1159.9
585.932,1576.35
586.467,1388.85
587.001,1126.0
587.535,1097.35
588.07,1086.5
588.604,1088.6
589.138,1081.85
589.672,1083.55
590.206,1078.75
590.739,1083.05
591.273,1087.15
591.807,1085.35
592.34,1087.3
592.873,1086.05
593.407,1083.6
593.94,1085.15
594.473,1087.05
595.006,1083.95
595.539,1091.2
596.072,1090.95
596.605,1091.7
597.138,1094.05
597.67,1094.95
598.203,1099.75
598.735,1098.2
599.268,1097.7
599.8,1099.0
600.332,1098.05
600.865,1095.4
601.397,1099.6
601.929,1099.05
602.46,1098.9
602.992,1096.8
603.524,1099.45
604.056,1102.7
604.587,1096.45
605.119,1096.05
605.65,1094.05
606.182,1088.95
606.713,1091.85
607.244,1094.2
607.775,1097.05
608.306,1092.85
608.837,1096.05
609.368,1097.1
609.899,1091.3
610.43,1097.6
610.961,1094.55
611.491,1091.15
612.022,1095.45
612.552,1102.9
613.083,1106.05
613.613,1108.9
614.143,1107.25
614.673,1110.1
615.203,1108.0
615.734,1106.75
616.263,1111.1
616.793,1111.7
617.323,1114.0
617.853,1116.3
618.383,1114.7
618.912,1115.4
619.442,1112.6
619.971,1107.35
620.501,1106.6
621.03,1106.25
621.56,1107.85
622.089,1110.2
622.618,1111.45
623.147,1117.25
623.676,1116.6
624.205,1120.6
624.734,1129.3
625.263,1123.6
625.792,1126.05
626.321,1121.35
626.849,1125.75
627.378,1124.05
627.906,1128.75
628.435,1143.3
628.963,1161.55
629.492,1157.65
630.02,1150.15
630.548,1160.7
631.077,1198.3
631.605,1304.9
632.133,1294.45
632.661,1226.7
633.189,1213.0
633.717,1202.55
634.245,1179.45
634.773,1166.75
635.3,1173.7
635.828,1220.6
636.356,1318.7
636.883,1317.6
637.411,1205.65
637.938,1180.3
638.466,1173.7
638.993,1172.6
639.521,1173.75
640.048,1170.25
640.575,1172.05
641.103,1176.95
641.63,1181.25
642.157,1183.5
642.684,1187.2
643.211,1176.45
643.738,1176.8
644.265,1167.85
644.792,1173.4
645.319,1171.75
645.845,1179.05
646.372,1177.1
646.899,1178.65
647.425,1185.9
647.952,1180.75
648.479,1179.15
649.005,1181.05
649.532,1180.3
650.058,1175.8
650.585,1173.55
651.111,1176.05
651.637,1177.4
652.164,1177.25
652.69,1180.95
653.216,1180.8
653.742,1182.25
654.268,1176.05
654.794,1177.55
655.32,1181.9
655.846,1177.7
656.372,1180.6
656.898,1180.6
657.424,1179.0
657.95,1176.3
658.476,1180.5
659.002,1175.2
659.528,1180.9
660.053,1178.9
660.579,1172.1
661.105,1173.35
661.63,1171.95
662.156,1165.8
662.681,1172.95
663.076,1164.4