File: spectra/VLFR_06-PET_nobio_Raman_0c0d2c93.csv
nm,Intensity
526.486,830.6
527.033,830.2
527.579,829.8
528.126,831.0
528.672,831.6
529.219,830.4
529.765,830.9
530.311,830.1
530.857,830.1
531.403,831.6
531.948,832.4
532.494,832.3
533.039,831.4
533.585,839.7
534.13,2149.2
534.675,1801.8
535.22,1426.6
535.764,1193.0
536.309,1059.4
536.854,998.3
537.398,979.8
537.942,964.7
538.486,971.2
539.03,968.1
539.574,985.6
540.118,990.9
540.662,947.7
541.205,936.2
541.749,928.3
542.292,932.4
542.835,928.1
543.378,928.7
543.921,937.9
544.464,934.0
545.006,938.7
545.549,934.9
546.091,942.7
546.634,936.5
547.176,941.3
547.718,944.3
548.26,946.0
548.802,947.7
549.343,946.8
549.885,951.3
550.426,967.0
550.968,986.8
551.509,960.2
552.05,961.3
552.591,969.1
553.132,995.2
553.673,974.3
554.214,976.8
554.754,975.7
555.295,985.1
555.835,1048.8
556.375,1051.8
556.915,1054.9
557.455,1200.1
557.995,1090.3
558.535,1080.2
559.075,1032.6
559.614,1007.1
560.154,1004.9
560.693,1006.1
561.232,1018.6
561.772,1020.9
562.311,1029.6
562.85,1043.9
563.388,1052.8
563.927,1037.1
564.466,1047.7
565.004,1091.0
565.543,1156.4
566.081,1177.7
566.619,1072.6
567.157,1058.4
567.695,1140.7
568.233,1065.0
568.771,1062.7
569.309,1070.1
569.846,1103.6
570.384,1136.7
570.921,1282.6
571.458,1417.4
571.995,1244.7
572.532,1122.8
573.069,1101.6
573.606,1097.7
574.143,1131.4
574.68,1110.4
575.216,1145.8
575.753,1128.4
576.289,1142.4
576.825,1170.3
577.361,1139.0
577.897,1118.7
578.433,1124.1
578.969,1125.1
579.505,1131.2
580.041,1131.9
580.576,1139.4
581.112,1167.2
581.647,1238.5
582.183,2469.2
582.718,1229.8
583.253,1175.8
583.788,1169.0
584.323,1178.7
584.858,1187.6
585.392,1289.0
585.927,1840.5
586.462,1613.2
586.996,1238.4
587.53,1198.1
588.065,1186.2
588.599,1184.7
589.133,1189.9
589.667,1185.8
590.201,1189.4
590.735,1188.1
591.268,1193.0
591.802,1195.3
592.335,1194.4
592.869,1196.8
593.402,1198.4
593.936,1197.7
594.469,1203.2
595.002,1207.9
595.535,1214.0
596.068,1213.1
596.601,1214.8
597.133,1216.2
597.666,1218.6
598.199,1217.1
598.731,1227.2
599.264,1228.2
599.796,1219.7
600.328,1224.3
600.86,1220.3
601.393,1221.6
601.925,1228.4
602.457,1232.3
602.988,1220.5
603.52,1236.6
604.052,1239.9
604.583,1231.0
605.115,1230.7
605.646,1221.7
606.178,1224.2
606.709,1219.0
607.24,1231.2
607.771,1231.2
608.302,1238.3
608.833,1239.1
609.364,1228.9
609.895,1246.2
610.426,1247.9
610.957,1239.6
611.487,1235.5
612.018,1245.6
612.548,1248.2
613.078,1261.5
613.609,1260.4
614.139,1261.4
614.669,1262.7
615.199,1262.9
615.729,1262.8
616.259,1269.2
616.789,1273.3
617.319,1281.2
617.849,1288.2
618.378,1287.3
618.908,1295.6
619.437,1287.4
619.967,1290.3
620.496,1283.6
621.025,1292.4
621.555,1285.1
622.084,1296.2
622.613,1300.1
623.142,1307.8
623.671,1310.3
624.2,1321.1
624.729,1328.3
625.258,1334.8
625.786,1337.5
626.315,1327.9
626.844,1330.8
627.372,1340.2
627.901,1348.2
628.429,1362.4
628.957,1398.2
629.486,1393.5
630.014,1386.1
630.542,1400.9
631.07,1450.8
631.598,1582.3
632.126,1583.5
632.654,1515.4
633.182,1494.2
633.71,1475.3
634.237,1444.4
634.765,1438.0
635.293,1451.2
635.82,1516.7
636.348,1630.2
636.875,1651.1
637.403,1514.2
637.93,1480.1
638.458,1471.7
638.985,1469.1
639.512,1480.4
640.039,1490.3
640.566,1489.4
641.093,1491.2
641.62,1498.5
642.147,1515.2
642.674,1510.5
643.201,1498.5
643.728,1498.7
644.255,1501.9
644.781,1502.9
645.308,1501.6
645.835,1510.1
646.361,1513.9
646.888,1530.5
647.414,1531.6
647.941,1530.3
648.467,1530.9
648.993,1532.4
649.52,1535.0
650.046,1528.8
650.572,1535.0
651.098,1528.7
651.625,1552.0
652.151,1550.8
652.677,1542.8
653.203,1548.8
653.729,1556.5
654.255,1552.7
654.78,1551.7
655.306,1558.6
655.832,1549.7
656.358,1563.2
656.884,1565.1
657.409,1555.2
657.935,1567.5
658.461,1575.2
658.986,1561.5
659.512,1563.0
660.037,1566.7
660.563,1565.6
661.088,1560.2
661.614,1543.1
662.139,1551.1
662.664,1548.4
663.058,1546.7