File: spectra/VLFR_06-PET_bio_Raman_a6118dbe.csv
nm,Intensity
528.65,1846.9
529.155,1846.45
529.66,1846.45
530.165,1847.55
530.67,1848.0
531.175,1849.45
531.68,1882.4
532.185,3568.35
532.69,1851.45
533.194,1860.7
533.699,3813.85
534.204,8116.9
534.708,6664.65
535.213,5394.95
535.717,4245.05
536.222,3632.3
536.726,3328.7
537.231,3267.85
537.735,3243.25
538.239,3302.25
538.743,3284.3
539.247,3384.85
539.751,3505.35
540.255,3369.6
540.759,3259.55
541.263,3198.2
541.767,3211.25
542.271,3259.9
542.775,3292.95
543.279,3281.7
543.782,3302.75
544.286,3319.5
544.789,3329.85
545.293,3373.05
545.796,3373.95
546.3,3401.0
546.803,3459.2
547.306,3494.6
547.81,3507.9
548.313,3529.15
548.816,3546.95
549.319,3546.15
549.822,3563.1
550.325,3729.85
550.828,4152.7
551.331,3765.7
551.834,3783.9
552.337,3856.95
552.839,4217.6
553.342,3849.25
553.844,3854.7
554.347,3897.8
554.849,4020.55
555.352,4160.05
555.854,4509.05
556.357,4572.65
556.859,4670.45
557.361,5500.85
557.863,5088.3
558.365,4821.55
558.867,4656.85
559.369,4396.0
559.871,4413.25
560.373,4363.35
560.875,4465.45
561.377,4582.05
561.878,4644.75
562.38,4723.5
562.881,4890.25
563.383,4811.25
563.884,4779.1
564.386,4920.3
564.887,5222.4
565.388,5598.15
565.89,5999.8
566.391,5343.55
566.892,5032.95
567.393,5308.7
567.894,5532.25
568.395,5160.7
568.896,5271.2
569.396,5291.65
569.897,5513.75
570.398,6002.35
570.898,6922.15
571.399,7655.4
571.9,6492.2
572.4,5948.75
572.9,5606.4
573.401,5583.15
573.901,5805.45
574.401,5743.5
574.901,5784.3
575.401,6050.0
575.901,5825.25
576.401,6153.05
576.901,6162.45
577.401,5922.15
577.901,5748.1
578.4,5919.4
578.9,5948.85
579.399,6017.1
579.899,6089.65
580.398,6064.5
580.898,6317.3
581.397,6525.45
581.896,10540.3
582.395,10036.5
582.895,6352.65
583.394,6330.45
583.893,6358.45
584.391,6386.75
584.89,6621.75
585.389,7693.4
585.888,11375.9
586.386,9687.2
586.885,6935.3
587.384,6572.4
587.882,6596.25
588.38,6625.8
588.879,6557.8
589.377,6566.6
589.875,6490.55
590.373,6686.7
590.871,6534.1
591.369,6642.8
591.867,6669.45
592.365,6610.95
592.863,6675.25
593.361,6663.25
593.858,6675.65
594.356,6725.3
594.853,6740.45
595.351,6801.2
595.848,6824.55
596.345,6933.05
596.843,6932.65
597.34,6744.0
597.837,6879.45
598.334,6852.95
598.831,6869.1
599.328,6891.1
599.824,6994.95
600.321,7021.2
600.818,6889.6
601.314,7007.3
601.811,6845.3
602.307,6932.5
602.804,7042.5
603.3,7164.35
603.796,6946.05
604.293,6925.1
604.789,6951.8
605.285,7086.3
605.781,6839.45
606.277,6952.3
606.772,6986.1
607.268,7274.05
607.764,7016.25
608.259,7026.45
608.755,6934.95
609.25,6932.3
609.746,7031.85
610.241,6975.8
610.736,7035.85
611.231,6909.45
611.727,7006.05
612.222,6973.75
612.716,7091.0
613.211,7107.95
613.706,7063.0
614.201,6955.3
614.695,6944.35
615.19,7058.7
615.684,7068.5
616.179,7048.15
616.673,7009.7
617.168,7157.6
617.662,7185.65
618.156,7024.05
618.65,7221.4
619.144,7036.2
619.638,7129.4
620.131,7095.0
620.625,7035.3
621.119,7080.1
621.612,7039.8
622.106,7174.75
622.599,7152.6
623.093,7101.55
623.586,7306.9
624.079,7270.45
624.572,7337.8
625.065,7269.8
625.558,7326.45
626.051,7367.2
626.544,7262.4
627.037,7325.3
627.529,7410.95
628.022,7439.5
628.514,7563.85
629.007,7669.2
629.499,7968.15
629.991,7779.6
630.483,7875.95
630.976,8122.6
631.468,9110.4
631.959,9205.85
632.451,8725.15
632.943,8424.95
633.435,8502.25
633.926,8212.6
634.418,8077.1
634.909,8081.45
635.401,8058.75
635.892,8655.1
636.383,9791.75
636.874,9312.0
637.365,8415.2
637.856,8088.6
638.347,8021.0
638.838,7856.65
639.329,7904.05
639.819,7856.8
640.31,7923.95
640.8,7896.5
641.291,8192.6
641.781,7859.95
642.271,8207.55
642.761,8020.7
643.251,7978.95
643.741,7944.8
644.231,8148.0
644.721,8134.15
645.211,7838.7
645.7,7999.55
646.19,8143.9
646.679,8153.35
647.169,7935.9
647.658,8036.2
648.147,8144.6
648.636,7927.65
649.125,7803.45
649.614,7822.55
650.103,7721.45
650.592,7773.45
651.08,7966.1
651.569,7607.3
652.058,7657.25
652.546,7533.55
653.034,7554.2
653.523,7501.85
654.011,7366.2
654.499,7322.55
654.987,7603.9
655.475,7289.3
655.963,7144.15
656.45,6976.75
656.938,7030.3
657.425,7039.7
657.913,7101.55
658.4,6846.2
658.888,6858.95
659.375,6824.4
659.862,6912.2
660.349,6846.55
660.836,6551.85
661.079,6754.45