File: spectra/VLFR_02-HDPE_bio_Raman_667e5854.csv
nm,Intensity
526.495,830.1
527.042,828.4
527.589,830.1
528.136,829.7
528.682,829.3
529.229,828.8
529.775,828.5
530.321,828.3
530.867,828.9
531.413,828.3
531.959,829.8
532.505,829.5
533.051,829.1
533.596,829.6
534.141,896.4
534.687,898.8
535.232,896.2
535.777,867.2
536.321,858.6
536.866,855.8
537.41,852.8
537.955,854.9
538.499,851.5
539.043,848.5
539.587,848.9
540.131,848.0
540.675,846.6
541.219,846.8
541.762,846.5
542.305,847.3
542.849,846.9
543.392,845.6
543.935,846.6
544.478,848.1
545.02,847.0
545.563,846.2
546.106,847.7
546.648,846.1
547.19,847.8
547.732,848.1
548.274,844.7
548.816,844.8
549.358,849.4
549.9,847.4
550.441,847.2
550.983,848.7
551.524,847.1
552.065,845.7
552.606,848.0
553.147,849.6
553.688,850.6
554.229,853.4
554.769,850.4
555.31,852.2
555.85,851.1
556.391,853.1
556.931,853.5
557.471,855.4
558.011,856.1
558.551,855.3
559.09,858.0
559.63,854.9
560.169,854.9
560.709,855.3
561.248,853.9
561.787,854.7
562.326,856.5
562.865,858.6
563.404,862.8
563.943,938.5
564.481,878.2
565.02,872.3
565.558,867.1
566.096,906.7
566.634,864.6
567.172,865.4
567.71,870.0
568.248,861.2
568.786,863.4
569.324,861.2
569.861,862.5
570.399,868.9
570.936,869.9
571.473,991.0
572.01,890.3
572.547,870.2
573.084,865.3
573.621,871.2
574.158,870.8
574.694,865.4
575.231,870.6
575.767,897.3
576.303,1017.6
576.84,950.9
577.376,924.2
577.912,880.6
578.448,875.4
578.984,874.6
579.519,878.3
580.055,878.4
580.59,875.4
581.126,873.7
581.661,878.4
582.196,877.0
582.731,878.7
583.267,881.0
583.801,883.7
584.336,882.2
584.871,882.3
585.406,886.3
585.94,888.7
586.475,885.6
587.009,888.3
587.543,890.5
588.078,894.2
588.612,892.2
589.146,890.6
589.68,895.7
590.214,892.4
590.747,894.7
591.281,894.6
591.815,894.4
592.348,896.7
592.881,895.3
593.415,897.0
593.948,893.6
594.481,901.4
595.014,903.2
595.547,900.4
596.08,903.1
596.613,904.4
597.146,908.0
597.678,907.8
598.211,916.7
598.743,914.4
599.276,914.6
599.808,917.6
600.34,917.6
600.872,916.2
601.404,919.4
601.936,922.1
602.468,920.2
603.0,918.2
603.532,916.2
604.064,911.8
604.595,915.6
605.127,907.9
605.658,910.0
606.189,907.6
606.721,901.2
607.252,903.6
607.783,899.2
608.314,902.7
608.845,899.7
609.376,896.4
609.907,899.8
610.438,896.8
610.968,893.4
611.499,897.9
612.029,898.2
612.56,892.4
613.09,897.5
613.621,895.7
614.151,897.3
614.681,894.4
615.211,895.8
615.741,896.6
616.271,898.0
616.801,902.2
617.331,909.4
617.861,907.2
618.39,906.5
618.92,907.6
619.45,909.9
619.979,912.6
620.509,912.6
621.038,916.7
621.567,940.1
622.096,988.7
622.626,979.9
623.155,929.0
623.684,918.6
624.213,912.4
624.742,912.6
625.271,919.2
625.799,932.0
626.328,978.0
626.857,1415.5
627.386,2111.8
627.914,1590.1
628.443,2038.2
628.971,1512.3
629.5,1380.5
630.028,1214.5
630.556,1190.0
631.084,1028.6
631.613,936.3
632.141,923.2
632.669,915.1
633.197,910.1
633.725,903.4
634.253,902.0
634.781,900.6
635.308,901.1
635.836,900.0
636.364,896.4
636.891,891.5
637.419,892.5
637.947,889.1
638.474,890.3
639.002,888.1
639.529,891.5
640.056,887.4
640.584,888.4
641.111,891.4
641.638,887.9
642.165,886.9
642.692,883.7
643.219,887.6
643.746,885.1
644.273,887.6
644.8,888.5
645.327,884.0
645.854,887.2
646.381,886.4
646.908,885.0
647.434,885.4
647.961,886.6
648.488,885.3
649.014,887.2
649.541,885.4
650.067,886.2
650.594,886.1
651.12,884.9
651.646,886.4
652.173,887.5
652.699,882.9
653.225,884.9
653.752,884.6
654.278,882.3
654.804,884.6
655.33,888.9
655.856,885.4
656.382,882.7
656.908,885.0
657.434,881.3
657.96,879.0
658.486,880.5
659.012,881.3
659.538,881.8
660.064,881.7
660.589,881.4
661.115,879.7
661.641,878.4
662.166,875.6
662.692,876.2
663.086,871.5