File: spectra/VLFR_08-PLA_nobio_Raman_b70dbb38.csv
nm,Intensity
526.486,829.6
527.033,830.4
527.579,830.4
528.126,831.5
528.672,830.4
529.219,829.0
529.765,829.5
530.311,829.5
530.857,830.8
531.403,830.2
531.948,831.4
532.494,831.7
533.039,829.2
533.585,832.2
534.13,931.5
534.675,915.9
535.22,898.0
535.764,892.3
536.309,884.6
536.854,887.1
537.398,880.3
537.942,881.9
538.486,879.2
539.03,873.3
539.574,874.7
540.118,872.3
540.662,880.7
541.205,881.8
541.749,878.2
542.292,872.7
542.835,875.2
543.378,884.9
543.921,895.1
544.464,878.1
545.006,873.7
545.549,871.2
546.091,875.5
546.634,874.9
547.176,874.7
547.718,874.4
548.26,874.1
548.802,874.6
549.343,879.2
549.885,877.0
550.426,877.5
550.968,877.9
551.509,878.4
552.05,880.8
552.591,881.9
553.132,881.9
553.673,882.9
554.214,884.6
554.754,883.3
555.295,880.6
555.835,879.6
556.375,881.0
556.915,882.7
557.455,888.2
557.995,935.8
558.535,896.8
559.075,889.4
559.614,890.3
560.154,889.2
560.693,887.5
561.232,882.8
561.772,884.3
562.311,884.5
562.85,890.5
563.388,909.1
563.927,896.5
564.466,894.2
565.004,899.3
565.543,897.4
566.081,917.3
566.619,898.9
567.157,889.1
567.695,893.4
568.233,893.3
568.771,894.9
569.309,894.6
569.846,895.3
570.384,895.3
570.921,897.2
571.458,901.0
571.995,903.2
572.532,902.7
573.069,902.4
573.606,906.8
574.143,905.0
574.68,905.9
575.216,898.8
575.753,898.5
576.289,907.3
576.825,936.2
577.361,913.7
577.897,901.2
578.433,903.2
578.969,899.4
579.505,901.6
580.041,899.4
580.576,899.0
581.112,898.0
581.647,901.9
582.183,901.2
582.718,900.7
583.253,903.0
583.788,900.6
584.323,901.3
584.858,902.1
585.392,902.6
585.927,901.0
586.462,907.5
586.996,927.1
587.53,937.1
588.065,915.7
588.599,902.2
589.133,901.9
589.667,901.9
590.201,902.9
590.735,905.0
591.268,905.6
591.802,905.2
592.335,901.6
592.869,902.7
593.402,902.6
593.936,906.0
594.469,903.1
595.002,906.8
595.535,905.5
596.068,906.0
596.601,905.7
597.133,905.5
597.666,903.9
598.199,909.3
598.731,911.6
599.264,910.7
599.796,912.7
600.328,909.1
600.86,910.4
601.393,911.3
601.925,909.8
602.457,909.8
602.988,913.2
603.52,916.0
604.052,916.0
604.583,912.7
605.115,912.4
605.646,907.0
606.178,912.9
606.709,908.9
607.24,913.6
607.771,915.0
608.302,917.4
608.833,918.6
609.364,919.4
609.895,919.9
610.426,917.6
610.957,917.5
611.487,921.6
612.018,921.0
612.548,923.5
613.078,925.0
613.609,932.3
614.139,933.8
614.669,928.5
615.199,926.1
615.729,929.1
616.259,932.3
616.789,929.2
617.319,933.6
617.849,932.5
618.378,930.8
618.908,931.8
619.437,931.2
619.967,933.5
620.496,932.2
621.025,935.4
621.555,935.1
622.084,934.7
622.613,935.1
623.142,942.5
623.671,938.4
624.2,938.5
624.729,932.7
625.258,930.8
625.786,932.0
626.315,936.3
626.844,937.4
627.372,936.8
627.901,940.8
628.429,968.6
628.957,960.9
629.486,963.5
630.014,967.5
630.542,992.7
631.07,1160.0
631.598,1055.7
632.126,995.9
632.654,982.8
633.182,1024.0
633.71,1007.8
634.237,966.2
634.765,943.5
635.293,930.5
635.82,934.5
636.348,929.5
636.875,930.4
637.403,930.7
637.93,929.9
638.458,924.2
638.985,925.2
639.512,924.0
640.039,925.6
640.566,921.2
641.093,922.1
641.62,925.2
642.147,922.9
642.674,920.4
643.201,920.5
643.728,917.5
644.255,917.9
644.781,916.0
645.308,916.7
645.835,916.0
646.361,916.9
646.888,915.7
647.414,911.3
647.941,911.5
648.467,912.7
648.993,908.9
649.52,909.3
650.046,912.5
650.572,908.5
651.098,906.1
651.625,906.6
652.151,905.7
652.677,910.4
653.203,908.6
653.729,910.5
654.255,905.3
654.78,905.3
655.306,903.0
655.832,901.9
656.358,908.2
656.884,903.9
657.409,901.3
657.935,903.5
658.461,902.8
658.986,902.6
659.512,901.4
660.037,902.7
660.563,902.5
661.088,898.2
661.614,899.1
662.139,898.2
662.664,897.7
663.058,897.6