File: spectra/VLFR_01-LDPE_bio_Raman_f3c4dc0f.csv
nm,Intensity
526.495,827.2
527.042,827.5
527.589,828.3
528.136,829.1
528.682,827.7
529.229,829.9
529.775,828.3
530.321,830.6
530.867,828.2
531.413,826.8
531.959,831.1
532.505,829.0
533.051,829.2
533.596,828.9
534.141,865.7
534.687,862.1
535.232,858.0
535.777,851.6
536.321,851.9
536.866,851.2
537.41,850.7
537.955,848.2
538.499,849.0
539.043,847.5
539.587,844.9
540.131,842.6
540.675,844.2
541.219,843.2
541.762,842.5
542.305,842.4
542.849,843.0
543.392,845.1
543.935,844.9
544.478,842.9
545.02,842.3
545.563,843.3
546.106,842.6
546.648,844.5
547.19,843.8
547.732,840.9
548.274,842.7
548.816,844.3
549.358,841.2
549.9,843.0
550.441,844.7
550.983,840.4
551.524,841.9
552.065,844.1
552.606,840.8
553.147,842.8
553.688,841.3
554.229,843.5
554.769,841.6
555.31,844.1
555.85,841.2
556.391,843.4
556.931,844.1
557.471,844.2
558.011,846.3
558.551,844.1
559.09,845.1
559.63,844.3
560.169,845.6
560.709,844.7
561.248,846.9
561.787,848.2
562.326,895.6
562.865,849.3
563.404,852.0
563.943,866.5
564.481,856.5
565.02,856.0
565.558,855.2
566.096,874.2
566.634,860.0
567.172,852.9
567.71,856.2
568.248,856.0
568.786,853.9
569.324,856.1
569.861,857.2
570.399,860.8
570.936,861.9
571.473,888.3
572.01,872.8
572.547,864.8
573.084,867.5
573.621,868.0
574.158,871.2
574.694,872.3
575.231,874.3
575.767,889.3
576.303,924.6
576.84,911.1
577.376,903.3
577.912,894.9
578.448,897.1
578.984,904.1
579.519,912.8
580.055,916.4
580.59,921.9
581.126,929.4
581.661,935.6
582.196,947.2
582.731,948.0
583.267,959.5
583.801,967.1
584.336,971.7
584.871,979.2
585.406,984.0
585.94,990.8
586.475,1003.1
587.009,1002.8
587.543,1015.8
588.078,1026.7
588.612,1038.1
589.146,1038.5
589.68,1053.4
590.214,1059.8
590.747,1065.4
591.281,1070.6
591.815,1079.6
592.348,1082.7
592.881,1083.8
593.415,1087.5
593.948,1083.4
594.481,1088.1
595.014,1094.9
595.547,1107.4
596.08,1114.5
596.613,1119.5
597.146,1126.7
597.678,1136.6
598.211,1144.4
598.743,1149.9
599.276,1157.5
599.808,1168.1
600.34,1170.1
600.872,1164.8
601.404,1155.0
601.936,1152.1
602.468,1146.0
603.0,1144.7
603.532,1129.5
604.064,1117.0
604.595,1104.5
605.127,1095.0
605.658,1079.5
606.189,1065.2
606.721,1059.9
607.252,1042.7
607.783,1041.4
608.314,1036.4
608.845,1026.8
609.376,1025.0
609.907,1016.6
610.438,1006.9
610.968,1002.7
611.499,998.9
612.029,992.7
612.56,997.7
613.09,993.2
613.621,987.2
614.151,982.5
614.681,977.5
615.211,977.7
615.741,970.8
616.271,971.7
616.801,967.3
617.331,966.5
617.861,964.5
618.39,959.5
618.92,955.0
619.45,956.4
619.979,954.6
620.509,951.3
621.038,946.1
621.567,953.3
622.096,960.4
622.626,957.0
623.155,950.1
623.684,945.7
624.213,943.6
624.742,947.4
625.271,947.9
625.799,948.0
626.328,955.8
626.857,1029.1
627.386,1164.2
627.914,1076.5
628.443,1147.4
628.971,1090.9
629.5,1056.9
630.028,1028.7
630.556,1016.3
631.084,983.9
631.613,962.2
632.141,949.7
632.669,947.6
633.197,947.2
633.725,949.5
634.253,948.0
634.781,953.5
635.308,952.2
635.836,950.7
636.364,952.1
636.891,952.2
637.419,956.7
637.947,958.7
638.474,952.1
639.002,959.8
639.529,958.9
640.056,957.6
640.584,959.6
641.111,960.0
641.638,964.4
642.165,966.1
642.692,965.5
643.219,966.6
643.746,963.3
644.273,966.7
644.8,962.0
645.327,969.5
645.854,969.9
646.381,962.9
646.908,968.9
647.434,966.2
647.961,967.2
648.488,967.4
649.014,971.4
649.541,967.7
650.067,966.2
650.594,964.5
651.12,968.6
651.646,966.7
652.173,969.1
652.699,967.9
653.225,968.2
653.752,971.1
654.278,967.2
654.804,965.8
655.33,964.6
655.856,962.8
656.382,963.8
656.908,961.1
657.434,961.4
657.96,952.9
658.486,954.2
659.012,946.8
659.538,949.7
660.064,945.4
660.589,935.0
661.115,931.9
661.641,926.8
662.166,922.5
662.692,918.1
663.086,919.6