File: spectra/VLFR_01-LDPE_bio_Raman_ea71bcf5.csv
nm,Intensity
528.637,1833.2
529.143,1834.3
529.648,1833.4
530.153,1834.8
530.659,1835.7
531.164,1840.6
531.669,1942.5
532.174,5642.0
532.679,1837.8
533.184,1836.8
533.689,2133.9
534.194,2755.3
534.699,2622.1
535.203,2509.7
535.708,2416.0
536.213,2313.2
536.717,2319.3
537.222,2316.8
537.726,2310.8
538.231,2301.9
538.735,2252.4
539.24,2219.3
539.744,2212.2
540.248,2219.7
540.752,2187.3
541.256,2194.3
541.761,2191.3
542.265,2208.2
542.769,2204.8
543.272,2207.0
543.776,2203.4
544.28,2200.0
544.784,2200.7
545.288,2212.3
545.791,2194.2
546.295,2188.4
546.798,2208.3
547.302,2232.5
547.805,2247.6
548.308,2248.6
548.812,2230.5
549.315,2200.3
549.818,2187.3
550.321,2181.6
550.824,2180.8
551.327,2195.8
551.83,2199.8
552.333,2201.3
552.836,2198.7
553.339,2243.1
553.842,2273.2
554.344,2330.9
554.847,2298.9
555.349,2298.4
555.852,2302.2
556.354,2339.1
556.857,2364.0
557.359,2431.3
557.861,2449.7
558.363,2482.9
558.866,2488.0
559.368,2420.6
559.87,2367.6
560.372,2353.4
560.873,2362.4
561.375,2375.2
561.877,2391.2
562.379,2427.0
562.88,2499.3
563.382,2541.5
563.883,3356.1
564.385,2885.9
564.886,2785.1
565.388,2664.0
565.889,3167.4
566.39,2951.6
566.891,2629.5
567.392,2652.2
567.893,2546.3
568.394,2576.8
568.895,2671.0
569.396,2615.8
569.897,2653.0
570.398,2700.3
570.898,2946.5
571.399,4193.3
571.899,3425.9
572.4,3198.5
572.9,3156.3
573.4,3189.7
573.901,3236.9
574.401,3004.1
574.901,2948.0
575.401,3422.9
575.901,3813.6
576.401,4618.8
576.901,4308.9
577.401,3670.1
577.9,3253.3
578.4,3220.4
578.9,3285.0
579.399,3376.5
579.899,3492.7
580.398,3515.9
580.897,3612.2
581.397,3607.0
581.896,3762.8
582.395,3705.7
582.894,3767.0
583.393,3807.5
583.892,3800.1
584.391,3926.1
584.889,3970.4
585.388,3882.2
585.887,3944.4
586.385,4025.1
586.884,4081.7
587.382,4112.8
587.881,4181.9
588.379,4200.9
588.877,4257.0
589.375,4329.7
589.874,4278.6
590.372,4455.8
590.87,4415.9
591.367,4503.4
591.865,4444.8
592.363,4501.9
592.861,4509.5
593.358,4478.5
593.856,4502.1
594.353,4472.5
594.851,4498.9
595.348,4471.8
595.845,4524.9
596.342,4525.7
596.84,4674.8
597.337,4672.7
597.833,4667.1
598.33,4691.1
598.827,4806.2
599.324,4786.3
599.821,4888.2
600.317,4833.9
600.814,4842.4
601.31,4889.6
601.807,4835.7
602.303,4799.2
602.799,4725.0
603.295,4635.3
603.791,4645.7
604.287,4559.7
604.783,4427.4
605.279,4251.4
605.775,4352.5
606.271,4180.2
606.766,4169.0
607.262,4054.6
607.757,4013.6
608.253,4030.7
608.748,3880.2
609.243,3838.9
609.738,3820.0
610.233,3816.9
610.729,3820.9
611.223,3794.8
611.718,3732.3
612.213,3662.8
612.708,3629.7
613.202,3620.3
613.697,3600.1
614.192,3584.6
614.686,3568.7
615.18,3438.5
615.675,3473.8
616.169,3485.7
616.663,3458.2
617.157,3548.3
617.651,3554.7
618.145,3538.6
618.638,3489.6
619.132,3487.4
619.626,3580.4
620.119,3587.3
620.613,3552.8
621.106,3595.1
621.599,3802.6
622.093,4040.5
622.586,3876.2
623.079,3591.6
623.572,3512.5
624.065,3481.1
624.558,3514.9
625.05,3572.8
625.543,3629.7
626.036,3822.8
626.528,4947.6
627.02,11230.4
627.513,11086.8
628.005,9381.7
628.497,13031.6
628.989,9977.8
629.481,8452.4
629.973,7662.4
630.465,7061.5
630.957,5384.7
631.449,4258.2
631.94,3987.4
632.432,3687.9
632.923,3621.8
633.414,3599.1
633.906,3586.1
634.397,3565.9
634.888,3464.8
635.379,3463.3
635.87,3506.4
636.361,3488.7
636.852,3439.2
637.342,3416.8
637.833,3462.4
638.323,3390.4
638.814,3395.9
639.304,3427.5
639.794,3342.4
640.285,3388.4
640.775,3361.5
641.265,3391.5
641.755,3347.5
642.244,3420.9
642.734,3338.1
643.224,3280.1
643.713,3424.0
644.203,3305.8
644.692,3333.8
645.181,3346.2
645.671,3267.6
646.16,3238.6
646.649,3291.0
647.138,3253.6
647.627,3260.7
648.115,3214.0
648.604,3217.8
649.093,3205.0
649.581,3247.1
650.07,3170.8
650.558,3182.7
651.046,3154.0
651.534,3152.9
652.023,3142.5
652.511,3081.4
652.998,3032.5
653.486,3014.5
653.974,3051.5
654.462,2985.5
654.949,3007.8
655.437,3001.7
655.924,2962.4
656.411,2945.1
656.898,2945.6
657.385,2923.8
657.872,2844.1
658.359,2871.2
658.846,2817.5
659.333,2754.6
659.82,2754.1
660.306,2742.2
660.793,2675.2
661.036,2688.0