File: spectra/VLFR_02-HDPE_bio_Raman_664ed28d.csv
nm,Intensity
526.495,829.8
527.042,830.3
527.589,827.8
528.136,827.8
528.682,830.3
529.229,828.4
529.775,829.2
530.321,829.3
530.867,829.4
531.413,829.2
531.959,832.8
532.505,828.4
533.051,829.3
533.596,829.3
534.141,875.2
534.687,869.9
535.232,865.2
535.777,852.3
536.321,846.3
536.866,845.7
537.41,845.7
537.955,845.9
538.499,842.2
539.043,841.3
539.587,840.8
540.131,840.7
540.675,837.6
541.219,840.3
541.762,839.1
542.305,838.6
542.849,839.4
543.392,839.8
543.935,838.4
544.478,837.2
545.02,836.5
545.563,837.5
546.106,838.4
546.648,837.0
547.19,837.7
547.732,838.6
548.274,835.0
548.816,837.4
549.358,837.0
549.9,836.5
550.441,838.6
550.983,840.0
551.524,837.8
552.065,839.1
552.606,838.9
553.147,837.9
553.688,839.5
554.229,841.8
554.769,841.6
555.31,840.5
555.85,841.6
556.391,841.6
556.931,845.7
557.471,842.9
558.011,843.9
558.551,844.5
559.09,845.9
559.63,846.9
560.169,845.3
560.709,843.4
561.248,846.7
561.787,847.5
562.326,846.6
562.865,851.3
563.404,850.8
563.943,896.5
564.481,864.1
565.02,861.4
565.558,857.7
566.096,918.4
566.634,858.7
567.172,855.8
567.71,856.4
568.248,852.8
568.786,854.7
569.324,861.4
569.861,860.2
570.399,864.4
570.936,869.1
571.473,946.6
572.01,884.5
572.547,876.6
573.084,872.0
573.621,879.2
574.158,888.9
574.694,883.1
575.231,893.2
575.767,929.5
576.303,1009.8
576.84,967.6
577.376,960.9
577.912,938.6
578.448,947.3
578.984,959.0
579.519,966.9
580.055,982.3
580.59,996.0
581.126,1008.2
581.661,1015.2
582.196,1026.7
582.731,1042.3
583.267,1047.0
583.801,1052.2
584.336,1050.7
584.871,1050.3
585.406,1054.2
585.94,1039.1
586.475,1044.5
587.009,1038.6
587.543,1030.6
588.078,1020.2
588.612,1010.7
589.146,1001.1
589.68,997.9
590.214,988.0
590.747,985.0
591.281,977.4
591.815,969.6
592.348,968.0
592.881,967.7
593.415,961.6
593.948,963.8
594.481,956.8
595.014,956.6
595.547,951.5
596.08,950.3
596.613,957.3
597.146,955.1
597.678,954.3
598.211,958.0
598.743,956.1
599.276,959.1
599.808,959.8
600.34,961.8
600.872,958.2
601.404,956.8
601.936,960.4
602.468,956.9
603.0,955.0
603.532,957.9
604.064,949.5
604.595,949.0
605.127,945.4
605.658,939.7
606.189,937.3
606.721,937.7
607.252,929.3
607.783,929.7
608.314,925.4
608.845,926.1
609.376,921.2
609.907,917.2
610.438,915.8
610.968,914.9
611.499,918.2
612.029,911.6
612.56,912.2
613.09,909.6
613.621,906.9
614.151,905.1
614.681,905.1
615.211,906.0
615.741,903.7
616.271,902.7
616.801,903.5
617.331,906.1
617.861,908.8
618.39,908.8
618.92,907.2
619.45,905.5
619.979,912.0
620.509,910.6
621.038,914.4
621.567,922.8
622.096,943.2
622.626,937.7
623.155,916.8
623.684,914.2
624.213,915.5
624.742,917.1
625.271,919.7
625.799,924.2
626.328,943.7
626.857,1106.5
627.386,1403.6
627.914,1201.4
628.443,1372.0
628.971,1245.2
629.5,1162.6
630.028,1087.4
630.556,1068.7
631.084,993.3
631.613,949.7
632.141,936.8
632.669,935.6
633.197,935.4
633.725,938.8
634.253,929.4
634.781,930.6
635.308,924.6
635.836,924.2
636.364,926.9
636.891,925.9
637.419,916.1
637.947,917.1
638.474,914.4
639.002,912.5
639.529,914.5
640.056,906.0
640.584,905.0
641.111,905.1
641.638,903.4
642.165,903.3
642.692,901.1
643.219,897.8
643.746,892.4
644.273,896.1
644.8,893.7
645.327,893.0
645.854,893.3
646.381,893.4
646.908,894.4
647.434,888.0
647.961,889.6
648.488,887.4
649.014,890.8
649.541,887.1
650.067,888.4
650.594,888.8
651.12,887.3
651.646,885.8
652.173,884.7
652.699,889.0
653.225,889.7
653.752,888.4
654.278,886.5
654.804,887.1
655.33,885.7
655.856,886.7
656.382,885.1
656.908,884.8
657.434,881.5
657.96,884.1
658.486,883.6
659.012,884.1
659.538,883.1
660.064,878.0
660.589,881.7
661.115,874.2
661.641,871.9
662.166,873.7
662.692,870.3
663.086,872.2