File: spectra/VLFR_08-PLA_bio_Raman_be02c587.csv
nm,Intensity
526.547,831.1
527.095,832.95
527.642,832.8
528.189,832.85
528.736,832.35
529.283,832.55
529.829,831.8
530.376,831.5
530.922,832.1
531.468,832.1
532.014,834.3
532.56,832.05
533.106,831.85
533.651,835.9
534.196,1052.5
534.742,1004.0
535.287,971.15
535.832,952.8
536.376,946.6
536.921,949.15
537.465,939.3
538.01,938.85
538.554,928.35
539.098,927.75
539.642,919.2
540.186,920.35
540.729,935.7
541.273,935.1
541.816,925.05
542.36,921.3
542.903,927.1
543.446,949.85
543.988,961.15
544.531,933.5
545.074,924.15
545.616,921.45
546.158,924.65
546.701,921.4
547.243,926.7
547.785,922.4
548.326,924.05
548.868,929.45
549.41,932.4
549.951,930.15
550.492,931.25
551.034,932.45
551.575,937.4
552.116,938.55
552.656,942.8
553.197,941.75
553.738,939.95
554.278,949.1
554.819,942.55
555.359,938.35
555.899,933.2
556.439,934.8
556.979,937.45
557.519,954.35
558.058,1077.05
558.598,966.2
559.137,949.45
559.677,948.95
560.216,945.9
560.755,943.7
561.294,940.15
561.833,939.05
562.371,941.75
562.91,950.5
563.449,983.45
563.987,963.55
564.525,958.2
565.064,975.8
565.602,972.9
566.14,1005.4
566.678,964.7
567.216,953.85
567.753,956.05
568.291,955.75
568.828,959.05
569.366,957.1
569.903,955.3
570.44,954.9
570.977,959.25
571.514,978.15
572.051,978.1
572.588,968.1
573.125,973.35
573.661,977.0
574.198,970.5
574.734,981.0
575.271,963.35
575.807,961.8
576.343,981.5
576.879,1038.45
577.415,984.45
577.951,965.95
578.486,962.6
579.022,961.45
579.557,965.7
580.093,964.6
580.628,960.65
581.164,959.65
581.699,963.4
582.234,964.15
582.769,965.15
583.304,963.8
583.838,966.1
584.373,969.0
584.908,966.05
585.442,965.8
585.977,969.2
586.511,982.1
587.045,1016.3
587.58,1045.35
588.114,988.15
588.648,972.2
589.182,966.3
589.715,965.3
590.249,966.6
590.783,966.5
591.316,967.15
591.85,965.3
592.383,966.55
592.917,963.8
593.45,963.35
593.983,964.6
594.516,965.2
595.049,962.2
595.582,963.95
596.115,967.95
596.648,966.7
597.18,965.2
597.713,968.1
598.245,965.35
598.778,969.1
599.31,967.35
599.842,964.8
600.375,965.2
600.907,967.25
601.439,963.35
601.971,963.55
602.503,964.4
603.034,960.8
603.566,960.05
604.098,963.45
604.629,962.15
605.161,962.15
605.692,960.6
606.224,958.45
606.755,955.75
607.286,954.3
607.817,959.45
608.348,959.55
608.879,957.8
609.41,957.35
609.941,959.0
610.472,959.1
611.002,958.3
611.533,956.35
612.063,957.4
612.594,961.5
613.124,955.55
613.655,962.95
614.185,962.05
614.715,955.75
615.245,963.1
615.775,957.55
616.305,958.3
616.835,959.85
617.365,962.25
617.895,960.1
618.425,959.9
618.954,960.05
619.484,959.85
620.013,954.75
620.543,957.3
621.072,954.7
621.602,955.8
622.131,960.2
622.66,966.05
623.189,973.05
623.718,965.75
624.247,961.9
624.776,961.2
625.305,958.3
625.834,957.25
626.363,957.15
626.891,956.4
627.42,958.95
627.949,969.6
628.477,1045.95
629.006,1023.8
629.534,1021.4
630.062,1029.2
630.591,1099.05
631.119,1507.05
631.647,1217.95
632.175,1094.35
632.703,1068.3
633.231,1167.4
633.759,1119.15
634.287,1020.55
634.815,975.25
635.343,959.0
635.871,954.3
636.398,949.25
636.926,944.2
637.454,944.8
637.981,948.45
638.509,943.45
639.036,944.4
639.564,945.75
640.091,941.55
640.618,941.55
641.146,940.95
641.673,941.05
642.2,942.55
642.727,943.15
643.254,939.05
643.781,937.4
644.308,933.55
644.835,934.1
645.362,932.6
645.889,932.65
646.416,930.55
646.942,930.2
647.469,932.4
647.996,929.9
648.522,931.0
649.049,927.55
649.576,927.6
650.102,925.7
650.629,925.05
651.155,924.5
651.682,923.75
652.208,924.1
652.734,925.05
653.261,924.8
653.787,924.6
654.313,925.3
654.839,920.9
655.365,923.25
655.892,923.75
656.418,923.0
656.944,921.65
657.47,925.0
657.996,923.75
658.522,923.1
659.048,921.0
659.574,920.8
660.099,921.35
660.625,920.05
661.151,918.15
661.677,918.05
662.203,916.05
662.728,916.1
663.123,915.95