File: spectra/VLFR_01-LDPE_bio_Raman_502bf2fa.csv
nm,Intensity
526.547,832.5
527.095,832.05
527.642,831.9
528.189,833.75
528.736,831.5
529.283,833.4
529.829,832.65
530.376,832.7
530.922,831.65
531.468,832.0
532.014,843.2
532.56,833.15
533.106,832.6
533.651,833.7
534.196,895.3
534.742,888.0
535.287,877.45
535.832,871.85
536.376,868.15
536.921,865.9
537.465,865.2
538.01,863.4
538.554,861.85
539.098,860.95
539.642,859.7
540.186,859.9
540.729,856.45
541.273,857.05
541.816,857.3
542.36,856.8
542.903,857.1
543.446,857.25
543.988,857.3
544.531,857.1
545.074,858.95
545.616,857.75
546.158,856.6
546.701,857.15
547.243,855.95
547.785,857.4
548.326,857.75
548.868,856.65
549.41,857.4
549.951,856.7
550.492,858.55
551.034,857.6
551.575,858.95
552.116,857.9
552.656,857.65
553.197,860.1
553.738,860.55
554.278,859.8
554.819,858.2
555.359,861.35
555.899,862.35
556.439,862.5
556.979,863.9
557.519,864.65
558.058,866.8
558.598,869.4
559.137,867.0
559.677,865.45
560.216,864.95
560.755,862.9
561.294,865.2
561.833,868.05
562.371,866.8
562.91,867.9
563.449,872.65
563.987,909.3
564.525,884.25
565.064,879.7
565.602,878.75
566.14,929.65
566.678,878.25
567.216,873.85
567.753,872.1
568.291,870.55
568.828,872.55
569.366,874.15
569.903,875.8
570.44,879.6
570.977,884.3
571.514,954.15
572.051,898.55
572.588,886.95
573.125,884.05
573.661,887.05
574.198,894.1
574.734,888.95
575.271,894.75
575.807,922.35
576.343,977.4
576.879,951.1
577.415,928.95
577.951,921.5
578.486,919.7
579.022,926.3
579.557,934.9
580.093,936.55
580.628,942.45
581.164,950.1
581.699,959.05
582.234,967.35
582.769,972.9
583.304,983.25
583.838,990.15
584.373,998.85
584.908,1006.15
585.442,1017.9
585.977,1025.5
586.511,1038.65
587.045,1053.4
587.58,1057.8
588.114,1069.2
588.648,1078.0
589.182,1086.6
589.715,1095.65
590.249,1108.2
590.783,1121.35
591.316,1125.5
591.85,1129.55
592.383,1135.5
592.917,1139.3
593.45,1136.8
593.983,1135.0
594.516,1141.95
595.049,1146.4
595.582,1153.0
596.115,1151.6
596.648,1158.45
597.18,1169.15
597.713,1176.25
598.245,1182.1
598.778,1190.8
599.31,1197.45
599.842,1200.45
600.375,1204.15
600.907,1203.05
601.439,1201.15
601.971,1197.9
602.503,1188.0
603.034,1179.0
603.566,1176.25
604.098,1160.4
604.629,1150.55
605.161,1132.85
605.692,1119.5
606.224,1109.2
606.755,1092.95
607.286,1087.8
607.817,1076.05
608.348,1069.8
608.879,1062.15
609.41,1057.7
609.941,1047.55
610.472,1043.0
611.002,1035.55
611.533,1032.5
612.063,1031.65
612.594,1024.8
613.124,1022.65
613.655,1023.15
614.185,1014.15
614.715,1012.7
615.245,1000.65
615.775,1005.3
616.305,995.9
616.835,994.95
617.365,997.05
617.895,994.65
618.425,988.05
618.954,989.05
619.484,988.35
620.013,984.8
620.543,979.75
621.072,980.05
621.602,984.75
622.131,995.2
622.66,988.45
623.189,973.75
623.718,972.7
624.247,973.4
624.776,971.15
625.305,973.2
625.834,973.45
626.363,985.6
626.891,1113.25
627.42,1304.6
627.949,1176.45
628.477,1305.75
629.006,1222.0
629.534,1165.05
630.062,1116.7
630.591,1105.5
631.119,1023.65
631.647,992.15
632.175,984.2
632.703,972.7
633.231,973.75
633.759,971.35
634.287,972.45
634.815,972.45
635.343,969.8
635.871,975.25
636.398,974.85
636.926,977.2
637.454,974.9
637.981,975.75
638.509,980.05
639.036,978.8
639.564,984.5
640.091,983.0
640.618,985.55
641.146,986.3
641.673,988.25
642.2,989.8
642.727,994.3
643.254,989.4
643.781,993.55
644.308,991.3
644.835,992.8
645.362,993.85
645.889,990.6
646.416,989.55
646.942,993.95
647.469,992.45
647.996,991.25
648.522,990.75
649.049,992.3
649.576,987.1
650.102,993.6
650.629,993.65
651.155,989.55
651.682,989.0
652.208,994.9
652.734,993.95
653.261,990.45
653.787,992.1
654.313,989.2
654.839,991.45
655.365,988.95
655.892,987.5
656.418,983.1
656.944,982.8
657.47,975.3
657.996,976.65
658.522,975.0
659.048,966.85
659.574,965.75
660.099,962.85
660.625,953.05
661.151,948.65
661.677,946.6
662.203,941.15
662.728,935.2
663.123,933.15