File: spectra/VLFR_02-HDPE_nobio_Raman_92d8d1ab.csv
nm,Intensity
526.5,827.5
527.047,826.9
527.594,828.8
528.14,826.4
528.687,826.3
529.233,827.5
529.779,827.3
530.325,827.0
530.871,827.2
531.417,827.7
531.962,833.1
532.508,826.7
533.053,827.2
533.599,826.9
534.144,862.8
534.689,854.3
535.234,849.6
535.778,845.7
536.323,841.9
536.867,840.7
537.412,841.3
537.956,841.9
538.5,841.2
539.044,841.1
539.588,839.0
540.132,837.1
540.675,836.9
541.219,839.4
541.762,838.7
542.305,838.6
542.848,836.0
543.391,838.0
543.934,837.0
544.477,836.4
545.02,835.4
545.562,837.1
546.105,836.1
546.647,837.7
547.189,836.4
547.731,836.6
548.273,837.2
548.815,834.9
549.356,835.9
549.898,837.2
550.439,838.3
550.981,838.3
551.522,837.1
552.063,836.7
552.604,839.2
553.145,836.7
553.686,837.4
554.226,837.2
554.767,840.3
555.307,839.5
555.848,839.0
556.388,838.9
556.928,839.3
557.468,840.3
558.008,843.2
558.547,843.0
559.087,842.7
559.626,841.3
560.166,841.5
560.705,842.5
561.244,841.9
561.783,841.6
562.322,841.5
562.861,844.4
563.4,848.3
563.939,890.7
564.477,855.2
565.015,852.9
565.554,849.6
566.092,936.4
566.63,855.7
567.168,847.5
567.706,849.2
568.244,846.4
568.781,845.8
569.319,846.7
569.857,845.0
570.394,850.4
570.931,854.3
571.468,920.0
572.005,863.1
572.542,851.7
573.079,849.1
573.616,848.5
574.153,855.4
574.689,849.9
575.226,856.8
575.762,904.4
576.298,902.1
576.834,884.9
577.371,873.8
577.907,858.9
578.442,857.1
578.978,858.4
579.514,859.2
580.049,863.6
580.585,865.9
581.12,867.7
581.656,868.8
582.191,873.0
582.726,875.5
583.261,879.6
583.796,880.9
584.331,882.4
584.865,882.3
585.4,883.7
585.935,887.8
586.469,890.5
587.004,894.8
587.538,895.8
588.072,899.3
588.606,900.0
589.14,904.5
589.674,905.5
590.208,908.6
590.742,914.9
591.275,914.7
591.809,922.2
592.342,923.0
592.876,927.7
593.409,928.5
593.942,934.8
594.476,935.3
595.009,939.0
595.542,942.1
596.075,943.3
596.607,940.7
597.14,939.0
597.673,939.8
598.205,938.1
598.738,936.9
599.27,937.4
599.803,928.6
600.335,930.9
600.867,925.7
601.399,927.9
601.931,923.7
602.463,921.7
602.995,920.3
603.527,918.3
604.058,919.2
604.59,913.7
605.122,913.4
605.653,909.0
606.184,906.9
606.716,906.0
607.247,901.6
607.778,902.5
608.309,901.0
608.84,897.9
609.371,894.9
609.902,895.5
610.433,890.0
610.964,893.1
611.494,889.4
612.025,890.3
612.556,885.9
613.086,883.6
613.616,886.9
614.147,886.7
614.677,883.7
615.207,883.2
615.737,882.3
616.267,881.3
616.797,881.5
617.327,881.2
617.857,879.9
618.387,880.2
618.917,880.6
619.446,878.1
619.976,882.2
620.505,879.2
621.035,883.1
621.564,882.8
622.093,892.8
622.623,892.4
623.152,883.2
623.681,878.9
624.21,880.0
624.739,877.5
625.268,883.6
625.797,885.2
626.326,891.5
626.855,982.1
627.383,1171.2
627.912,1043.5
628.441,1098.8
628.969,1065.2
629.498,1025.6
630.026,987.0
630.554,980.1
631.083,931.3
631.611,900.3
632.139,893.6
632.667,890.2
633.195,891.0
633.724,889.1
634.252,888.6
634.779,891.4
635.307,888.7
635.835,886.8
636.363,887.3
636.891,890.2
637.418,890.2
637.946,889.8
638.474,889.0
639.001,889.8
639.529,886.1
640.056,888.6
640.583,890.0
641.111,888.4
641.638,890.9
642.165,889.2
642.692,886.0
643.22,888.2
643.747,888.1
644.274,885.5
644.801,879.7
645.328,885.2
645.854,884.6
646.381,887.4
646.908,887.0
647.435,884.6
647.962,884.9
648.488,886.4
649.015,883.2
649.542,880.5
650.068,880.5
650.595,879.7
651.121,881.3
651.648,876.0
652.174,878.7
652.7,877.4
653.227,876.5
653.753,876.9
654.279,875.4
654.805,876.8
655.331,875.4
655.858,875.1
656.384,873.8
656.91,876.2
657.436,876.6
657.962,873.0
658.488,872.1
659.013,871.4
659.539,871.5
660.065,870.9
660.591,869.5
661.117,868.1
661.642,869.0
662.168,866.9
662.694,865.9
663.088,864.7