File: spectra/VLFR_06-PET_bio_Raman_abd572ea.csv
nm,Intensity
528.626,1867.0
529.132,1865.6
529.637,1866.6
530.143,1865.7
530.648,1868.2
531.153,1868.5
531.658,1899.4
532.164,4122.5
532.669,1874.1
533.174,1882.4
533.679,3657.9
534.184,9225.3
534.689,6955.2
535.194,5296.5
535.699,4042.9
536.203,3252.4
536.708,2986.6
537.213,2813.5
537.717,2756.2
538.222,2793.0
538.726,2788.1
539.231,2808.2
539.735,2944.8
540.239,2820.3
540.744,2619.5
541.248,2525.7
541.752,2493.9
542.256,2517.7
542.76,2509.1
543.264,2507.4
543.768,2526.2
544.272,2533.5
544.776,2520.0
545.28,2554.8
545.784,2560.3
546.287,2568.8
546.791,2579.3
547.294,2562.2
547.798,2609.0
548.301,2614.1
548.805,2624.8
549.308,2626.3
549.811,2626.2
550.315,2784.5
550.818,3409.4
551.321,2693.5
551.824,2720.0
552.327,2725.7
552.83,3188.7
553.333,2788.8
553.835,2798.6
554.338,2765.7
554.841,2801.9
555.343,3024.6
555.846,3306.4
556.349,3402.1
556.851,3560.0
557.353,4432.7
557.856,4057.3
558.358,3646.3
558.86,3372.0
559.362,3015.6
559.864,2994.8
560.366,2957.3
560.868,2990.1
561.37,3075.4
561.872,3081.1
562.374,3164.0
562.876,3305.4
563.377,3307.8
563.879,3179.8
564.38,3240.9
564.882,3520.6
565.383,4087.4
565.885,4382.7
566.386,3693.9
566.887,3321.3
567.388,3504.3
567.889,3750.0
568.391,3390.3
568.892,3294.0
569.392,3442.8
569.893,3648.7
570.394,4133.2
570.895,5302.7
571.395,6337.4
571.896,4910.4
572.397,4006.2
572.897,3655.9
573.397,3650.4
573.898,3800.5
574.398,3760.0
574.898,3761.0
575.398,4154.7
575.898,3789.4
576.398,4004.8
576.898,4121.8
577.398,3827.3
577.898,3746.6
578.398,3753.2
578.897,3741.3
579.397,3763.6
579.896,3809.7
580.396,3860.3
580.895,4028.2
581.395,4320.5
581.894,8853.4
582.393,8841.1
582.892,4181.2
583.391,3979.2
583.89,3986.9
584.389,4091.4
584.888,4193.1
585.387,5425.1
585.886,9465.8
586.384,7494.0
586.883,4613.1
587.381,4026.9
587.88,4040.8
588.378,4043.4
588.876,4059.6
589.375,3967.9
589.873,4005.5
590.371,3968.9
590.869,4007.6
591.367,4050.3
591.865,3953.0
592.363,4015.8
592.86,4003.7
593.358,3971.8
593.856,4016.1
594.353,4001.0
594.851,4056.3
595.348,4119.4
595.845,4010.9
596.342,4059.4
596.84,4108.6
597.337,3998.7
597.834,4083.2
598.331,4079.1
598.828,4084.4
599.324,4131.3
599.821,4104.5
600.318,4157.3
600.814,4115.1
601.311,4126.5
601.807,4085.9
602.304,4110.5
602.8,4105.2
603.296,4127.9
603.792,4213.8
604.288,4249.2
604.784,4199.1
605.28,4103.5
605.776,4178.6
606.272,4207.2
606.767,4218.3
607.263,4167.0
607.759,4218.2
608.254,4247.2
608.749,4246.0
609.245,4236.4
609.74,4317.6
610.235,4233.2
610.73,4263.3
611.225,4268.0
611.72,4250.2
612.215,4359.8
612.71,4276.8
613.204,4286.5
613.699,4329.0
614.194,4364.5
614.688,4376.7
615.182,4309.0
615.677,4347.4
616.171,4367.4
616.665,4390.7
617.159,4422.0
617.653,4483.2
618.147,4465.1
618.641,4443.0
619.135,4511.9
619.628,4431.5
620.122,4481.2
620.615,4486.4
621.109,4499.2
621.602,4535.0
622.095,4526.4
622.589,4589.0
623.082,4484.8
623.575,4543.5
624.068,4595.3
624.561,4736.8
625.053,4685.5
625.546,4623.3
626.039,4551.2
626.531,4566.3
627.024,4665.4
627.516,4696.7
628.008,4752.3
628.501,4911.1
628.993,5138.3
629.485,5119.7
629.977,5050.2
630.469,5060.4
630.96,5499.3
631.452,6396.8
631.944,6792.4
632.435,6033.3
632.927,5661.2
633.418,5692.0
633.91,5422.4
634.401,5199.4
634.892,5155.1
635.383,5356.0
635.874,5887.6
636.365,6971.8
636.856,6704.5
637.346,5615.2
637.837,5261.5
638.327,5297.7
638.818,5262.9
639.308,5170.8
639.799,5190.5
640.289,5066.1
640.779,5140.4
641.269,5066.5
641.759,5122.6
642.249,5307.2
642.738,5248.4
643.228,5073.4
643.718,5131.7
644.207,5189.8
644.697,5093.9
645.186,5263.5
645.675,5104.9
646.164,5192.6
646.653,5076.8
647.142,5120.6
647.631,5182.9
648.12,5038.5
648.609,5159.4
649.098,4962.7
649.586,5061.8
650.075,5091.9
650.563,5027.5
651.051,5022.1
651.539,5023.1
652.027,4955.0
652.515,4849.2
653.003,4947.8
653.491,4864.3
653.979,4849.1
654.467,4849.0
654.954,4794.3
655.442,4795.7
655.929,4751.6
656.416,4783.7
656.904,4785.5
657.391,4748.8
657.878,4788.1
658.365,4549.2
658.851,4549.8
659.338,4504.4
659.825,4405.6
660.311,4511.2
660.798,4463.5
661.041,4441.6