File: spectra/VLFR_02-HDPE_nobio_Raman_e9ca17e8.csv
nm,Intensity
528.65,1834.4
529.155,1835.35
529.66,1835.15
530.165,1834.5
530.67,1834.0
531.175,1835.4
531.68,1843.15
532.185,2380.7
532.69,1835.0
533.194,1836.15
533.699,1888.3
534.204,2023.2
534.708,2019.05
535.213,2022.85
535.717,1989.3
536.222,1977.75
536.726,1973.1
537.231,1966.9
537.735,1975.95
538.239,1970.6
538.743,1965.5
539.247,1959.9
539.751,1954.85
540.255,1953.55
540.759,1955.75
541.263,1955.8
541.767,1963.1
542.271,1958.35
542.775,1956.35
543.279,1957.1
543.782,1960.05
544.286,1956.65
544.789,1961.6
545.293,1961.35
545.796,1963.4
546.3,1954.6
546.803,1962.55
547.306,1962.15
547.81,1963.6
548.313,1964.25
548.816,1960.35
549.319,1961.65
549.822,1962.5
550.325,1972.35
550.828,1967.45
551.331,1967.3
551.834,1971.95
552.337,1971.6
552.839,1963.05
553.342,1982.75
553.844,1978.05
554.347,1978.5
554.849,1990.4
555.352,1988.8
555.854,1990.35
556.357,1992.15
556.859,2002.9
557.361,2004.95
557.863,2008.1
558.365,2014.9
558.867,2002.3
559.369,2005.15
559.871,2005.05
560.373,2006.0
560.875,2020.9
561.377,2013.45
561.878,2018.1
562.38,2021.35
562.881,2040.85
563.383,2039.0
563.884,2237.7
564.386,2083.95
564.887,2069.7
565.388,2059.15
565.89,2164.4
566.391,2182.2
566.892,2045.3
567.393,2089.1
567.894,2042.85
568.395,2037.4
568.896,2038.9
569.396,2052.9
569.897,2044.4
570.398,2056.9
570.898,2072.15
571.399,2482.85
571.9,2167.95
572.4,2091.15
572.9,2066.15
573.401,2081.35
573.901,2107.3
574.401,2083.25
574.901,2093.9
575.401,2215.2
575.901,2268.7
576.401,2446.2
576.901,2354.05
577.401,2250.5
577.901,2152.45
578.4,2162.05
578.9,2161.35
579.399,2179.15
579.899,2185.9
580.398,2187.55
580.898,2201.8
581.397,2203.6
581.896,2222.25
582.395,2229.15
582.895,2234.55
583.394,2231.85
583.893,2220.25
584.391,2243.05
584.89,2227.1
585.389,2236.45
585.888,2233.7
586.386,2225.25
586.885,2222.45
587.384,2218.55
587.882,2209.05
588.38,2205.85
588.879,2191.95
589.377,2195.1
589.875,2180.1
590.373,2203.35
590.871,2197.6
591.369,2198.0
591.867,2186.65
592.365,2184.85
592.863,2201.05
593.361,2194.65
593.858,2196.55
594.356,2194.8
594.853,2202.4
595.351,2204.8
595.848,2205.85
596.345,2207.2
596.843,2212.8
597.34,2221.25
597.837,2216.05
598.334,2206.0
598.831,2222.95
599.328,2227.05
599.824,2210.2
600.321,2210.65
600.818,2228.85
601.314,2214.2
601.811,2226.35
602.307,2226.5
602.804,2203.25
603.3,2219.15
603.796,2206.25
604.293,2213.35
604.789,2194.1
605.285,2187.5
605.781,2179.35
606.277,2177.9
606.772,2173.15
607.268,2164.4
607.764,2149.85
608.259,2146.9
608.755,2146.55
609.25,2141.5
609.746,2140.0
610.241,2130.25
610.736,2145.15
611.231,2146.05
611.727,2133.3
612.222,2115.0
612.716,2119.35
613.211,2112.45
613.706,2113.0
614.201,2113.95
614.695,2106.55
615.19,2113.9
615.684,2112.0
616.179,2114.5
616.673,2123.75
617.168,2134.35
617.662,2131.7
618.156,2132.0
618.65,2132.7
619.144,2129.1
619.638,2149.65
620.131,2151.65
620.625,2158.45
621.119,2180.3
621.612,2244.5
622.106,2316.5
622.599,2291.1
623.093,2181.05
623.586,2153.85
624.079,2160.35
624.572,2152.35
625.065,2152.05
625.558,2181.15
626.051,2250.3
626.544,2695.35
627.037,4595.3
627.529,4264.15
628.022,3699.05
628.514,5178.45
629.007,3704.3
629.499,3292.15
629.991,2940.05
630.483,2926.35
630.976,2479.15
631.468,2237.25
631.959,2189.05
632.451,2172.55
632.943,2158.45
633.435,2155.05
633.926,2149.1
634.418,2134.05
634.909,2121.85
635.401,2107.85
635.892,2120.2
636.383,2125.15
636.874,2113.85
637.365,2097.5
637.856,2084.7
638.347,2102.05
638.838,2075.65
639.329,2076.15
639.819,2068.0
640.31,2067.5
640.8,2062.3
641.291,2064.85
641.781,2052.1
642.271,2052.45
642.761,2045.65
643.251,2042.75
643.741,2043.15
644.231,2052.6
644.721,2049.3
645.211,2038.4
645.7,2039.2
646.19,2030.5
646.679,2034.0
647.169,2024.9
647.658,2019.7
648.147,2019.15
648.636,2025.55
649.125,2023.1
649.614,2006.2
650.103,2013.45
650.592,2026.05
651.08,2010.9
651.569,2002.0
652.058,2004.0
652.546,2004.8
653.034,2007.45
653.523,2002.85
654.011,2006.0
654.499,1991.0
654.987,2002.55
655.475,1993.2
655.963,1982.15
656.45,1978.4
656.938,1987.75
657.425,1986.5
657.913,1982.0
658.4,1973.15
658.888,1978.7
659.375,1970.3
659.862,1974.0
660.349,1973.8
660.836,1967.4
661.079,1963.5