File: spectra/VLFR_01-LDPE_nobio_Raman_923b8375.csv
nm,Intensity
526.486,829.8
527.033,830.0
527.579,830.2
528.126,827.9
528.672,827.9
529.219,829.6
529.765,828.9
530.311,829.7
530.857,829.5
531.403,829.0
531.948,829.4
532.494,829.1
533.039,828.2
533.585,829.0
534.13,872.6
534.675,867.6
535.22,860.6
535.764,856.4
536.309,853.2
536.854,851.6
537.398,849.9
537.942,852.9
538.486,849.9
539.03,850.5
539.574,847.9
540.118,844.4
540.662,845.3
541.205,845.9
541.749,844.2
542.292,845.1
542.835,847.4
543.378,845.4
543.921,844.6
544.464,844.1
545.006,842.8
545.549,842.7
546.091,843.8
546.634,844.8
547.176,843.5
547.718,844.2
548.26,841.2
548.802,841.4
549.343,840.6
549.885,843.7
550.426,842.9
550.968,840.6
551.509,842.7
552.05,841.0
552.591,841.6
553.132,840.1
553.673,844.1
554.214,842.8
554.754,842.8
555.295,842.4
555.835,842.5
556.375,844.7
556.915,846.2
557.455,847.4
557.995,848.3
558.535,849.4
559.075,848.3
559.614,846.5
560.154,845.6
560.693,846.7
561.232,845.6
561.772,847.0
562.311,848.2
562.85,851.7
563.388,850.2
563.927,874.9
564.466,862.2
565.004,857.0
565.543,858.5
566.081,888.5
566.619,858.9
567.157,850.8
567.695,855.1
568.233,850.4
568.771,849.7
569.309,852.7
569.846,851.5
570.384,854.8
570.921,855.4
571.458,889.8
571.995,872.4
572.532,860.2
573.069,856.9
573.606,856.0
574.143,859.4
574.68,854.8
575.216,856.8
575.753,882.1
576.289,913.1
576.825,893.0
577.361,879.7
577.897,862.1
578.433,862.9
578.969,862.7
579.505,864.1
580.041,862.3
580.576,868.8
581.112,866.8
581.647,867.7
582.183,872.2
582.718,874.3
583.253,875.1
583.788,877.6
584.323,877.7
584.858,877.5
585.392,878.2
585.927,884.7
586.462,885.2
586.996,885.2
587.53,887.9
588.065,888.0
588.599,891.2
589.133,894.9
589.667,898.7
590.201,899.3
590.735,906.2
591.268,904.5
591.802,904.5
592.335,909.0
592.869,909.9
593.402,907.9
593.936,906.9
594.469,912.7
595.002,918.3
595.535,919.1
596.068,914.4
596.601,920.6
597.133,923.2
597.666,921.5
598.199,924.0
598.731,927.3
599.264,925.0
599.796,927.5
600.328,927.6
600.86,923.8
601.393,925.5
601.925,924.5
602.457,922.0
602.988,924.2
603.52,919.7
604.052,917.2
604.583,910.8
605.115,910.1
605.646,901.4
606.178,907.7
606.709,902.3
607.24,901.6
607.771,897.8
608.302,898.6
608.833,896.0
609.364,899.5
609.895,893.4
610.426,891.2
610.957,893.0
611.487,889.3
612.018,892.1
612.548,891.3
613.078,888.3
613.609,887.0
614.139,888.5
614.669,884.2
615.199,890.2
615.729,885.0
616.259,884.7
616.789,884.7
617.319,883.1
617.849,884.3
618.378,881.5
618.908,882.3
619.437,882.4
619.967,884.9
620.496,882.9
621.025,883.5
621.555,884.5
622.084,894.8
622.613,892.1
623.142,881.5
623.671,877.8
624.2,876.8
624.729,875.5
625.258,876.2
625.786,880.2
626.315,892.5
626.844,968.1
627.372,1183.5
627.901,1060.8
628.429,1116.2
628.957,1103.5
629.486,1051.6
630.014,1008.7
630.542,992.4
631.07,936.8
631.598,897.5
632.126,883.7
632.654,876.8
633.182,874.4
633.71,873.1
634.237,867.7
634.765,869.3
635.293,867.1
635.82,871.2
636.348,866.6
636.875,870.7
637.403,869.0
637.93,866.4
638.458,868.1
638.985,867.8
639.512,868.4
640.039,869.8
640.566,869.1
641.093,870.5
641.62,871.2
642.147,870.3
642.674,870.1
643.201,871.1
643.728,871.1
644.255,870.9
644.781,870.7
645.308,873.0
645.835,871.1
646.361,869.7
646.888,873.1
647.414,871.8
647.941,870.8
648.467,870.9
648.993,868.6
649.52,871.0
650.046,871.9
650.572,869.8
651.098,873.8
651.625,868.2
652.151,872.8
652.677,869.2
653.203,869.9
653.729,871.3
654.255,869.1
654.78,870.0
655.306,867.9
655.832,868.8
656.358,868.1
656.884,867.1
657.409,868.7
657.935,866.4
658.461,863.9
658.986,867.7
659.512,862.5
660.037,862.8
660.563,863.3
661.088,860.6
661.614,860.2
662.139,861.7
662.664,858.6
663.058,857.0