File: spectra/VLFR_06-PET_nobio_Raman_f6ff5400.csv
cm-1,Intensity
-123.878,1856.9
-105.821,1856.7
-87.8007,1857.2
-69.8161,1856.2
-51.8675,1857.7
-33.9547,1860.0
-16.0776,1900.75
1.76388,3357.5
19.5698,1863.55
37.3403,1869.7
55.0755,3389.3
72.7754,6660.65
90.4402,5414.65
108.07,4260.2
125.665,3418.7
143.225,2913.8
160.75,2719.75
178.241,2646.0
195.697,2601.55
213.119,2636.7
230.506,2647.65
247.859,2652.1
265.178,2780.0
282.463,2692.0
299.713,2580.6
316.93,2509.05
334.113,2523.5
351.263,2541.35
368.379,2552.1
385.461,2547.95
402.51,2587.3
419.526,2557.25
436.508,2594.15
453.458,2609.9
470.374,2619.45
487.257,2629.1
504.107,2625.55
520.925,2658.05
537.71,2689.25
554.462,2692.45
571.182,2702.9
587.87,2698.35
604.525,2703.55
621.148,2829.0
637.739,3138.65
654.297,2776.45
670.824,2781.95
687.319,2834.95
703.782,3122.75
720.213,2852.3
736.613,2885.2
752.981,2890.65
769.317,2922.65
785.623,3103.25
801.897,3252.6
818.139,3379.8
834.351,3458.5
850.532,4152.95
866.681,3768.5
882.8,3605.75
898.888,3414.75
914.945,3161.6
930.972,3193.75
946.968,3162.9
962.934,3236.95
978.869,3294.8
994.774,3351.0
1010.65,3413.75
1026.49,3518.4
1042.31,3469.05
1058.09,3424.7
1073.85,3461.15
1089.57,3732.8
1105.27,4139.6
1120.93,4361.65
1136.57,3782.65
1152.18,3548.65
1167.75,3766.25
1183.3,3877.75
1198.82,3625.9
1214.31,3590.3
1229.77,3632.95
1245.2,3830.55
1260.6,4216.0
1275.97,4948.1
1291.32,5524.85
1306.63,4701.6
1321.92,4073.35
1337.18,3813.05
1352.41,3839.55
1367.61,3974.9
1382.78,3940.55
1397.93,3994.0
1413.05,4177.6
1428.14,4026.1
1443.2,4262.9
1458.23,4274.65
1473.23,4083.6
1488.21,4000.4
1503.16,4022.2
1518.08,4009.7
1532.97,4035.9
1547.84,4108.65
1562.68,4164.7
1577.49,4284.45
1592.27,4477.1
1607.03,7755.25
1621.76,7150.55
1636.46,4323.45
1651.14,4341.65
1665.78,4340.75
1680.41,4407.35
1695.0,4549.95
1709.57,5409.6
1724.11,8029.75
1738.62,6815.95
1753.11,4816.65
1767.57,4542.95
1782.01,4509.35
1796.41,4461.2
1810.8,4530.35
1825.15,4497.4
1839.48,4522.5
1853.79,4432.1
1868.06,4533.2
1882.31,4501.05
1896.54,4552.15
1910.74,4611.2
1924.91,4535.25
1939.06,4583.85
1953.19,4601.2
1967.28,4665.1
1981.35,4647.2
1995.4,4664.7
2009.42,4629.4
2023.42,4756.4
2037.39,4707.55
2051.33,4772.15
2065.25,4705.7
2079.15,4738.55
2093.01,4674.95
2106.86,4722.3
2120.68,4822.5
2134.47,4718.55
2148.24,4743.5
2161.99,4711.9
2175.71,4761.65
2189.41,4861.25
2203.08,4898.5
2216.73,4787.3
2230.35,4831.65
2243.95,4855.75
2257.52,4795.25
2271.07,4768.4
2284.6,4811.65
2298.1,4757.0
2311.58,4774.2
2325.03,4851.1
2338.46,4819.0
2351.87,4887.15
2365.25,4846.3
2378.61,4836.45
2391.94,4820.75
2405.26,4873.25
2418.54,4843.45
2431.81,4825.3
2445.05,4893.4
2458.27,4850.8
2471.46,4855.7
2484.63,4899.5
2497.78,4893.5
2510.9,4842.55
2524.0,4973.9
2537.08,4820.55
2550.14,4881.1
2563.17,4913.9
2576.18,4894.35
2589.17,4885.3
2602.13,4896.45
2615.07,4992.95
2627.99,4985.7
2640.89,4958.1
2653.76,4991.4
2666.61,4909.3
2679.44,4912.85
2692.25,4945.55
2705.03,4924.25
2717.79,4946.55
2730.53,4929.0
2743.25,4994.85
2755.94,4986.5
2768.61,5009.8
2781.27,5061.45
2793.89,5100.95
2806.5,5063.75
2819.09,5122.7
2831.65,5045.15
2844.19,5158.3
2856.71,5127.3
2869.21,5205.35
2881.69,5332.5
2894.14,5438.3
2906.58,5487.75
2918.99,5419.0
2931.38,5268.5
2943.75,5831.6
2956.1,6475.95
2968.42,6481.1
2980.73,6106.5
2993.01,6041.6
3005.28,5952.25
3017.52,5827.7
3029.74,5677.0
3041.94,5595.45
3054.12,5733.05
3066.28,6133.05
3078.42,6941.55
3090.54,6648.65
3102.63,5964.65
3114.71,5785.8
3126.77,5751.8
3138.8,5671.2
3150.82,5709.65
3162.81,5646.0
3174.78,5737.85
3186.74,5773.75
3198.67,5807.75
3210.58,5713.25
3222.47,5800.9
3234.35,5768.75
3246.2,5837.7
3258.03,5776.0
3269.84,5868.8
3281.64,5810.45
3293.41,5908.7
3305.16,5843.65
3316.89,5777.35
3328.61,5809.7
3340.3,5741.3
3351.97,5828.65
3363.63,5798.3
3375.26,5709.5
3386.88,5729.8
3398.47,5744.6
3410.05,5725.75
3421.6,5741.1
3433.14,5662.8
3444.66,5740.8
3456.15,5703.2
3467.63,5691.75
3479.09,5676.25
3490.53,5725.5
3501.96,5592.15
3513.36,5583.65
3524.74,5569.5
3536.11,5511.35
3547.45,5542.4
3558.78,5404.0
3570.09,5421.9
3581.37,5471.75
3592.64,5410.25
3603.9,5351.85
3615.13,5311.85
3626.34,5186.55
3637.54,5148.65
3648.72,5102.9
3659.87,5310.15
3665.45,5196.2