File: spectra/VLFR_08-PLA_bio_Raman_c64d5ab4.csv
nm,Intensity
526.495,829.2
527.042,828.7
527.589,829.6
528.136,830.0
528.682,828.8
529.229,830.6
529.775,829.0
530.321,830.6
530.867,829.5
531.413,830.1
531.959,835.0
532.505,829.0
533.051,828.6
533.596,830.7
534.141,951.4
534.687,919.1
535.232,899.8
535.777,894.0
536.321,886.1
536.866,888.5
537.41,881.5
537.955,882.5
538.499,877.7
539.043,874.8
539.587,872.7
540.131,870.0
540.675,882.0
541.219,880.7
541.762,874.7
542.305,871.0
542.849,870.9
543.392,885.8
543.935,891.1
544.478,880.1
545.02,874.4
545.563,869.4
546.106,870.3
546.648,869.3
547.19,872.0
547.732,871.4
548.274,874.0
548.816,874.5
549.358,874.4
549.9,873.2
550.441,875.4
550.983,876.5
551.524,880.0
552.065,878.4
552.606,880.0
553.147,877.4
553.688,880.7
554.229,881.9
554.769,881.4
555.31,878.4
555.85,874.2
556.391,876.6
556.931,877.7
557.471,887.3
558.011,956.9
558.551,897.1
559.09,885.9
559.63,885.1
560.169,880.7
560.709,880.1
561.248,879.7
561.787,878.9
562.326,880.1
562.865,884.9
563.404,905.3
563.943,892.4
564.481,889.5
565.02,896.9
565.558,893.8
566.096,913.2
566.634,893.7
567.172,883.3
567.71,884.1
568.248,886.9
568.786,887.5
569.324,886.8
569.861,884.4
570.399,890.0
570.936,891.2
571.473,899.2
572.01,897.4
572.547,895.9
573.084,897.3
573.621,903.4
574.158,893.3
574.694,905.0
575.231,886.7
575.767,891.2
576.303,901.9
576.84,937.2
577.376,906.1
577.912,889.0
578.448,891.2
578.984,892.8
579.519,891.6
580.055,889.1
580.59,890.4
581.126,893.0
581.661,889.2
582.196,890.9
582.731,894.4
583.267,893.6
583.801,889.8
584.336,894.4
584.871,893.3
585.406,894.6
585.94,897.3
586.475,901.2
587.009,921.6
587.543,932.3
588.078,909.2
588.612,894.5
589.146,895.1
589.68,891.5
590.214,895.9
590.747,896.9
591.281,893.9
591.815,893.7
592.348,892.4
592.881,893.2
593.415,893.1
593.948,893.9
594.481,891.7
595.014,891.3
595.547,893.1
596.08,895.2
596.613,890.5
597.146,893.7
597.678,892.2
598.211,892.6
598.743,895.2
599.276,890.4
599.808,893.2
600.34,891.0
600.872,891.9
601.404,891.2
601.936,891.1
602.468,892.2
603.0,894.2
603.532,893.0
604.064,893.0
604.595,892.7
605.127,892.2
605.658,891.5
606.189,887.1
606.721,889.1
607.252,889.1
607.783,892.4
608.314,891.9
608.845,889.7
609.376,891.3
609.907,890.5
610.438,889.1
610.968,887.3
611.499,888.0
612.029,891.0
612.56,891.1
613.09,892.4
613.621,893.8
614.151,890.8
614.681,894.8
615.211,890.9
615.741,891.8
616.271,895.4
616.801,888.3
617.331,892.2
617.861,890.6
618.39,892.3
618.92,889.3
619.45,889.6
619.979,885.6
620.509,889.3
621.038,891.4
621.567,891.5
622.096,890.9
622.626,896.9
623.155,899.5
623.684,896.4
624.213,894.7
624.742,893.8
625.271,890.3
625.799,892.3
626.328,888.8
626.857,893.7
627.386,894.6
627.914,902.0
628.443,948.8
628.971,935.2
629.5,938.3
630.028,943.0
630.556,989.0
631.084,1240.4
631.613,1064.8
632.141,983.0
632.669,962.3
633.197,1032.9
633.725,1000.9
634.253,937.1
634.781,904.8
635.308,892.1
635.836,888.6
636.364,887.7
636.891,887.5
637.419,882.7
637.947,884.7
638.474,885.0
639.002,882.1
639.529,886.0
640.056,882.7
640.584,881.8
641.111,882.6
641.638,881.6
642.165,882.2
642.692,881.4
643.219,884.4
643.746,880.8
644.273,879.6
644.8,877.9
645.327,877.9
645.854,881.3
646.381,877.0
646.908,881.2
647.434,877.0
647.961,877.1
648.488,878.9
649.014,878.5
649.541,879.0
650.067,874.9
650.594,877.3
651.12,874.8
651.646,875.4
652.173,874.5
652.699,874.4
653.225,873.8
653.752,874.7
654.278,876.2
654.804,875.4
655.33,872.0
655.856,872.4
656.382,873.6
656.908,871.3
657.434,872.8
657.96,874.6
658.486,874.1
659.012,873.8
659.538,874.8
660.064,869.3
660.589,872.2
661.115,874.5
661.641,871.1
662.166,868.0
662.692,871.5
663.086,869.3