File: spectra/VLFR_06-PET_bio_Raman_cdc18f22.csv
nm,Intensity
526.493,828.95
527.039,829.8
527.586,829.25
528.133,829.15
528.679,829.2
529.225,829.55
529.771,829.35
530.317,829.55
530.863,829.5
531.409,829.95
531.955,833.05
532.5,830.05
533.046,829.7
533.591,843.35
534.136,2497.55
534.681,2260.95
535.226,1958.2
535.771,1830.7
536.315,1739.9
536.86,1695.75
537.404,1685.9
537.948,1687.85
538.493,1705.1
539.037,1710.9
539.58,1742.7
540.124,1744.0
540.668,1719.2
541.211,1730.15
541.755,1744.7
542.298,1742.95
542.841,1754.45
543.384,1770.15
543.927,1791.25
544.47,1789.2
545.013,1809.5
545.555,1811.45
546.098,1826.5
546.64,1839.55
547.182,1846.6
547.724,1851.6
548.266,1863.85
548.808,1872.85
549.35,1888.15
549.892,1902.0
550.433,1906.75
550.974,1929.0
551.516,1933.2
552.057,1944.25
552.598,1954.3
553.139,1960.2
553.68,1970.1
554.22,1971.2
554.761,1989.75
555.301,1987.1
555.842,2023.0
556.382,2032.4
556.922,2059.05
557.462,2160.7
558.002,2078.4
558.542,2064.85
559.082,2047.5
559.621,2049.85
560.161,2074.0
560.7,2064.7
561.239,2068.75
561.778,2078.35
562.317,2089.1
562.856,2130.5
563.395,2137.4
563.934,2160.5
564.472,2171.25
565.011,2216.05
565.549,2258.5
566.088,2257.55
566.626,2204.65
567.164,2202.85
567.702,2270.75
568.24,2225.3
568.777,2249.9
569.315,2269.4
569.853,2302.9
570.39,2335.95
570.927,2429.5
571.465,2491.85
572.002,2396.0
572.539,2346.7
573.076,2352.4
573.612,2371.0
574.149,2380.25
574.686,2376.15
575.222,2402.2
575.759,2383.7
576.295,2409.0
576.831,2418.5
577.367,2416.2
577.903,2392.45
578.439,2413.0
578.975,2425.75
579.511,2443.55
580.046,2436.8
580.582,2441.8
581.117,2477.85
581.653,2552.75
582.188,3280.85
582.723,2488.45
583.258,2440.8
583.793,2439.9
584.328,2443.5
584.863,2446.65
585.398,2497.25
585.932,2855.9
586.467,2734.45
587.001,2497.0
587.535,2466.35
588.07,2456.25
588.604,2443.1
589.138,2424.1
589.672,2433.1
590.206,2431.45
590.739,2436.05
591.273,2443.1
591.807,2440.6
592.34,2441.8
592.873,2426.5
593.407,2427.3
593.94,2424.45
594.473,2433.0
595.006,2434.55
595.539,2456.65
596.072,2448.65
596.605,2441.85
597.138,2462.0
597.67,2451.55
598.203,2466.15
598.735,2471.15
599.268,2464.85
599.8,2460.0
600.332,2451.6
600.865,2434.45
601.397,2437.55
601.929,2425.1
602.46,2436.75
602.992,2435.8
603.524,2423.35
604.056,2420.05
604.587,2410.5
605.119,2391.8
605.65,2368.15
606.182,2364.75
606.713,2347.05
607.244,2355.25
607.775,2357.6
608.306,2354.55
608.837,2353.3
609.368,2355.0
609.899,2341.75
610.43,2330.6
610.961,2327.95
611.491,2325.45
612.022,2328.05
612.552,2341.1
613.083,2337.85
613.613,2345.7
614.143,2346.25
614.673,2332.2
615.203,2323.95
615.734,2314.95
616.263,2310.1
616.793,2312.95
617.323,2293.8
617.853,2292.2
618.383,2297.55
618.912,2292.0
619.442,2270.85
619.971,2257.15
620.501,2248.45
621.03,2235.45
621.56,2240.25
622.089,2232.05
622.618,2228.15
623.147,2229.85
623.676,2225.7
624.205,2216.05
624.734,2209.0
625.263,2201.85
625.792,2207.75
626.321,2181.8
626.849,2182.15
627.378,2159.5
627.906,2152.75
628.435,2161.7
628.963,2165.0
629.492,2163.3
630.02,2154.9
630.548,2148.65
631.077,2169.9
631.605,2245.4
632.133,2227.45
632.661,2153.5
633.189,2131.5
633.717,2106.6
634.245,2083.4
634.773,2061.95
635.3,2061.45
635.828,2096.25
636.356,2159.35
636.883,2143.4
637.411,2048.8
637.938,2022.95
638.466,2005.05
638.993,1987.6
639.521,1982.25
640.048,1979.6
640.575,1964.4
641.103,1951.25
641.63,1947.15
642.157,1937.65
642.684,1927.5
643.211,1897.55
643.738,1878.85
644.265,1871.15
644.792,1855.65
645.319,1837.05
645.845,1845.7
646.372,1832.4
646.899,1817.2
647.425,1815.1
647.952,1807.05
648.479,1785.15
649.005,1772.6
649.532,1761.7
650.058,1758.4
650.585,1743.2
651.111,1733.05
651.637,1730.8
652.164,1719.4
652.69,1707.75
653.216,1711.6
653.742,1701.6
654.268,1688.35
654.794,1679.7
655.32,1668.05
655.846,1665.3
656.372,1645.95
656.898,1646.55
657.424,1638.0
657.95,1632.75
658.476,1619.3
659.002,1617.0
659.528,1618.15
660.053,1600.8
660.579,1591.45
661.105,1584.7
661.63,1569.1
662.156,1563.9
662.681,1558.9
663.076,1548.0