File: spectra/VLFR_02-HDPE_bio_Raman_d980c7a0.csv
nm,Intensity
526.495,830.0
527.042,829.3
527.589,827.9
528.136,829.5
528.682,828.2
529.229,829.2
529.775,829.7
530.321,830.1
530.867,829.6
531.413,828.6
531.959,831.9
532.505,829.9
533.051,830.2
533.596,827.1
534.141,850.0
534.687,851.0
535.232,846.3
535.777,844.6
536.321,842.0
536.866,840.5
537.41,843.0
537.955,842.6
538.499,841.0
539.043,843.4
539.587,841.3
540.131,839.1
540.675,839.0
541.219,840.4
541.762,839.0
542.305,841.1
542.849,841.5
543.392,840.7
543.935,842.3
544.478,840.4
545.02,842.9
545.563,842.4
546.106,842.3
546.648,840.1
547.19,840.7
547.732,841.7
548.274,841.3
548.816,841.6
549.358,842.6
549.9,841.1
550.441,842.4
550.983,840.1
551.524,841.1
552.065,841.3
552.606,842.0
553.147,842.1
553.688,842.3
554.229,844.5
554.769,842.9
555.31,842.4
555.85,841.9
556.391,842.2
556.931,844.0
557.471,842.9
558.011,845.1
558.551,843.2
559.09,842.5
559.63,844.5
560.169,845.8
560.709,844.0
561.248,844.8
561.787,847.4
562.326,844.8
562.865,844.8
563.404,848.1
563.943,857.3
564.481,849.1
565.02,846.0
565.558,845.6
566.096,857.2
566.634,849.5
567.172,847.8
567.71,849.0
568.248,847.5
568.786,847.6
569.324,849.1
569.861,847.4
570.399,849.7
570.936,849.9
571.473,877.5
572.01,855.1
572.547,849.3
573.084,850.5
573.621,848.3
574.158,849.0
574.694,850.2
575.231,847.7
575.767,854.0
576.303,880.8
576.84,867.5
577.376,861.3
577.912,850.4
578.448,851.9
578.984,854.2
579.519,850.9
580.055,850.3
580.59,851.6
581.126,851.3
581.661,853.7
582.196,854.8
582.731,854.6
583.267,854.0
583.801,853.6
584.336,856.6
584.871,856.0
585.406,858.0
585.94,859.3
586.475,863.8
587.009,863.2
587.543,863.6
588.078,866.2
588.612,865.3
589.146,866.8
589.68,867.5
590.214,869.3
590.747,870.5
591.281,872.0
591.815,870.2
592.348,871.2
592.881,868.9
593.415,868.4
593.948,867.4
594.481,870.9
595.014,868.9
595.547,868.5
596.08,867.9
596.613,870.0
597.146,865.0
597.678,867.3
598.211,868.2
598.743,868.1
599.276,868.1
599.808,867.7
600.34,866.7
600.872,865.5
601.404,865.4
601.936,869.0
602.468,866.0
603.0,867.2
603.532,865.8
604.064,866.0
604.595,864.2
605.127,865.6
605.658,863.9
606.189,864.0
606.721,862.4
607.252,862.8
607.783,862.3
608.314,861.5
608.845,864.0
609.376,862.3
609.907,860.3
610.438,861.2
610.968,861.0
611.499,861.0
612.029,860.4
612.56,861.2
613.09,863.8
613.621,859.9
614.151,860.1
614.681,861.7
615.211,861.1
615.741,858.4
616.271,861.2
616.801,858.7
617.331,864.2
617.861,862.7
618.39,858.7
618.92,862.0
619.45,860.7
619.979,861.9
620.509,863.5
621.038,861.8
621.567,868.8
622.096,873.8
622.626,872.6
623.155,866.7
623.684,864.7
624.213,865.4
624.742,861.8
625.271,865.0
625.799,866.0
626.328,868.2
626.857,933.7
627.386,1025.8
627.914,949.7
628.443,1002.2
628.971,972.3
629.5,938.7
630.028,913.3
630.556,906.8
631.084,880.7
631.613,867.8
632.141,867.0
632.669,864.7
633.197,866.8
633.725,865.9
634.253,861.3
634.781,863.6
635.308,860.4
635.836,864.0
636.364,864.2
636.891,863.5
637.419,862.0
637.947,864.3
638.474,864.3
639.002,860.8
639.529,866.3
640.056,862.7
640.584,862.9
641.111,864.4
641.638,866.5
642.165,867.7
642.692,863.4
643.219,861.4
643.746,864.1
644.273,864.7
644.8,860.8
645.327,860.4
645.854,862.0
646.381,862.5
646.908,862.7
647.434,861.9
647.961,861.4
648.488,863.2
649.014,860.2
649.541,859.9
650.067,860.0
650.594,862.7
651.12,859.1
651.646,859.9
652.173,860.7
652.699,861.1
653.225,859.0
653.752,861.9
654.278,856.9
654.804,857.9
655.33,858.5
655.856,857.3
656.382,857.2
656.908,858.1
657.434,856.6
657.96,855.2
658.486,855.8
659.012,857.8
659.538,856.9
660.064,856.1
660.589,855.4
661.115,855.9
661.641,853.2
662.166,853.6
662.692,854.3
663.086,852.6