File: spectra/VLFR_02-HDPE_bio_Raman_d7708473.csv
nm,Intensity
526.549,831.85
527.096,832.15
527.643,831.7
528.19,831.7
528.737,832.65
529.283,831.7
529.83,832.55
530.376,831.35
530.922,832.05
531.468,831.0
532.014,843.25
532.559,832.3
533.105,832.05
533.65,832.55
534.196,881.55
534.741,875.25
535.286,871.1
535.83,860.8
536.375,858.2
536.92,855.1
537.464,855.1
538.008,855.55
538.553,852.95
539.097,850.15
539.641,850.6
540.184,849.5
540.728,847.85
541.271,850.65
541.815,850.25
542.358,848.7
542.901,847.2
543.444,849.05
543.987,849.7
544.53,847.75
545.072,848.95
545.615,848.45
546.157,848.9
546.699,848.5
547.242,849.05
547.784,848.5
548.325,848.8
548.867,848.4
549.409,848.75
549.95,847.8
550.492,849.65
551.033,848.45
551.574,850.05
552.115,848.95
552.656,850.3
553.197,849.9
553.737,852.75
554.278,852.65
554.818,850.8
555.358,852.8
555.899,853.9
556.439,854.15
556.979,855.75
557.518,856.05
558.058,858.45
558.598,858.05
559.137,857.75
559.677,856.05
560.216,855.0
560.755,857.05
561.294,855.75
561.833,855.95
562.372,858.8
562.91,858.6
563.449,861.3
563.987,926.45
564.526,871.1
565.064,867.65
565.602,866.8
566.14,969.6
566.678,869.65
567.216,862.55
567.754,861.75
568.291,859.25
568.829,858.0
569.366,860.65
569.904,860.45
570.441,863.95
570.978,867.8
571.515,1008.05
572.052,878.95
572.589,866.35
573.125,862.6
573.662,862.4
574.199,867.85
574.735,861.65
575.271,867.75
575.807,900.45
576.344,950.2
576.88,916.7
577.415,895.4
577.951,872.2
578.487,866.85
579.023,867.85
579.558,868.3
580.094,868.75
580.629,871.95
581.164,871.4
581.699,873.3
582.234,877.1
582.769,876.4
583.304,881.5
583.839,880.5
584.374,884.6
584.908,884.65
585.443,885.3
585.977,886.3
586.511,890.2
587.046,889.4
587.58,887.8
588.114,888.5
588.648,888.45
589.182,887.2
589.716,887.3
590.249,890.45
590.783,892.1
591.316,891.15
591.85,892.75
592.383,892.6
592.917,894.6
593.45,893.7
593.983,892.55
594.516,895.75
595.049,893.45
595.582,895.65
596.115,895.95
596.647,896.5
597.18,897.35
597.712,895.85
598.245,895.5
598.777,896.5
599.31,897.5
599.842,899.45
600.374,894.25
600.906,895.05
601.438,895.15
601.97,899.45
602.502,896.8
603.034,894.1
603.565,893.85
604.097,894.15
604.628,894.3
605.16,891.25
605.691,890.3
606.223,892.15
606.754,889.2
607.285,889.85
607.816,889.15
608.347,888.9
608.878,891.15
609.409,889.35
609.94,890.2
610.47,888.55
611.001,891.3
611.532,890.3
612.062,888.0
612.593,886.35
613.123,885.55
613.653,885.45
614.184,887.6
614.714,885.65
615.244,886.85
615.774,887.05
616.304,886.5
616.834,891.05
617.364,891.0
617.894,888.45
618.423,890.4
618.953,887.65
619.482,891.4
620.012,891.0
620.541,891.9
621.071,896.9
621.6,905.55
622.13,926.35
622.659,918.45
623.188,898.95
623.717,891.25
624.246,891.2
624.775,890.95
625.304,892.8
625.833,899.45
626.362,926.1
626.89,1155.6
627.419,1452.0
627.948,1220.95
628.476,1425.85
629.005,1232.25
629.533,1160.2
630.061,1084.2
630.59,1057.2
631.118,961.85
631.646,911.85
632.175,900.25
632.703,893.45
633.231,889.9
633.759,888.3
634.287,888.7
634.815,888.05
635.342,885.25
635.87,885.3
636.398,887.25
636.926,884.75
637.453,881.2
637.981,881.35
638.509,881.95
639.036,882.3
639.563,879.75
640.091,880.0
640.618,879.35
641.146,880.0
641.673,881.5
642.2,881.65
642.727,880.45
643.254,880.95
643.781,878.95
644.309,880.5
644.836,880.0
645.362,878.25
645.889,880.0
646.416,877.1
646.943,879.35
647.47,877.05
647.997,879.6
648.523,877.45
649.05,878.4
649.577,877.15
650.103,878.3
650.63,876.15
651.156,874.75
651.683,875.6
652.209,877.35
652.735,874.0
653.262,873.9
653.788,875.4
654.314,876.45
654.841,874.85
655.367,874.6
655.893,872.7
656.419,871.65
656.945,872.2
657.471,873.35
657.997,872.35
658.523,872.3
659.049,872.6
659.575,873.45
660.101,874.85
660.627,872.25
661.153,871.7
661.679,870.15
662.205,869.3
662.731,871.35
663.125,868.35