File: spectra/VLFR_06-PET_bio_Raman_0bdee353.csv
nm,Intensity
526.508,829.3
527.055,829.1
527.602,829.0
528.149,829.0
528.695,827.6
529.241,828.9
529.787,827.3
530.334,829.7
530.879,827.8
531.425,828.1
531.971,837.1
532.516,829.7
533.062,829.2
533.607,827.8
534.152,875.1
534.697,869.0
535.242,859.3
535.786,855.7
536.331,852.5
536.876,849.4
537.42,849.5
537.964,851.7
538.508,852.5
539.052,854.9
539.596,854.3
540.14,852.5
540.683,852.9
541.227,852.2
541.77,854.4
542.313,854.7
542.856,854.8
543.399,854.6
543.942,855.2
544.485,855.2
545.027,857.4
545.57,857.3
546.112,858.1
546.654,858.2
547.196,859.6
547.738,858.7
548.28,858.1
548.822,858.7
549.363,863.4
549.905,859.7
550.446,862.9
550.988,860.6
551.529,861.0
552.07,861.6
552.611,862.6
553.152,860.3
553.692,865.1
554.233,865.4
554.773,865.0
555.314,865.9
555.854,867.6
556.394,869.5
556.934,867.7
557.474,868.8
558.014,868.6
558.553,865.4
559.093,869.6
559.632,868.4
560.172,871.9
560.711,869.6
561.25,871.2
561.789,874.2
562.328,872.7
562.867,873.3
563.406,874.6
563.944,875.2
564.483,877.5
565.021,879.5
565.559,882.5
566.098,880.9
566.636,879.6
567.174,880.8
567.711,881.8
568.249,880.1
568.787,880.3
569.324,884.5
569.862,884.3
570.399,885.5
570.936,890.0
571.474,891.7
572.011,887.0
572.548,883.4
573.084,888.6
573.621,886.1
574.158,888.8
574.694,888.8
575.231,890.7
575.767,891.0
576.303,889.5
576.84,889.6
577.376,891.9
577.912,888.6
578.447,890.6
578.983,891.1
579.519,891.0
580.054,895.0
580.59,893.2
581.125,895.0
581.661,897.4
582.196,926.1
582.731,895.1
583.266,895.5
583.801,896.5
584.336,897.9
584.87,900.9
585.405,901.9
585.94,914.1
586.474,910.8
587.008,904.2
587.543,899.1
588.077,897.7
588.611,904.0
589.145,902.3
589.679,898.6
590.213,897.5
590.747,900.2
591.28,903.3
591.814,897.5
592.347,898.7
592.881,899.4
593.414,903.1
593.947,902.5
594.48,899.0
595.014,903.9
595.547,901.9
596.079,903.1
596.612,905.6
597.145,904.4
597.678,903.7
598.21,901.8
598.743,901.7
599.275,903.4
599.807,902.1
600.34,904.1
600.872,902.9
601.404,903.0
601.936,902.8
602.468,901.1
603.0,903.3
603.532,904.9
604.063,901.8
604.595,901.9
605.126,903.4
605.658,900.8
606.189,901.2
606.721,903.4
607.252,898.3
607.783,898.9
608.314,901.1
608.845,898.2
609.376,900.2
609.907,901.6
610.438,906.1
610.968,899.8
611.499,900.7
612.03,897.5
612.56,902.3
613.091,903.2
613.621,903.0
614.151,901.1
614.681,903.9
615.212,900.9
615.742,902.7
616.272,902.8
616.802,900.2
617.332,903.3
617.861,904.7
618.391,902.9
618.921,901.7
619.45,905.5
619.98,905.8
620.509,905.7
621.039,902.5
621.568,901.4
622.097,901.2
622.627,904.0
623.156,902.8
623.685,903.6
624.214,905.5
624.743,907.7
625.272,903.6
625.801,908.6
626.33,904.6
626.858,909.6
627.387,906.8
627.916,904.1
628.444,909.0
628.973,908.9
629.501,907.3
630.029,910.1
630.558,911.8
631.086,910.4
631.614,911.3
632.142,915.3
632.67,910.3
633.198,913.7
633.726,912.3
634.254,915.7
634.782,912.6
635.31,915.0
635.838,916.7
636.365,913.1
636.893,918.3
637.421,914.6
637.948,912.0
638.476,913.1
639.003,914.0
639.531,915.2
640.058,916.8
640.585,913.7
641.113,914.8
641.64,919.6
642.167,919.0
642.694,920.9
643.221,916.6
643.748,912.5
644.275,916.0
644.802,917.2
645.329,915.8
645.856,915.7
646.382,917.7
646.909,915.8
647.436,915.5
647.962,916.2
648.489,915.8
649.016,914.7
649.542,918.4
650.069,916.2
650.595,918.5
651.121,918.6
651.648,915.3
652.174,915.4
652.7,920.4
653.227,914.5
653.753,915.9
654.279,917.0
654.805,914.3
655.331,911.6
655.857,915.1
656.383,916.5
656.909,913.0
657.435,912.8
657.961,913.2
658.487,915.1
659.013,913.2
659.538,916.1
660.064,911.5
660.59,912.2
661.116,911.3
661.641,913.1
662.167,908.4
662.692,906.8
663.087,908.1