File: spectra/VLFR_07-PET_bio_Raman_d3f00772.csv
nm,Intensity
791.496,10157.8
792.594,9537.6
793.692,9291.9
794.79,9151.0
795.888,9056.2
796.986,9111.1
798.083,9051.9
799.181,8964.4
800.278,8943.7
801.375,8985.4
802.473,8970.6
803.57,8743.2
804.667,8712.7
805.764,8723.0
806.86,8569.8
807.957,8537.2
809.054,8525.0
810.15,8367.7
811.246,8307.0
812.343,8330.5
813.439,8281.4
814.535,8187.6
815.631,8171.6
816.727,8079.5
817.822,8013.7
818.918,7886.9
820.013,7849.8
821.109,7775.0
822.204,7688.0
823.299,7622.6
824.394,7550.6
825.489,7733.8
826.584,7515.9
827.679,7422.4
828.774,7395.4
829.868,7343.9
830.963,7262.6
832.057,7173.4
833.151,7096.5
834.245,7095.7
835.339,7024.1
836.433,7074.0
837.527,6996.1
838.621,7005.8
839.714,6962.5
840.808,7196.4
841.901,7000.8
842.994,6863.0
844.087,6736.6
845.18,6693.0
846.273,6560.5
847.366,6534.4
848.458,6501.7
849.551,6484.1
850.643,6442.5
851.735,6436.1
852.828,6433.8
853.92,6312.7
855.012,6332.1
856.103,6288.5
857.195,6256.2
858.287,6319.9
859.378,6397.1
860.469,6335.3
861.56,6123.8
862.651,6127.7
863.742,6111.9
864.833,6123.5
865.924,6046.6
867.014,5980.9
868.105,5949.5
869.195,5955.6
870.285,6012.8
871.376,6081.2
872.465,6182.6
873.555,6098.4
874.645,5960.1
875.735,5835.8
876.824,5757.9
877.913,5748.7
879.002,5678.1
880.092,5697.9
881.18,5674.0
882.269,5669.4
883.358,5602.6
884.446,5563.7
885.535,5593.5
886.623,5547.3
887.711,5466.9
888.799,5436.7
889.887,5452.7
890.975,5431.7
892.062,5395.5
893.15,5375.7
894.237,5301.6
895.325,5315.0
896.412,5342.4
897.499,5671.9
898.585,5673.7
899.672,5357.5
900.759,5173.3
901.845,5109.3
902.931,5083.6
904.017,5070.5
905.103,5082.7
906.189,5243.7
907.275,5388.0
908.361,5264.5
909.446,5041.3
910.531,4918.3
911.616,4871.8
912.701,4865.3
913.786,4828.0
914.871,4783.5
915.956,4750.5
917.04,4748.2
918.124,4722.3
919.209,4680.2
920.293,4656.6
921.376,4622.9
922.46,4602.4
923.544,4589.9
924.627,4564.6
925.711,4507.9
926.794,4494.1
927.877,4491.4
928.96,4457.3
930.042,4450.5
931.125,4401.6
932.207,4409.0
933.29,4370.8
934.372,4362.3
935.454,4331.7
936.536,4325.8
937.617,4297.8
938.699,4290.9
939.78,4259.4
940.861,4262.2
941.943,4214.6
943.023,4216.7
944.104,4189.3
945.185,4160.9
946.265,4169.3
947.346,4156.2
948.426,4137.7
949.506,4126.7
950.586,4109.8
951.665,4088.4
952.745,4088.1
953.824,4070.8
954.904,4060.6
955.983,4038.6
957.062,4033.5
958.141,4027.0
959.219,4025.1
960.298,4006.2
961.376,3987.1
962.454,3981.2
963.532,3973.9
964.61,3953.5
965.688,3951.8
966.765,3951.2
967.842,3941.4
968.92,3937.1
969.997,3929.8
971.074,3919.3
972.15,3911.4
973.227,3906.4
974.303,3894.9
975.379,3884.7
976.455,3880.7
977.531,3880.2
978.607,3872.0
979.683,3861.0
980.758,3861.9
981.833,3857.4
982.908,3849.9
983.983,3842.9
985.058,3839.4
986.133,3834.9
987.207,3833.3
988.281,3829.7
989.355,3824.3
990.429,3814.8
991.503,3816.1
992.577,3813.1
993.65,3807.6
994.723,3800.2
995.796,3798.0
996.869,3795.0
997.942,3792.1
999.014,3789.0
1000.09,3783.1
1001.16,3784.0
1002.23,3778.4
1003.3,3777.8
1004.37,3774.7
1005.45,3771.0
1006.52,3771.0
1007.59,3764.3
1008.66,3762.8
1009.73,3758.9
1010.8,3759.3
1011.87,3759.1
1012.94,3754.8
1014.01,3753.3
1015.08,3749.1
1016.15,3752.2
1017.22,3749.5
1018.29,3745.7
1019.36,3747.1
1020.43,3748.4
1021.5,3748.7
1022.57,3749.9
1023.64,3743.1
1024.7,3743.1
1025.77,3740.5
1026.84,3737.1
1027.91,3734.7
1028.97,3732.6
1030.04,3728.1
1031.11,3727.5
1032.18,3729.2
1033.24,3729.9
1034.31,3732.6
1035.38,3730.1
1036.44,3727.3
1037.51,3726.0
1038.58,3721.2
1039.64,3719.2
1040.71,3720.8
1041.77,3719.6
1042.84,3718.8
1043.9,3716.6
1044.97,3716.8
1046.03,3715.9
1047.1,3715.6
1048.16,3713.9
1049.22,3714.1
1050.29,3714.4
1051.35,3715.9
1052.42,3713.6
1053.48,3715.1
1054.54,3714.0
1055.61,3712.5
1056.67,3711.7
1057.73,3713.9
1058.79,3714.3
1059.86,3713.8
1060.92,3713.0
1061.98,3712.3
1063.04,3712.5
1064.1,3712.0
1065.16,3711.2
1066.22,3711.1
1067.29,3711.2
1068.08,3710.6