File: spectra/VLFR_08-PLA_bio_Raman_dc191635.csv
nm,Intensity
528.626,1863.2
529.132,1864.9
529.637,1862.8
530.143,1863.5
530.648,1863.7
531.153,1866.7
531.658,1925.7
532.164,4742.8
532.669,1866.7
533.174,1867.2
533.679,2101.1
534.184,2759.2
534.689,2598.8
535.194,2490.1
535.699,2414.4
536.203,2367.0
536.708,2398.9
537.213,2366.1
537.717,2406.7
538.222,2334.4
538.726,2326.9
539.231,2324.1
539.735,2297.0
540.239,2311.2
540.744,2374.0
541.248,2382.2
541.752,2324.2
542.256,2324.9
542.76,2340.2
543.264,2435.6
543.768,2484.0
544.272,2410.8
544.776,2338.4
545.28,2335.7
545.784,2318.5
546.287,2322.8
546.791,2319.8
547.294,2332.9
547.798,2334.0
548.301,2347.4
548.805,2362.7
549.308,2366.3
549.811,2357.2
550.315,2363.9
550.818,2384.1
551.321,2389.7
551.824,2423.1
552.327,2445.2
552.83,2437.2
553.333,2426.1
553.835,2453.8
554.338,2449.7
554.841,2453.9
555.343,2409.5
555.846,2406.8
556.349,2389.7
556.851,2395.0
557.353,2500.4
557.856,2988.3
558.358,2763.1
558.86,2508.2
559.362,2464.5
559.864,2467.7
560.366,2444.6
560.868,2462.8
561.37,2454.4
561.872,2439.6
562.374,2452.0
562.876,2535.0
563.377,2671.6
563.879,2541.7
564.38,2515.2
564.882,2619.3
565.383,2606.6
565.885,2718.4
566.386,2709.3
566.887,2515.6
567.388,2514.0
567.889,2546.0
568.391,2552.8
568.892,2551.4
569.392,2527.8
569.893,2521.4
570.394,2536.6
570.895,2533.6
571.395,2632.6
571.896,2665.9
572.397,2610.6
572.897,2646.3
573.397,2656.5
573.898,2627.9
574.398,2674.0
574.898,2591.2
575.398,2555.6
575.898,2587.4
576.398,2818.7
576.898,2968.3
577.398,2666.3
577.898,2585.4
578.398,2557.5
578.897,2558.9
579.397,2553.1
579.896,2584.8
580.396,2572.9
580.895,2557.7
581.395,2569.5
581.894,2575.6
582.393,2539.1
582.892,2571.0
583.391,2566.2
583.89,2566.4
584.389,2555.1
584.888,2585.8
585.387,2562.2
585.886,2555.4
586.384,2672.2
586.883,2792.9
587.381,2942.7
587.88,2789.2
588.378,2577.2
588.876,2578.0
589.375,2532.1
589.873,2543.2
590.371,2558.2
590.869,2541.4
591.367,2532.3
591.865,2531.9
592.363,2556.6
592.86,2568.8
593.358,2551.0
593.856,2537.7
594.353,2549.8
594.851,2519.8
595.348,2553.2
595.845,2554.1
596.342,2539.6
596.84,2536.8
597.337,2539.5
597.834,2551.5
598.331,2520.0
598.828,2523.5
599.324,2548.7
599.821,2531.1
600.318,2552.4
600.814,2539.8
601.311,2531.8
601.807,2558.1
602.304,2546.6
602.8,2555.1
603.296,2532.2
603.792,2547.3
604.288,2544.0
604.784,2518.6
605.28,2533.1
605.776,2523.2
606.272,2531.1
606.767,2536.4
607.263,2541.6
607.759,2522.6
608.254,2521.8
608.749,2497.9
609.245,2524.5
609.74,2523.4
610.235,2519.7
610.73,2505.4
611.225,2549.9
611.72,2506.0
612.215,2505.5
612.71,2515.4
613.204,2493.8
613.699,2478.7
614.194,2516.2
614.688,2498.8
615.182,2529.3
615.677,2511.2
616.171,2513.2
616.665,2523.9
617.159,2515.4
617.653,2501.1
618.147,2500.0
618.641,2507.9
619.135,2471.2
619.628,2504.8
620.122,2506.5
620.615,2475.0
621.109,2489.7
621.602,2495.3
622.095,2501.0
622.589,2559.8
623.082,2586.1
623.575,2528.1
624.068,2530.2
624.561,2496.1
625.053,2499.4
625.546,2492.0
626.039,2484.7
626.531,2484.8
627.024,2472.6
627.516,2490.0
628.008,2654.0
628.501,3004.0
628.993,2847.1
629.485,2857.2
629.977,2866.6
630.469,3264.2
630.96,5179.6
631.452,4281.8
631.944,3334.5
632.435,3098.9
632.927,3555.0
633.418,3669.9
633.91,3182.5
634.401,2748.9
634.892,2564.0
635.383,2459.4
635.874,2460.7
636.365,2441.4
636.856,2424.0
637.346,2420.5
637.837,2382.0
638.327,2410.2
638.818,2392.2
639.308,2374.2
639.799,2396.2
640.289,2390.8
640.779,2361.9
641.269,2390.6
641.759,2359.5
642.249,2382.0
642.738,2375.0
643.228,2323.0
643.718,2346.5
644.207,2336.5
644.697,2333.6
645.186,2336.8
645.675,2324.9
646.164,2312.6
646.653,2327.8
647.142,2306.1
647.631,2304.2
648.12,2286.6
648.609,2291.1
649.098,2277.2
649.586,2284.0
650.075,2270.6
650.563,2262.6
651.051,2286.2
651.539,2256.2
652.027,2264.9
652.515,2243.0
653.003,2238.9
653.491,2234.4
653.979,2240.5
654.467,2212.3
654.954,2225.6
655.442,2201.7
655.929,2230.1
656.416,2211.0
656.904,2212.8
657.391,2205.2
657.878,2200.4
658.365,2198.8
658.851,2181.0
659.338,2186.8
659.825,2188.6
660.311,2183.3
660.798,2178.1
661.041,2164.9