File: spectra/VLFR_07-PET_nobio_Raman_4a919f06.csv
nm,Intensity
791.588,23174.4
792.685,22994.4
793.781,23069.2
794.878,22826.3
795.975,23173.4
797.071,23471.1
798.168,23326.9
799.264,23625.2
800.36,23608.8
801.456,23087.1
802.552,23181.9
803.648,23310.9
804.744,23050.2
805.84,23026.8
806.936,22798.7
808.031,23095.1
809.127,22654.2
810.222,22600.8
811.317,22804.7
812.412,22571.6
813.507,22622.6
814.602,22849.1
815.697,22319.0
816.792,22410.2
817.887,22217.6
818.981,22013.4
820.076,21969.7
821.17,22120.9
822.265,21533.3
823.359,21817.0
824.453,21369.3
825.547,21164.0
826.641,21115.3
827.735,21152.1
828.828,20861.0
829.922,20371.6
831.016,20321.7
832.109,20163.5
833.202,20272.2
834.295,20049.3
835.388,19791.4
836.481,19220.7
837.574,19773.3
838.667,19282.7
839.76,19126.6
840.852,18898.3
841.945,18955.4
843.037,18636.9
844.129,18898.0
845.221,18526.7
846.314,18053.4
847.405,18425.0
848.497,17987.2
849.589,17759.2
850.681,17583.4
851.772,17357.6
852.863,17503.0
853.955,17493.7
855.046,17099.8
856.137,17289.0
857.228,17103.8
858.318,16872.1
859.409,17074.2
860.5,16516.7
861.59,16255.5
862.681,16349.6
863.771,16427.6
864.861,16173.8
865.951,15944.5
867.041,15853.5
868.131,15605.7
869.22,15689.9
870.31,15354.2
871.399,15239.2
872.488,15167.8
873.578,14908.0
874.667,14889.2
875.756,14698.8
876.845,14767.9
877.933,14290.7
879.022,14109.8
880.11,13938.2
881.199,13819.8
882.287,13823.9
883.375,13700.0
884.463,13290.8
885.551,13430.6
886.639,13080.6
887.726,12871.0
888.814,12859.6
889.901,12462.7
890.988,12790.0
892.075,12306.5
893.162,12291.7
894.249,12082.0
895.336,11845.3
896.423,11678.6
897.509,11767.8
898.595,11603.3
899.682,11504.9
900.768,11187.5
901.854,11124.8
902.94,10966.4
904.025,10678.0
905.111,10743.3
906.196,10552.2
907.282,10609.2
908.367,10374.3
909.452,10434.7
910.537,10098.7
911.622,9908.8
912.706,9628.7
913.791,9600.5
914.875,9587.0
915.959,9319.1
917.044,9279.7
918.128,9108.6
919.211,9083.5
920.295,8945.7
921.379,8862.9
922.462,8580.1
923.546,8454.8
924.629,8462.5
925.712,8468.8
926.795,8168.7
927.877,8155.2
928.96,7997.6
930.043,7807.7
931.125,7813.0
932.207,7617.2
933.289,7592.0
934.371,7379.2
935.453,7418.1
936.535,7143.9
937.616,7174.1
938.697,6940.9
939.779,6931.2
940.86,6949.7
941.941,6750.6
943.022,6693.9
944.102,6591.0
945.183,6501.6
946.263,6432.0
947.343,6387.5
948.423,6233.0
949.503,6307.7
950.583,6116.9
951.663,6083.0
952.742,6054.3
953.822,5891.7
954.901,5867.8
955.98,5816.7
957.059,5719.1
958.137,5714.6
959.216,5627.7
960.294,5590.2
961.373,5499.1
962.451,5448.9
963.529,5394.8
964.607,5373.8
965.684,5283.6
966.762,5228.3
967.839,5222.7
968.917,5173.5
969.994,5077.3
971.071,5090.4
972.147,4996.3
973.224,5012.5
974.3,4920.0
975.377,4913.2
976.453,4904.9
977.529,4825.2
978.605,4767.9
979.68,4719.1
980.756,4654.4
981.831,4695.4
982.907,4617.9
983.982,4640.5
985.057,4586.8
986.131,4548.7
987.206,4492.8
988.28,4505.1
989.355,4472.7
990.429,4454.7
991.503,4433.0
992.576,4391.9
993.65,4374.2
994.723,4348.4
995.797,4322.1
996.87,4300.9
997.943,4274.4
999.016,4260.3
1000.09,4241.3
1001.16,4215.8
1002.23,4188.1
1003.31,4170.6
1004.38,4176.6
1005.45,4156.4
1006.52,4134.1
1007.59,4115.1
1008.66,4100.6
1009.73,4075.0
1010.81,4065.3
1011.88,4056.8
1012.95,4041.1
1014.02,4031.3
1015.09,4026.5
1016.16,4006.1
1017.23,3999.5
1018.3,3985.5
1019.37,3965.3
1020.44,3960.8
1021.51,3953.6
1022.58,3936.3
1023.64,3933.9
1024.71,3930.4
1025.78,3918.6
1026.85,3904.1
1027.92,3898.6
1028.99,3895.8
1030.05,3879.0
1031.12,3877.7
1032.19,3873.4
1033.26,3864.2
1034.32,3861.0
1035.39,3863.1
1036.46,3848.0
1037.52,3847.0
1038.59,3839.2
1039.66,3834.0
1040.72,3827.8
1041.79,3825.9
1042.86,3817.4
1043.92,3818.6
1044.99,3812.6
1046.05,3808.8
1047.12,3806.2
1048.18,3804.6
1049.25,3799.8
1050.31,3797.6
1051.37,3800.3
1052.44,3796.5
1053.5,3794.3
1054.57,3794.3
1055.63,3789.6
1056.69,3793.1
1057.76,3790.0
1058.82,3788.6
1059.88,3784.6
1060.95,3784.0
1062.01,3783.0
1063.07,3780.5
1064.13,3783.5
1065.19,3781.7
1066.26,3776.8
1067.32,3775.7
1068.11,3775.5