File: spectra/VLFR_02-HDPE_bio_Raman_37ae104b.csv
nm,Intensity
526.494,834.7
527.041,834.4
527.588,834.6
528.135,834.8
528.682,835.2
529.229,834.1
529.775,835.5
530.321,834.9
530.868,833.7
531.414,834.8
531.96,845.9
532.506,836.1
533.051,835.2
533.597,834.0
534.142,886.6
534.687,886.6
535.232,881.0
535.777,867.0
536.322,860.2
536.867,856.2
537.411,855.0
537.956,856.7
538.5,853.9
539.044,852.6
539.588,853.6
540.132,851.6
540.676,851.4
541.22,849.6
541.763,848.7
542.306,850.0
542.85,847.3
543.393,849.0
543.936,846.8
544.479,848.6
545.021,847.7
545.564,848.4
546.106,849.1
546.649,847.9
547.191,848.1
547.733,850.2
548.275,846.1
548.817,849.2
549.359,846.2
549.9,850.1
550.442,850.1
550.983,849.7
551.524,847.9
552.066,848.7
552.607,848.8
553.148,849.4
553.688,849.2
554.229,849.1
554.77,851.5
555.31,851.5
555.85,850.9
556.39,852.6
556.931,851.6
557.471,853.8
558.01,853.2
558.55,853.6
559.09,854.0
559.629,855.8
560.169,850.4
560.708,852.8
561.247,854.0
561.786,853.1
562.325,854.1
562.864,854.9
563.403,858.8
563.941,912.7
564.48,869.9
565.018,864.1
565.557,862.4
566.095,896.4
566.633,860.2
567.171,860.0
567.709,862.4
568.247,856.0
568.784,856.5
569.322,855.9
569.859,856.7
570.397,859.3
570.934,863.2
571.471,947.7
572.008,873.7
572.545,861.9
573.082,857.1
573.619,860.0
574.155,863.6
574.692,858.3
575.228,859.2
575.765,884.1
576.301,971.1
576.837,917.7
577.373,902.3
577.909,866.9
578.445,863.5
578.981,863.8
579.516,859.7
580.052,863.3
580.587,860.8
581.123,860.3
581.658,861.0
582.193,863.5
582.728,862.9
583.263,866.3
583.798,863.7
584.333,867.6
584.868,867.7
585.402,868.3
585.937,869.9
586.471,871.8
587.005,870.2
587.54,875.2
588.074,875.4
588.608,875.1
589.142,873.7
589.676,875.7
590.21,878.7
590.743,884.3
591.277,883.5
591.81,888.6
592.344,889.4
592.877,889.6
593.411,887.0
593.944,892.8
594.477,891.0
595.01,895.4
595.543,892.4
596.076,893.1
596.608,894.4
597.141,898.6
597.674,894.5
598.206,895.7
598.739,894.1
599.271,898.6
599.803,897.6
600.335,895.0
600.868,893.9
601.4,892.6
601.931,896.7
602.463,892.5
602.995,890.2
603.527,889.4
604.058,887.5
604.59,886.4
605.121,884.5
605.653,881.6
606.184,882.9
606.715,880.6
607.246,877.9
607.778,877.9
608.309,879.2
608.839,879.0
609.37,878.7
609.901,875.8
610.432,877.4
610.962,875.2
611.493,873.8
612.023,874.8
612.554,875.9
613.084,873.3
613.614,875.4
614.145,875.2
614.675,874.7
615.205,874.6
615.735,874.2
616.265,874.3
616.795,879.0
617.324,879.1
617.854,877.5
618.384,878.7
618.913,877.7
619.443,879.4
619.972,880.1
620.502,884.0
621.031,887.7
621.56,897.4
622.089,921.4
622.618,917.8
623.147,894.6
623.676,881.7
624.205,883.2
624.734,879.4
625.263,881.5
625.792,892.3
626.32,917.9
626.849,1157.6
627.377,1502.6
627.906,1236.0
628.434,1461.1
628.963,1221.1
629.491,1137.4
630.019,1048.0
630.547,1035.0
631.076,941.3
631.604,894.6
632.132,883.7
632.66,879.8
633.188,875.1
633.715,874.1
634.243,871.7
634.771,872.2
635.299,868.8
635.826,868.5
636.354,869.2
636.881,866.0
637.409,866.0
637.936,865.1
638.464,863.8
638.991,866.2
639.518,865.6
640.045,862.8
640.573,865.6
641.1,864.2
641.627,863.8
642.154,866.5
642.681,867.2
643.208,864.2
643.735,863.6
644.261,863.4
644.788,864.9
645.315,864.9
645.842,863.6
646.368,866.3
646.895,862.7
647.421,866.9
647.948,862.2
648.474,863.6
649.001,864.4
649.527,864.3
650.054,865.1
650.58,865.4
651.106,866.7
651.633,864.9
652.159,863.0
652.685,865.7
653.211,864.7
653.737,860.9
654.263,861.7
654.789,862.4
655.315,858.9
655.841,863.0
656.367,858.8
656.893,859.4
657.419,861.3
657.945,858.1
658.47,860.2
658.996,859.9
659.522,860.8
660.047,859.8
660.573,858.4
661.099,858.0
661.624,855.5
662.15,856.7
662.675,857.1
663.07,856.2