File: spectra/VLFR_08-PLA_nobio_Raman_ed74333d.csv
nm,Intensity
526.508,828.8
527.055,828.4
527.602,828.2
528.149,830.7
528.695,827.1
529.241,830.1
529.787,828.6
530.334,827.9
530.879,828.8
531.425,829.2
531.971,832.0
532.516,828.6
533.062,829.1
533.607,829.4
534.152,1050.4
534.697,1007.2
535.242,962.4
535.786,945.1
536.331,935.7
536.876,937.5
537.42,926.4
537.964,929.3
538.508,918.5
539.052,913.0
539.596,910.3
540.14,907.3
540.683,920.6
541.227,926.0
541.77,913.6
542.313,911.9
542.856,909.8
543.399,937.3
543.942,942.5
544.485,919.9
545.027,912.7
545.57,909.1
546.112,906.0
546.654,910.2
547.196,911.9
547.738,908.8
548.28,909.3
548.822,910.8
549.363,914.3
549.905,911.7
550.446,912.9
550.988,916.5
551.529,922.6
552.07,919.9
552.611,924.0
553.152,926.8
553.692,921.3
554.233,932.2
554.773,926.3
555.314,917.0
555.854,913.4
556.394,911.8
556.934,919.4
557.474,934.6
558.014,1059.0
558.553,955.9
559.093,932.8
559.632,931.8
560.172,925.7
560.711,925.4
561.25,919.6
561.789,917.3
562.328,924.4
562.867,934.3
563.406,963.9
563.944,945.2
564.483,939.3
565.021,962.2
565.559,959.1
566.098,994.4
566.636,951.2
567.174,933.6
567.711,934.7
568.249,941.0
568.787,938.4
569.324,942.1
569.862,935.6
570.399,937.6
570.936,941.4
571.474,959.2
572.011,962.4
572.548,950.8
573.084,952.1
573.621,960.2
574.158,956.0
574.694,966.6
575.231,950.4
575.767,946.3
576.303,966.0
576.84,1022.6
577.376,967.8
577.912,944.9
578.447,948.1
578.983,941.3
579.519,943.8
580.054,942.9
580.59,944.1
581.125,936.8
581.661,942.3
582.196,941.8
582.731,947.8
583.266,952.2
583.801,943.5
584.336,944.1
584.87,949.9
585.405,952.9
585.94,947.2
586.474,964.9
587.008,1000.3
587.543,1029.9
588.077,973.4
588.611,946.3
589.145,950.1
589.679,944.3
590.213,948.8
590.747,949.9
591.28,944.8
591.814,947.0
592.347,943.6
592.881,945.4
593.414,942.2
593.947,944.8
594.48,945.5
595.014,948.3
595.547,947.1
596.079,947.9
596.612,947.7
597.145,949.4
597.678,944.0
598.21,948.8
598.743,952.4
599.275,947.2
599.807,952.1
600.34,948.7
600.872,947.4
601.404,947.5
601.936,953.6
602.468,953.1
603.0,948.0
603.532,948.9
604.063,951.9
604.595,950.4
605.126,950.5
605.658,950.2
606.189,949.7
606.721,949.6
607.252,942.5
607.783,948.3
608.314,950.3
608.845,950.6
609.376,948.0
609.907,950.6
610.438,948.5
610.968,949.2
611.499,947.7
612.03,950.6
612.56,951.6
613.091,951.3
613.621,954.0
614.151,957.4
614.681,954.3
615.212,954.5
615.742,957.5
616.272,952.4
616.802,953.8
617.332,955.1
617.861,960.3
618.391,951.8
618.921,954.9
619.45,956.5
619.98,956.0
620.509,953.9
621.039,952.6
621.568,958.2
622.097,954.7
622.627,964.0
623.156,972.1
623.685,964.5
624.214,960.0
624.743,957.0
625.272,953.8
625.801,952.1
626.33,952.4
626.858,953.2
627.387,955.2
627.916,970.1
628.444,1042.4
628.973,1023.4
629.501,1023.7
630.029,1030.5
630.558,1087.5
631.086,1518.2
631.614,1242.3
632.142,1102.4
632.67,1081.6
633.198,1178.1
633.726,1144.0
634.254,1030.4
634.782,972.9
635.31,953.6
635.838,952.7
636.365,948.2
636.893,943.2
637.421,945.1
637.948,942.0
638.476,939.0
639.003,940.9
639.531,939.0
640.058,940.2
640.585,940.2
641.113,938.2
641.64,937.0
642.167,944.5
642.694,938.5
643.221,936.0
643.748,930.9
644.275,931.3
644.802,931.7
645.329,931.0
645.856,928.5
646.382,927.3
646.909,925.1
647.436,928.4
647.962,923.8
648.489,924.2
649.016,922.7
649.542,920.6
650.069,923.4
650.595,923.4
651.121,921.0
651.648,922.1
652.174,922.6
652.7,922.0
653.227,921.4
653.753,919.5
654.279,919.7
654.805,920.5
655.331,917.4
655.857,921.5
656.383,919.3
656.909,920.9
657.435,919.4
657.961,917.7
658.487,917.0
659.013,919.5
659.538,913.1
660.064,917.1
660.59,913.2
661.116,912.4
661.641,914.6
662.167,909.5
662.692,914.4
663.087,911.7