File: spectra/VLFR_02-HDPE_nobio_Raman_f77e4625.csv
nm,Intensity
526.5,830.3
527.047,829.1
527.594,829.6
528.14,828.4
528.687,830.9
529.233,827.4
529.779,829.4
530.325,829.7
530.871,830.4
531.417,828.7
531.962,831.0
532.508,829.0
533.053,829.2
533.599,830.1
534.144,864.6
534.689,855.5
535.234,851.9
535.778,847.2
536.323,844.4
536.867,843.6
537.412,844.3
537.956,843.1
538.5,841.2
539.044,841.9
539.588,842.6
540.132,838.5
540.675,838.4
541.219,838.4
541.762,838.7
542.305,838.0
542.848,838.6
543.391,838.4
543.934,839.7
544.477,838.8
545.02,838.2
545.562,838.5
546.105,840.1
546.647,837.2
547.189,838.9
547.731,839.6
548.273,838.2
548.815,839.8
549.356,838.5
549.898,838.8
550.439,838.9
550.981,838.2
551.522,838.0
552.063,839.5
552.604,837.3
553.145,839.4
553.686,838.1
554.226,841.7
554.767,841.4
555.307,839.0
555.848,842.3
556.388,840.3
556.928,842.8
557.468,840.9
558.008,845.2
558.547,845.0
559.087,844.4
559.626,844.3
560.166,842.7
560.705,841.9
561.244,843.1
561.783,843.1
562.322,842.2
562.861,845.7
563.4,848.4
563.939,890.5
564.477,857.0
565.015,850.8
565.554,851.8
566.092,930.1
566.63,855.8
567.168,849.4
567.706,847.8
568.244,846.2
568.781,846.6
569.319,844.9
569.857,848.2
570.394,849.5
570.931,850.8
571.468,922.1
572.005,861.9
572.542,852.4
573.079,849.2
573.616,848.3
574.153,852.7
574.689,847.5
575.226,852.0
575.762,892.4
576.298,897.1
576.834,881.2
577.371,865.4
577.907,851.7
578.442,850.0
578.978,851.2
579.514,853.5
580.049,853.3
580.585,852.4
581.12,852.7
581.656,854.5
582.191,855.1
582.726,854.4
583.261,856.3
583.796,857.0
584.331,856.4
584.865,857.0
585.4,861.8
585.935,861.7
586.469,864.2
587.004,862.2
587.538,866.4
588.072,867.2
588.606,864.5
589.14,867.4
589.674,865.5
590.208,867.7
590.742,870.6
591.275,873.3
591.809,871.3
592.342,871.7
592.876,872.6
593.409,871.6
593.942,874.0
594.476,874.0
595.009,874.0
595.542,874.5
596.075,874.7
596.607,879.7
597.14,880.0
597.673,882.6
598.205,881.6
598.738,882.6
599.27,886.2
599.803,889.3
600.335,885.1
600.867,889.6
601.399,889.2
601.931,889.9
602.463,887.0
602.995,888.2
603.527,887.0
604.058,885.2
604.59,882.6
605.122,880.7
605.653,881.0
606.184,875.9
606.716,875.5
607.247,874.0
607.778,875.8
608.309,873.1
608.84,875.8
609.371,871.0
609.902,870.9
610.433,867.2
610.964,870.2
611.494,872.3
612.025,868.5
612.556,865.9
613.086,865.7
613.616,865.2
614.147,865.9
614.677,863.9
615.207,867.9
615.737,864.1
616.267,863.6
616.797,863.4
617.327,864.5
617.857,863.1
618.387,867.1
618.917,864.6
619.446,863.7
619.976,865.0
620.505,861.2
621.035,863.3
621.564,867.0
622.093,877.4
622.623,875.5
623.152,868.2
623.681,864.6
624.21,864.6
624.739,862.9
625.268,866.0
625.797,869.9
626.326,875.3
626.855,965.9
627.383,1177.4
627.912,1039.5
628.441,1107.8
628.969,1069.0
629.498,1028.1
630.026,978.9
630.554,967.9
631.083,912.4
631.611,877.7
632.139,869.5
632.667,863.3
633.195,863.3
633.724,862.3
634.252,860.0
634.779,859.0
635.307,858.8
635.835,857.5
636.363,856.7
636.891,857.0
637.418,855.1
637.946,855.0
638.474,856.2
639.001,855.5
639.529,856.6
640.056,854.6
640.583,858.9
641.111,855.5
641.638,857.6
642.165,857.7
642.692,857.9
643.22,858.0
643.747,854.8
644.274,858.0
644.801,857.0
645.328,857.4
645.854,857.6
646.381,857.3
646.908,856.3
647.435,854.5
647.962,859.7
648.488,857.4
649.015,856.5
649.542,857.4
650.068,858.7
650.595,857.9
651.121,859.6
651.648,856.1
652.174,858.3
652.7,857.5
653.227,856.9
653.753,858.1
654.279,858.9
654.805,860.1
655.331,855.9
655.858,856.9
656.384,858.4
656.91,856.2
657.436,859.0
657.962,854.7
658.488,857.5
659.013,856.0
659.539,855.3
660.065,856.5
660.591,854.5
661.117,856.8
661.642,852.3
662.168,854.2
662.694,851.5
663.088,851.1