File: spectra/VLFR_02-HDPE_bio_Raman_37f9e83a.csv
nm,Intensity
526.549,830.55
527.096,830.45
527.643,829.95
528.19,831.1
528.737,829.65
529.283,830.7
529.83,831.1
530.376,831.25
530.922,830.6
531.468,829.6
532.014,842.2
532.559,830.75
533.105,830.4
533.65,832.35
534.196,892.75
534.741,885.85
535.286,879.5
535.83,862.35
536.375,855.55
536.92,854.65
537.464,852.45
538.008,853.35
538.553,851.7
539.097,847.75
539.641,846.8
540.184,845.35
540.728,843.9
541.271,845.75
541.815,846.55
542.358,846.2
542.901,845.75
543.444,845.0
543.987,846.2
544.53,845.1
545.072,845.75
545.615,844.1
546.157,846.45
546.699,845.65
547.242,845.4
547.784,844.7
548.325,846.2
548.867,844.3
549.409,845.75
549.95,845.05
550.492,845.85
551.033,844.4
551.574,845.35
552.115,845.2
552.656,845.85
553.197,846.55
553.737,847.5
554.278,848.45
554.818,846.8
555.358,849.2
555.899,848.85
556.439,850.05
556.979,851.45
557.518,852.35
558.058,854.55
558.598,854.1
559.137,852.9
559.677,854.15
560.216,852.3
560.755,851.6
561.294,850.95
561.833,853.5
562.372,853.7
562.91,856.15
563.449,858.1
563.987,955.3
564.526,875.4
565.064,868.85
565.602,865.25
566.14,988.65
566.678,865.85
567.216,860.15
567.754,861.45
568.291,857.55
568.829,856.15
569.366,858.55
569.904,860.3
570.441,863.55
570.978,867.1
571.515,1026.95
572.052,883.0
572.589,866.6
573.125,864.55
573.662,865.6
574.199,869.5
574.735,864.9
575.271,873.5
575.807,915.55
576.344,997.45
576.88,940.4
577.415,912.2
577.951,884.5
578.487,881.5
579.023,883.8
579.558,888.45
580.094,889.6
580.629,889.9
581.164,889.75
581.699,894.45
582.234,898.35
582.769,899.65
583.304,901.65
583.839,902.5
584.374,903.45
584.908,908.3
585.443,914.05
585.977,914.35
586.511,916.35
587.046,922.7
587.58,925.6
588.114,927.55
588.648,932.35
589.182,932.2
589.716,936.8
590.249,940.0
590.783,943.7
591.316,950.25
591.85,951.0
592.383,956.75
592.917,954.15
593.45,956.95
593.983,958.35
594.516,958.5
595.049,960.9
595.582,961.55
596.115,960.5
596.647,964.65
597.18,967.9
597.712,966.85
598.245,970.8
598.777,967.1
599.31,968.9
599.842,972.7
600.374,968.05
600.906,966.1
601.438,968.25
601.97,969.5
602.502,963.4
603.034,963.75
603.565,959.75
604.097,962.3
604.628,953.8
605.16,951.0
605.691,946.3
606.223,942.55
606.754,942.45
607.285,941.65
607.816,937.1
608.347,933.8
608.878,930.8
609.409,931.45
609.94,928.15
610.47,928.05
611.001,927.35
611.532,925.85
612.062,921.2
612.593,922.9
613.123,922.25
613.653,919.95
614.184,919.65
614.714,917.5
615.244,916.7
615.774,917.1
616.304,915.2
616.834,917.05
617.364,918.8
617.894,922.25
618.423,917.85
618.953,915.75
619.482,919.6
620.012,923.35
620.541,917.1
621.071,921.3
621.6,937.05
622.13,958.4
622.659,954.35
623.188,924.4
623.717,919.8
624.246,917.05
624.775,917.3
625.304,920.8
625.833,928.5
626.362,961.55
626.89,1262.5
627.419,1627.2
627.948,1324.55
628.476,1632.2
629.005,1320.25
629.533,1229.65
630.061,1133.5
630.59,1111.65
631.118,994.25
631.646,936.6
632.175,926.2
632.703,917.3
633.231,917.7
633.759,912.65
634.287,911.5
634.815,910.7
635.342,909.9
635.87,905.85
636.398,906.05
636.926,908.0
637.453,905.6
637.981,903.0
638.509,905.35
639.036,903.75
639.563,905.3
640.091,904.55
640.618,902.55
641.146,904.15
641.673,900.95
642.2,903.4
642.727,905.4
643.254,902.55
643.781,902.4
644.309,900.55
644.836,902.95
645.362,900.8
645.889,901.8
646.416,901.35
646.943,901.85
647.47,900.45
647.997,901.55
648.523,901.95
649.05,903.1
649.577,898.1
650.103,899.25
650.63,897.35
651.156,896.7
651.683,894.75
652.209,898.4
652.735,899.25
653.262,895.8
653.788,896.2
654.314,896.55
654.841,895.7
655.367,896.95
655.893,893.8
656.419,892.15
656.945,891.1
657.471,891.55
657.997,889.85
658.523,889.75
659.049,889.1
659.575,888.9
660.101,888.15
660.627,885.8
661.153,884.45
661.679,883.2
662.205,880.55
662.731,881.8
663.125,879.4