File: spectra/VLFR_02-HDPE_nobio_Raman_7cd69a73.csv
nm,Intensity
526.532,833.25
527.079,833.3
527.625,832.75
528.172,833.65
528.718,832.95
529.265,833.4
529.811,833.15
530.357,833.05
530.903,832.6
531.449,834.2
531.994,843.05
532.54,833.95
533.085,832.3
533.63,835.85
534.176,927.15
534.721,928.15
535.266,919.5
535.81,890.6
536.355,882.2
536.9,879.35
537.444,878.4
537.988,878.15
538.533,876.25
539.077,873.7
539.621,868.5
540.165,867.05
540.708,867.25
541.252,868.3
541.795,865.7
542.339,868.2
542.882,867.25
543.425,869.0
543.968,868.6
544.511,869.75
545.054,867.3
545.597,867.6
546.139,869.05
546.682,870.35
547.224,869.4
547.766,869.7
548.308,869.75
548.85,867.85
549.392,869.2
549.934,871.55
550.475,870.2
551.017,871.3
551.558,870.35
552.1,869.75
552.641,869.5
553.182,872.75
553.723,872.25
554.264,874.65
554.804,873.15
555.345,873.7
555.885,876.9
556.426,875.1
556.966,878.45
557.506,880.75
558.046,880.8
558.586,883.5
559.126,882.35
559.665,880.35
560.205,881.35
560.745,883.1
561.284,881.9
561.823,883.3
562.362,885.95
562.901,891.15
563.44,896.85
563.979,1019.35
564.518,917.45
565.056,908.05
565.595,903.5
566.133,1027.9
566.671,901.45
567.21,898.25
567.748,904.65
568.285,894.05
568.823,893.5
569.361,897.15
569.899,895.8
570.436,903.95
570.974,909.35
571.511,1132.45
572.048,931.65
572.585,909.3
573.122,902.5
573.659,906.85
574.196,917.1
574.733,908.55
575.269,919.2
575.806,968.6
576.342,1148.05
576.878,1033.65
577.414,996.0
577.951,947.7
578.486,948.2
579.022,948.7
579.558,957.75
580.094,968.8
580.629,971.7
581.165,981.75
581.7,986.7
582.236,990.75
582.771,1001.3
583.306,1009.05
583.841,1009.7
584.376,1018.25
584.911,1022.85
585.445,1029.25
585.98,1036.95
586.514,1041.75
587.049,1048.15
587.583,1056.5
588.117,1062.05
588.651,1068.4
589.186,1073.6
589.72,1082.9
590.253,1092.15
590.787,1097.15
591.321,1104.7
591.854,1111.05
592.388,1111.2
592.921,1114.7
593.455,1113.25
593.988,1114.4
594.521,1118.3
595.054,1123.1
595.587,1121.6
596.12,1128.05
596.653,1131.1
597.186,1132.6
597.718,1134.5
598.251,1149.1
598.783,1153.35
599.316,1155.7
599.848,1160.55
600.38,1159.7
600.912,1157.45
601.444,1162.6
601.976,1164.75
602.508,1151.95
603.04,1154.25
603.572,1144.6
604.103,1134.55
604.635,1127.4
605.167,1110.65
605.698,1100.65
606.229,1088.0
606.761,1074.85
607.292,1068.55
607.823,1063.4
608.354,1058.8
608.885,1049.3
609.416,1043.0
609.947,1040.4
610.477,1031.25
611.008,1026.9
611.539,1022.3
612.069,1022.45
612.6,1016.6
613.13,1016.4
613.66,1010.6
614.19,1006.95
614.721,1005.85
615.251,999.25
615.781,994.1
616.311,992.75
616.841,996.5
617.37,997.55
617.9,999.9
618.43,997.1
618.96,989.3
619.489,992.6
620.019,988.0
620.548,990.2
621.077,994.85
621.607,1017.8
622.136,1056.25
622.665,1040.35
623.194,998.2
623.723,988.25
624.252,986.55
624.781,986.3
625.31,991.15
625.839,1003.85
626.368,1051.75
626.896,1499.7
627.425,2015.35
627.953,1578.75
628.482,2116.65
629.01,1599.7
629.539,1440.0
630.067,1293.95
630.596,1260.0
631.124,1087.55
631.652,1012.0
632.18,997.9
632.708,992.65
633.236,987.85
633.764,982.65
634.292,980.75
634.82,977.95
635.348,976.8
635.876,979.3
636.403,979.4
636.931,979.35
637.459,976.1
637.986,973.65
638.514,973.1
639.041,974.5
639.568,976.25
640.096,977.5
640.623,979.05
641.15,983.55
641.678,981.2
642.205,983.0
642.732,983.95
643.259,982.7
643.786,983.0
644.313,984.95
644.84,984.35
645.367,982.5
645.894,983.6
646.421,985.25
646.948,982.3
647.474,982.2
648.001,987.0
648.528,983.6
649.054,983.25
649.581,980.9
650.108,981.2
650.634,978.35
651.161,976.3
651.687,979.4
652.214,976.5
652.74,975.2
653.266,978.1
653.793,979.25
654.319,977.15
654.845,978.65
655.371,974.85
655.897,973.6
656.424,971.05
656.95,970.8
657.476,969.3
658.002,963.95
658.528,962.1
659.054,958.6
659.58,958.8
660.106,955.1
660.631,948.9
661.157,943.3
661.683,941.75
662.209,938.05
662.735,935.0
663.129,930.8