File: spectra/VLFR_08-PLA_nobio_Raman_cc48c79e.csv
nm,Intensity
526.486,829.8
527.033,828.9
527.579,829.3
528.126,827.9
528.672,830.0
529.219,829.3
529.765,830.2
530.311,829.9
530.857,829.1
531.403,829.3
531.948,830.8
532.494,830.1
533.039,830.3
533.585,830.3
534.13,1022.3
534.675,989.2
535.22,952.0
535.764,935.1
536.309,929.4
536.854,934.2
537.398,925.8
537.942,920.3
538.486,911.9
539.03,910.0
539.574,904.6
540.118,899.8
540.662,915.0
541.205,917.6
541.749,907.1
542.292,905.9
542.835,906.6
543.378,929.7
543.921,940.1
544.464,916.6
545.006,907.7
545.549,906.7
546.091,903.6
546.634,906.3
547.176,906.9
547.718,909.8
548.26,902.8
548.802,909.3
549.343,908.0
549.885,910.6
550.426,912.8
550.968,910.5
551.509,916.7
552.05,919.2
552.591,922.3
553.132,923.5
553.673,918.6
554.214,926.5
554.754,919.8
555.295,915.9
555.835,910.5
556.375,912.9
556.915,916.7
557.455,931.1
557.995,1025.7
558.535,953.0
559.075,930.3
559.614,926.1
560.154,923.6
560.693,922.3
561.232,917.6
561.772,918.7
562.311,919.5
562.85,929.0
563.388,957.8
563.927,943.7
564.466,934.0
565.004,952.7
565.543,949.6
566.081,973.4
566.619,948.3
567.157,930.3
567.695,931.6
568.233,937.9
568.771,934.7
569.309,940.3
569.846,935.6
570.384,935.2
570.921,938.3
571.458,950.6
571.995,951.8
572.532,949.2
573.069,949.4
573.606,954.4
574.143,950.8
574.68,960.4
575.216,940.8
575.753,943.1
576.289,950.6
576.825,1011.8
577.361,965.8
577.897,945.4
578.433,944.1
578.969,940.6
579.505,945.1
580.041,942.5
580.576,945.1
581.112,944.9
581.647,942.8
582.183,941.9
582.718,944.9
583.253,945.7
583.788,953.4
584.323,953.0
584.858,944.6
585.392,949.3
585.927,950.1
586.462,958.2
586.996,988.4
587.53,1014.7
588.065,975.3
588.599,947.2
589.133,950.3
589.667,950.4
590.201,950.7
590.735,948.2
591.268,947.2
591.802,949.2
592.335,942.8
592.869,944.0
593.402,947.1
593.936,945.6
594.469,945.6
595.002,944.3
595.535,949.4
596.068,946.0
596.601,946.4
597.133,949.2
597.666,944.5
598.199,948.7
598.731,949.7
599.264,952.8
599.796,946.6
600.328,949.1
600.86,949.0
601.393,947.2
601.925,950.7
602.457,945.9
602.988,948.5
603.52,948.3
604.052,947.2
604.583,952.1
605.115,948.0
605.646,947.6
606.178,947.1
606.709,942.1
607.24,944.8
607.771,942.5
608.302,945.4
608.833,945.4
609.364,948.5
609.895,949.7
610.426,945.7
610.957,944.5
611.487,942.4
612.018,942.4
612.548,944.9
613.078,948.5
613.609,951.1
614.139,945.8
614.669,946.0
615.199,942.3
615.729,951.0
616.259,950.6
616.789,948.7
617.319,950.5
617.849,948.9
618.378,952.0
618.908,946.0
619.437,949.6
619.967,947.5
620.496,946.3
621.025,950.8
621.555,945.4
622.084,947.2
622.613,956.8
623.142,960.5
623.671,957.8
624.2,955.3
624.729,947.9
625.258,947.8
625.786,945.9
626.315,946.0
626.844,947.9
627.372,954.0
627.901,957.6
628.429,1015.9
628.957,1016.7
629.486,1009.5
630.014,1013.3
630.542,1067.2
631.07,1437.0
631.598,1216.6
632.126,1070.0
632.654,1049.6
633.182,1140.8
633.71,1114.3
634.237,1017.9
634.765,965.0
635.293,948.7
635.82,941.5
636.348,942.7
636.875,937.9
637.403,936.2
637.93,937.1
638.458,934.5
638.985,939.5
639.512,936.1
640.039,935.8
640.566,931.7
641.093,935.2
641.62,936.5
642.147,935.3
642.674,937.4
643.201,931.8
643.728,928.7
644.255,928.2
644.781,925.8
645.308,926.2
645.835,922.4
646.361,925.6
646.888,928.5
647.414,923.4
647.941,925.0
648.467,921.9
648.993,921.3
649.52,918.6
650.046,920.1
650.572,918.8
651.098,920.6
651.625,917.8
652.151,917.2
652.677,920.0
653.203,919.6
653.729,919.3
654.255,917.6
654.78,914.7
655.306,916.5
655.832,916.7
656.358,918.3
656.884,915.5
657.409,916.0
657.935,915.9
658.461,916.4
658.986,914.7
659.512,917.1
660.037,914.1
660.563,912.8
661.088,913.7
661.614,913.1
662.139,909.8
662.664,910.2
663.058,910.9