File: spectra/VLFR_02-HDPE_bio_Raman_a11d4e02.csv
nm,Intensity
528.626,1865.8
529.132,1867.4
529.637,1868.6
530.143,1867.4
530.648,1867.5
531.153,1870.4
531.658,1893.4
532.164,3382.9
532.669,1870.3
533.174,1866.9
533.679,1917.9
534.184,2105.4
534.689,2109.1
535.194,2099.1
535.699,2029.1
536.203,2002.1
536.708,1998.2
537.213,2001.6
537.717,2008.2
538.222,2006.5
538.726,2002.6
539.231,2005.5
539.735,1993.2
540.239,1994.0
540.744,1991.1
541.248,1985.9
541.752,1996.4
542.256,1990.2
542.76,1997.0
543.264,2002.1
543.768,2002.7
544.272,1989.3
544.776,1999.5
545.28,1991.5
545.784,1996.6
546.287,2000.2
546.791,2008.1
547.294,1996.4
547.798,1998.0
548.301,2004.3
548.805,2004.4
549.308,2005.9
549.811,2004.1
550.315,1998.6
550.818,2011.4
551.321,2006.6
551.824,2020.5
552.327,2010.2
552.83,2010.9
553.333,2028.1
553.835,2020.7
554.338,2024.6
554.841,2032.9
555.343,2040.1
555.846,2041.0
556.349,2032.0
556.851,2046.7
557.353,2061.9
557.856,2066.8
558.358,2063.5
558.86,2063.4
559.362,2072.8
559.864,2062.9
560.366,2058.7
560.868,2068.6
561.37,2068.3
561.872,2086.9
562.374,2089.1
562.876,2097.4
563.377,2104.7
563.879,2398.9
564.38,2190.9
564.882,2156.8
565.383,2123.7
565.885,2225.6
566.386,2300.8
566.887,2114.6
567.388,2171.6
567.889,2112.5
568.391,2098.5
568.892,2116.0
569.392,2106.7
569.893,2126.7
570.394,2146.7
570.895,2167.9
571.395,2629.1
571.896,2280.8
572.397,2161.7
572.897,2138.9
573.397,2135.8
573.898,2179.6
574.398,2142.7
574.898,2141.3
575.398,2298.3
575.898,2371.1
576.398,2717.2
576.898,2507.6
577.398,2347.0
577.898,2188.7
578.398,2171.2
578.897,2163.1
579.397,2171.7
579.896,2175.6
580.396,2191.0
580.895,2196.4
581.395,2187.1
581.894,2212.6
582.393,2224.0
582.892,2252.6
583.391,2261.1
583.89,2261.4
584.389,2289.3
584.888,2293.5
585.387,2311.9
585.886,2321.7
586.384,2308.2
586.883,2362.2
587.381,2377.3
587.88,2400.5
588.378,2401.4
588.876,2439.4
589.375,2409.4
589.873,2449.3
590.371,2450.7
590.869,2464.7
591.367,2462.2
591.865,2497.7
592.363,2508.9
592.86,2484.6
593.358,2498.7
593.856,2513.0
594.353,2526.5
594.851,2528.5
595.348,2535.0
595.845,2526.5
596.342,2549.6
596.84,2541.7
597.337,2551.7
597.834,2529.6
598.331,2534.2
598.828,2556.9
599.324,2569.3
599.821,2543.9
600.318,2562.7
600.814,2536.3
601.311,2554.0
601.807,2582.7
602.304,2566.1
602.8,2541.7
603.296,2558.8
603.792,2590.9
604.288,2561.5
604.784,2572.4
605.28,2583.7
605.776,2556.0
606.272,2572.5
606.767,2565.9
607.263,2577.6
607.759,2560.4
608.254,2573.9
608.749,2562.5
609.245,2574.9
609.74,2563.7
610.235,2587.5
610.73,2602.3
611.225,2593.8
611.72,2540.5
612.215,2562.6
612.71,2549.4
613.204,2555.1
613.699,2553.1
614.194,2528.2
614.688,2526.0
615.182,2515.1
615.677,2540.4
616.171,2517.6
616.665,2531.3
617.159,2552.2
617.653,2568.3
618.147,2558.9
618.641,2548.8
619.135,2544.2
619.628,2554.6
620.122,2539.5
620.615,2549.2
621.109,2587.5
621.602,2658.0
622.095,2847.9
622.589,2760.7
623.082,2597.2
623.575,2514.2
624.068,2488.7
624.561,2494.2
625.053,2491.8
625.546,2525.3
626.039,2617.7
626.531,3277.6
627.024,6515.4
627.516,6186.8
628.008,5172.6
628.501,7526.3
628.993,4999.2
629.485,4334.7
629.977,3799.7
630.469,3619.8
630.96,3031.4
631.452,2566.7
631.944,2458.1
632.435,2443.5
632.927,2425.3
633.418,2397.7
633.91,2388.9
634.401,2349.6
634.892,2365.2
635.383,2343.0
635.874,2337.9
636.365,2338.8
636.856,2326.5
637.346,2316.3
637.837,2291.1
638.327,2305.5
638.818,2282.5
639.308,2298.7
639.799,2282.3
640.289,2280.5
640.779,2270.1
641.269,2273.9
641.759,2265.5
642.249,2282.3
642.738,2300.1
643.228,2268.8
643.718,2261.2
644.207,2271.3
644.697,2264.1
645.186,2243.4
645.675,2239.7
646.164,2259.2
646.653,2257.5
647.142,2233.9
647.631,2240.3
648.12,2246.8
648.609,2242.4
649.098,2233.0
649.586,2214.8
650.075,2211.8
650.563,2210.4
651.051,2228.6
651.539,2221.3
652.027,2205.4
652.515,2189.0
653.003,2204.2
653.491,2174.4
653.979,2191.1
654.467,2193.4
654.954,2192.4
655.442,2199.4
655.929,2177.6
656.416,2169.3
656.904,2165.1
657.391,2158.9
657.878,2162.4
658.365,2150.5
658.851,2141.4
659.338,2144.5
659.825,2156.6
660.311,2166.5
660.798,2134.1
661.041,2129.0