File: spectra/VLFR_01-LDPE_bio_Raman_f0409eea.csv
nm,Intensity
526.508,829.0
527.055,830.2
527.602,831.4
528.149,830.9
528.695,830.5
529.241,829.7
529.787,829.5
530.334,830.1
530.879,830.7
531.425,831.1
531.971,834.0
532.516,832.0
533.062,830.3
533.607,831.0
534.152,926.4
534.697,915.6
535.242,899.6
535.786,876.1
536.331,872.6
536.876,868.5
537.42,865.4
537.964,863.7
538.508,861.5
539.052,856.6
539.596,856.0
540.14,853.7
540.683,853.1
541.227,850.3
541.77,850.8
542.313,850.0
542.856,848.7
543.399,850.1
543.942,848.3
544.485,848.1
545.027,846.5
545.57,845.1
546.112,847.4
546.654,845.6
547.196,847.0
547.738,846.8
548.28,845.1
548.822,847.6
549.363,845.2
549.905,847.3
550.446,844.1
550.988,844.5
551.529,843.9
552.07,844.8
552.611,845.7
553.152,844.8
553.692,850.7
554.233,849.6
554.773,851.8
555.314,851.4
555.854,853.0
556.394,856.8
556.934,856.2
557.474,859.7
558.014,862.1
558.553,863.3
559.093,863.4
559.632,859.4
560.172,859.8
560.711,858.8
561.25,859.7
561.789,860.4
562.328,861.9
562.867,868.8
563.406,874.9
563.944,934.0
564.483,895.9
565.021,890.0
565.559,879.2
566.098,946.0
566.636,889.7
567.174,882.2
567.711,884.7
568.249,879.0
568.787,880.2
569.324,881.9
569.862,886.7
570.399,888.3
570.936,903.9
571.474,1002.0
572.011,939.6
572.548,915.7
573.084,912.0
573.621,916.6
574.158,931.3
574.694,925.2
575.231,940.1
575.767,994.4
576.303,1121.8
576.84,1074.2
577.376,1048.5
577.912,1010.9
578.447,1024.2
578.983,1046.7
579.519,1060.2
580.054,1073.3
580.59,1090.8
581.125,1112.6
581.661,1125.0
582.196,1142.6
582.731,1157.8
583.266,1175.8
583.801,1186.3
584.336,1206.3
584.87,1214.7
585.405,1228.3
585.94,1243.5
586.474,1269.7
587.008,1295.9
587.543,1322.3
588.077,1341.9
588.611,1368.4
589.145,1384.1
589.679,1417.0
590.213,1434.0
590.747,1466.2
591.28,1492.7
591.814,1488.7
592.347,1497.9
592.881,1508.3
593.414,1514.0
593.947,1523.1
594.48,1511.3
595.014,1520.7
595.547,1548.1
596.079,1545.0
596.612,1545.0
597.145,1567.7
597.678,1569.5
598.21,1579.5
598.743,1604.0
599.275,1615.3
599.807,1621.8
600.34,1611.0
600.872,1610.7
601.404,1607.0
601.936,1594.5
602.468,1569.5
603.0,1552.6
603.532,1542.5
604.063,1516.3
604.595,1489.1
605.126,1466.5
605.658,1419.1
606.189,1406.0
606.721,1384.1
607.252,1349.8
607.783,1341.2
608.314,1322.8
608.845,1305.2
609.376,1288.4
609.907,1269.8
610.438,1254.1
610.968,1237.4
611.499,1229.0
612.03,1230.8
612.56,1220.0
613.091,1210.6
613.621,1206.5
614.151,1190.0
614.681,1188.2
615.212,1183.5
615.742,1168.9
616.272,1162.2
616.802,1161.7
617.332,1153.6
617.861,1148.0
618.391,1138.5
618.921,1134.2
619.45,1138.3
619.98,1131.4
620.509,1127.6
621.039,1129.8
621.568,1139.2
622.097,1168.3
622.627,1160.8
623.156,1124.6
623.685,1117.8
624.214,1116.1
624.743,1115.1
625.272,1121.8
625.801,1134.1
626.33,1157.8
626.858,1437.4
627.387,1973.1
627.916,1631.6
628.444,1899.9
628.973,1697.1
629.501,1556.0
630.029,1439.3
630.558,1419.3
631.086,1272.9
631.614,1187.6
632.142,1159.7
632.67,1142.9
633.198,1135.8
633.726,1140.1
634.254,1139.9
634.782,1135.2
635.31,1137.3
635.838,1139.3
636.365,1131.0
636.893,1134.0
637.421,1147.4
637.948,1149.5
638.476,1147.1
639.003,1145.6
639.531,1151.8
640.058,1151.8
640.585,1164.4
641.113,1159.1
641.64,1164.9
642.167,1174.9
642.694,1171.0
643.221,1163.8
643.748,1176.9
644.275,1183.6
644.802,1175.0
645.329,1171.5
645.856,1174.2
646.382,1174.3
646.909,1178.5
647.436,1177.6
647.962,1181.0
648.489,1172.2
649.016,1176.4
649.542,1171.7
650.069,1164.2
650.595,1168.9
651.121,1171.9
651.648,1173.4
652.174,1169.9
652.7,1174.5
653.227,1176.4
653.753,1172.1
654.279,1164.9
654.805,1172.6
655.331,1165.5
655.857,1160.7
656.383,1155.4
656.909,1157.0
657.435,1146.9
657.961,1131.2
658.487,1127.9
659.013,1123.4
659.538,1119.3
660.064,1110.2
660.59,1102.3
661.116,1088.2
661.641,1079.3
662.167,1067.9
662.692,1060.4
663.087,1048.5