File: spectra/VLFR_07-PET_nobio_Raman_6929e53a.csv
nm,Intensity
782.722,3748.02
783.822,3758.84
784.922,6750.98
786.022,4025.56
787.122,3768.1
788.222,4389.7
789.321,5866.94
790.421,5777.36
791.52,5626.3
792.619,5509.06
793.718,5473.38
794.817,5423.82
795.916,5392.48
797.015,5380.16
798.114,5371.76
799.212,5336.18
800.311,5338.72
801.409,5301.9
802.507,5304.42
803.605,5258.9
804.703,5241.52
805.801,5214.42
806.899,5190.22
807.997,5179.4
809.094,5149.92
810.191,5104.2
811.289,5089.14
812.386,5074.2
813.483,5043.36
814.58,5030.42
815.677,4989.84
816.774,4963.64
817.87,4928.46
818.967,4950.82
820.063,4907.6
821.159,4926.18
822.255,4875.42
823.351,4875.74
824.447,4864.04
825.543,4857.92
826.639,4842.9
827.734,4840.52
828.83,4780.38
829.925,4786.26
831.02,4807.1
832.115,4744.46
833.21,4725.12
834.305,4711.72
835.4,4726.94
836.494,4717.2
837.589,4715.48
838.683,4707.86
839.777,4696.28
840.871,4686.34
841.965,4712.32
843.059,4649.84
844.152,4640.64
845.246,4608.42
846.339,4603.56
847.433,4579.18
848.526,4581.38
849.619,4545.0
850.712,4565.46
851.804,4537.12
852.897,4569.58
853.989,4522.66
855.082,4506.72
856.174,4497.52
857.266,4508.38
858.358,4517.66
859.45,4523.56
860.542,4500.08
861.633,4496.48
862.725,4473.3
863.816,4468.52
864.907,4470.6
865.998,4426.22
867.089,4414.48
868.18,4438.7
869.27,4439.2
870.361,4436.42
871.451,4450.48
872.541,4479.48
873.631,4464.32
874.721,4440.76
875.811,4398.9
876.901,4413.04
877.99,4373.32
879.08,4381.88
880.169,4357.5
881.258,4365.72
882.347,4362.52
883.436,4373.88
884.524,4337.98
885.613,4335.34
886.701,4333.34
887.79,4301.74
888.878,4313.62
889.966,4297.16
891.053,4280.42
892.141,4270.5
893.229,4266.14
894.316,4233.08
895.403,4228.26
896.49,4219.28
897.577,4251.7
898.664,4291.34
899.751,4222.76
900.837,4177.78
901.923,4162.76
903.01,4171.6
904.096,4173.98
905.181,4165.04
906.267,4158.9
907.353,4185.0
908.438,4184.9
909.523,4156.54
910.609,4111.48
911.694,4097.3
912.778,4086.8
913.863,4073.38
914.948,4065.96
916.032,4057.58
917.116,4052.84
918.2,4048.86
919.284,4047.26
920.368,4043.0
921.452,4041.44
922.535,4019.94
923.618,4018.24
924.701,4000.8
925.784,4007.9
926.867,3994.7
927.95,3983.32
929.032,3973.78
930.115,3952.36
931.197,3945.68
932.279,3937.44
933.361,3931.28
934.442,3930.14
935.524,3916.2
936.605,3918.1
937.687,3910.98
938.768,3907.88
939.849,3906.28
940.929,3903.2
942.01,3898.36
943.09,3890.6
944.171,3887.98
945.251,3883.42
946.331,3876.74
947.41,3869.18
948.49,3873.02
949.569,3867.86
950.649,3864.22
951.728,3861.32
952.807,3856.24
953.885,3857.48
954.964,3855.72
956.042,3851.46
957.121,3847.62
958.199,3843.38
959.277,3841.6
960.354,3840.42
961.432,3841.0
962.509,3838.18
963.587,3834.86
964.664,3833.22
965.741,3829.78
966.817,3832.42
967.894,3831.16
968.97,3828.04
970.047,3824.04
971.123,3825.1
972.198,3824.54
973.274,3817.46
974.35,3815.92
975.425,3812.12
976.5,3812.54
977.575,3811.8
978.65,3809.58
979.725,3809.3
980.799,3805.84
981.873,3805.54
982.947,3804.38
984.021,3802.78
985.095,3801.3
986.169,3799.38
987.242,3799.42
988.315,3797.52
989.388,3797.7
990.461,3793.74
991.534,3791.72
992.607,3791.26
993.679,3789.6
994.751,3788.92
995.823,3787.8
996.895,3786.58
997.966,3785.6
999.038,3783.42
1000.11,3780.62
1001.18,3781.04
1002.25,3781.5
1003.32,3779.9
1004.39,3779.14
1005.46,3775.04
1006.53,3774.64
1007.6,3773.64
1008.67,3772.88
1009.74,3772.9
1010.81,3771.72
1011.88,3770.34
1012.95,3771.3
1014.02,3770.44
1015.09,3768.28
1016.16,3768.68
1017.22,3767.34
1018.29,3767.08
1019.36,3765.82
1020.43,3764.5
1021.49,3765.38
1022.56,3766.22
1023.63,3766.48
1024.7,3764.1
1025.76,3763.5
1026.83,3760.4
1027.9,3760.86
1028.96,3759.5
1030.03,3758.32
1031.09,3758.7
1032.16,3758.98
1033.22,3758.38
1034.29,3757.84
1035.35,3757.98
1036.42,3757.06
1037.48,3755.94
1038.55,3754.68
1039.61,3754.34
1040.68,3753.8
1041.74,3754.32
1042.8,3753.34
1043.87,3753.56
1044.93,3752.82
1045.99,3752.28
1047.06,3752.22
1048.12,3751.44
1049.18,3751.56
1050.24,3751.04
1051.31,3751.7
1052.37,3751.76
1053.43,3751.28
1054.49,3750.86
1055.55,3751.66
1056.61,3751.94
1057.67,3750.0
1058.73,3749.38
1059.53,3750.1