File: spectra/VLFR_01-LDPE_nobio_Raman_5c0cfc36.csv
nm,Intensity
526.5,829.9
527.047,829.0
527.594,830.6
528.14,830.4
528.687,829.9
529.233,829.7
529.779,829.7
530.325,830.3
530.871,829.1
531.417,830.5
531.962,835.8
532.508,831.2
533.053,830.4
533.599,830.1
534.144,901.9
534.689,888.8
535.234,875.6
535.778,866.5
536.323,860.5
536.867,860.0
537.412,854.9
537.956,857.6
538.5,854.9
539.044,851.1
539.588,849.4
540.132,847.9
540.675,846.7
541.219,843.8
541.762,846.8
542.305,845.8
542.848,845.4
543.391,844.2
543.934,845.4
544.477,845.1
545.02,841.7
545.562,842.7
546.105,843.9
546.647,843.8
547.189,843.4
547.731,843.3
548.273,842.2
548.815,843.2
549.356,842.5
549.898,842.4
550.439,841.9
550.981,841.7
551.522,842.1
552.063,842.0
552.604,841.9
553.145,843.8
553.686,846.5
554.226,848.4
554.767,847.5
555.307,847.1
555.848,849.9
556.388,851.6
556.928,852.9
557.468,854.3
558.008,855.5
558.547,856.6
559.087,855.5
559.626,855.1
560.166,854.2
560.705,858.0
561.244,854.4
561.783,857.0
562.322,860.0
562.861,863.5
563.4,869.9
563.939,915.9
564.477,887.9
565.015,883.6
565.554,879.5
566.092,951.6
566.63,885.3
567.168,878.2
567.706,879.2
568.244,879.9
568.781,878.7
569.319,887.2
569.857,886.3
570.394,891.7
570.931,902.4
571.468,993.9
572.005,936.5
572.542,916.6
573.079,910.6
573.616,918.0
574.153,933.3
574.689,927.4
575.226,936.8
575.762,997.0
576.298,1057.9
576.834,1032.6
577.371,1015.9
577.907,994.3
578.442,1005.8
578.978,1021.7
579.514,1038.6
580.049,1056.2
580.585,1073.0
581.12,1100.4
581.656,1112.6
582.191,1136.5
582.726,1159.8
583.261,1174.0
583.796,1188.1
584.331,1203.0
584.865,1213.4
585.4,1234.4
585.935,1249.0
586.469,1262.1
587.004,1289.7
587.538,1293.3
588.072,1310.9
588.606,1322.8
589.14,1337.7
589.674,1356.8
590.208,1371.5
590.742,1382.0
591.275,1407.4
591.809,1411.3
592.342,1420.7
592.876,1419.4
593.409,1422.4
593.942,1412.9
594.476,1427.7
595.009,1425.2
595.542,1434.4
596.075,1435.6
596.607,1435.3
597.14,1442.2
597.673,1446.3
598.205,1453.9
598.738,1462.5
599.27,1467.4
599.803,1468.8
600.335,1470.8
600.867,1467.4
601.399,1459.3
601.931,1453.9
602.463,1441.5
602.995,1435.4
603.527,1416.8
604.058,1395.2
604.59,1379.3
605.122,1357.6
605.653,1332.0
606.184,1311.0
606.716,1288.9
607.247,1273.2
607.778,1262.3
608.309,1254.2
608.84,1248.3
609.371,1220.7
609.902,1219.8
610.433,1201.7
610.964,1194.7
611.494,1190.3
612.025,1183.7
612.556,1182.6
613.086,1178.9
613.616,1168.9
614.147,1160.2
614.677,1153.2
615.207,1139.3
615.737,1133.6
616.267,1137.4
616.797,1125.1
617.327,1125.3
617.857,1116.3
618.387,1108.1
618.917,1108.9
619.446,1106.5
619.976,1105.5
620.505,1099.4
621.035,1097.9
621.564,1101.6
622.093,1113.8
622.623,1113.9
623.152,1102.0
623.681,1087.3
624.21,1084.0
624.739,1084.4
625.268,1083.2
625.797,1091.8
626.326,1106.7
626.855,1269.6
627.383,1620.0
627.912,1422.2
628.441,1548.4
628.969,1519.6
629.498,1419.5
630.026,1338.3
630.554,1324.9
631.083,1211.3
631.611,1142.1
632.139,1121.9
632.667,1120.4
633.195,1114.7
633.724,1105.8
634.252,1116.7
634.779,1114.8
635.307,1121.0
635.835,1125.8
636.363,1123.7
636.891,1125.6
637.418,1132.9
637.946,1122.1
638.474,1128.6
639.001,1135.1
639.529,1143.0
640.056,1143.2
640.583,1145.7
641.111,1151.9
641.638,1152.8
642.165,1160.4
642.692,1154.1
643.22,1162.5
643.747,1158.1
644.274,1165.1
644.801,1159.4
645.328,1156.0
645.854,1150.4
646.381,1155.4
646.908,1162.7
647.435,1157.2
647.962,1149.1
648.488,1143.2
649.015,1147.5
649.542,1142.0
650.068,1137.4
650.595,1130.6
651.121,1135.8
651.648,1139.1
652.174,1132.0
652.7,1130.9
653.227,1133.9
653.753,1128.6
654.279,1126.3
654.805,1127.9
655.331,1118.4
655.858,1114.1
656.384,1108.4
656.91,1112.5
657.436,1105.2
657.962,1098.0
658.488,1090.8
659.013,1080.3
659.539,1078.8
660.065,1068.3
660.591,1062.6
661.117,1051.7
661.642,1042.3
662.168,1032.5
662.694,1027.3
663.088,1028.1