File: spectra/VLFR_09-PET_bio_Raman_2baa8e0f.csv
nm,Intensity
526.486,831.0
527.033,830.7
527.579,830.6
528.126,829.8
528.672,830.2
529.219,830.3
529.765,830.9
530.311,831.6
530.857,829.5
531.403,829.4
531.948,831.7
532.494,832.8
533.039,831.9
533.585,834.6
534.13,1560.9
534.675,1524.0
535.22,1433.9
535.764,1402.3
536.309,1380.4
536.854,1365.6
537.398,1359.9
537.942,1370.0
538.486,1379.8
539.03,1379.2
539.574,1402.0
540.118,1418.9
540.662,1406.8
541.205,1417.9
541.749,1409.8
542.292,1428.1
542.835,1439.0
543.378,1450.9
543.921,1451.6
544.464,1466.2
545.006,1475.9
545.549,1494.6
546.091,1491.5
546.634,1500.5
547.176,1500.0
547.718,1505.4
548.26,1532.2
548.802,1540.1
549.343,1546.1
549.885,1540.7
550.426,1567.6
550.968,1586.4
551.509,1588.1
552.05,1594.7
552.591,1603.7
553.132,1615.5
553.673,1619.5
554.214,1630.1
554.754,1647.1
555.295,1659.9
555.835,1680.5
556.375,1693.6
556.915,1703.9
557.455,1808.8
557.995,1765.9
558.535,1711.8
559.075,1717.0
559.614,1729.9
560.154,1748.4
560.693,1755.0
561.232,1775.3
561.772,1796.7
562.311,1827.4
562.85,1811.0
563.388,1819.3
563.927,1839.5
564.466,1871.0
565.004,1964.8
565.543,1947.1
566.081,1946.8
566.619,1901.7
567.157,1899.2
567.695,1944.9
568.233,1933.5
568.771,1930.1
569.309,1957.9
569.846,1969.2
570.384,1998.7
570.921,2113.7
571.458,2270.2
571.995,2091.7
572.532,2049.5
573.069,2032.7
573.606,2051.3
574.143,2051.0
574.68,2061.6
575.216,2084.9
575.753,2112.5
576.289,2093.4
576.825,2122.1
577.361,2128.5
577.897,2114.6
578.433,2122.4
578.969,2120.5
579.505,2136.2
580.041,2143.5
580.576,2152.5
581.112,2175.7
581.647,2244.9
582.183,3282.6
582.718,2251.7
583.253,2200.6
583.788,2219.5
584.323,2204.3
584.858,2223.4
585.392,2278.6
585.927,2706.6
586.462,2547.9
586.996,2298.0
587.53,2267.8
588.065,2241.5
588.599,2245.3
589.133,2237.3
589.667,2247.7
590.201,2266.3
590.735,2256.9
591.268,2281.8
591.802,2264.7
592.335,2268.7
592.869,2272.9
593.402,2262.5
593.936,2267.3
594.469,2281.3
595.002,2295.0
595.535,2291.4
596.068,2322.0
596.601,2324.5
597.133,2313.5
597.666,2328.1
598.199,2338.3
598.731,2366.7
599.264,2349.0
599.796,2370.2
600.328,2368.3
600.86,2377.2
601.393,2371.1
601.925,2357.3
602.457,2370.3
602.988,2382.4
603.52,2396.9
604.052,2401.9
604.583,2381.9
605.115,2396.7
605.646,2383.9
606.178,2375.1
606.709,2386.0
607.24,2406.4
607.771,2423.8
608.302,2449.3
608.833,2459.8
609.364,2469.1
609.895,2480.9
610.426,2491.2
610.957,2492.1
611.487,2513.4
612.018,2551.8
612.548,2569.2
613.078,2600.9
613.609,2637.8
614.139,2653.0
614.669,2663.9
615.199,2698.0
615.729,2695.1
616.259,2698.8
616.789,2743.4
617.319,2749.4
617.849,2776.2
618.378,2819.1
618.908,2823.3
619.437,2830.1
619.967,2843.5
620.496,2870.0
621.025,2880.3
621.555,2891.4
622.084,2921.3
622.613,2949.0
623.142,2979.5
623.671,3019.9
624.2,3045.2
624.729,3071.2
625.258,3061.6
625.786,3082.5
626.315,3089.9
626.844,3109.7
627.372,3122.2
627.901,3139.4
628.429,3180.3
628.957,3178.0
629.486,3244.3
630.014,3244.0
630.542,3274.1
631.07,3313.2
631.598,3344.9
632.126,3377.1
632.654,3356.7
633.182,3356.1
633.71,3355.6
634.237,3351.3
634.765,3370.9
635.293,3377.6
635.82,3439.6
636.348,3518.4
636.875,3530.3
637.403,3464.0
637.93,3466.7
638.458,3482.1
638.985,3490.7
639.512,3511.7
640.039,3515.2
640.566,3515.3
641.093,3532.6
641.62,3533.7
642.147,3554.9
642.674,3546.3
643.201,3532.6
643.728,3528.5
644.255,3515.5
644.781,3543.8
645.308,3524.1
645.835,3539.4
646.361,3545.4
646.888,3555.1
647.414,3556.2
647.941,3574.2
648.467,3562.9
648.993,3563.7
649.52,3560.3
650.046,3560.7
650.572,3532.0
651.098,3553.6
651.625,3558.5
652.151,3577.7
652.677,3549.0
653.203,3555.3
653.729,3588.1
654.255,3584.4
654.78,3567.1
655.306,3569.8
655.832,3572.3
656.358,3551.1
656.884,3581.5
657.409,3566.3
657.935,3579.6
658.461,3583.3
658.986,3575.9
659.512,3594.5
660.037,3572.7
660.563,3573.9
661.088,3555.8
661.614,3542.3
662.139,3516.1
662.664,3529.7
663.058,3489.6