File: spectra/VLFR_01-LDPE_bio_Raman_453aed00.csv
nm,Intensity
528.626,1870.9
529.132,1870.7
529.637,1869.2
530.143,1869.7
530.648,1872.1
531.153,1871.2
531.658,1898.3
532.164,4006.5
532.669,1873.2
533.174,1870.4
533.679,1958.4
534.184,2246.5
534.689,2206.5
535.194,2170.7
535.699,2117.7
536.203,2090.3
536.708,2083.7
537.213,2074.3
537.717,2089.4
538.222,2069.2
538.726,2064.1
539.231,2056.9
539.735,2043.7
540.239,2037.2
540.744,2043.1
541.248,2033.9
541.752,2039.3
542.256,2036.2
542.76,2037.0
543.264,2030.4
543.768,2033.5
544.272,2041.3
544.776,2029.4
545.28,2030.2
545.784,2033.4
546.287,2020.1
546.791,2033.3
547.294,2029.6
547.798,2027.0
548.301,2019.7
548.805,2011.7
549.308,2027.0
549.811,2022.0
550.315,2021.9
550.818,2028.6
551.321,2021.0
551.824,2031.7
552.327,2033.1
552.83,2033.0
553.333,2046.8
553.835,2049.6
554.338,2050.1
554.841,2055.2
555.343,2058.4
555.846,2074.3
556.349,2081.2
556.851,2098.4
557.353,2098.3
557.856,2112.9
558.358,2113.1
558.86,2129.8
559.362,2097.6
559.864,2098.7
560.366,2090.2
560.868,2110.5
561.37,2108.3
561.872,2116.1
562.374,2132.6
562.876,2160.7
563.377,2184.1
563.879,2483.2
564.38,2300.7
564.882,2247.6
565.383,2206.9
565.885,2377.6
566.386,2378.5
566.887,2200.9
567.388,2221.9
567.889,2191.9
568.391,2191.6
568.892,2192.3
569.392,2197.9
569.893,2218.1
570.394,2261.6
570.895,2300.0
571.395,2794.7
571.896,2554.7
572.397,2402.0
572.897,2348.1
573.397,2359.7
573.898,2416.6
574.398,2391.8
574.898,2413.1
575.398,2624.2
575.898,2835.8
576.398,3281.0
576.898,3100.8
577.398,2884.1
577.898,2786.0
578.398,2807.1
578.897,2907.3
579.397,2951.9
579.896,3065.1
580.396,3161.5
580.895,3180.5
581.395,3281.7
581.894,3363.9
582.393,3414.6
582.892,3461.9
583.391,3554.3
583.89,3570.3
584.389,3622.4
584.888,3731.3
585.387,3747.5
585.886,3801.7
586.384,3934.8
586.883,3973.0
587.381,4135.9
587.88,4186.1
588.378,4278.9
588.876,4325.9
589.375,4430.7
589.873,4533.2
590.371,4571.3
590.869,4670.4
591.367,4828.9
591.865,4901.9
592.363,5088.4
592.86,5043.4
593.358,5044.7
593.856,5114.8
594.353,5211.8
594.851,5236.9
595.348,5445.5
595.845,5434.8
596.342,5466.4
596.84,5757.4
597.337,5750.8
597.834,5859.9
598.331,5985.9
598.828,6050.9
599.324,6066.3
599.821,6203.2
600.318,6200.6
600.814,6329.2
601.311,6262.7
601.807,6324.5
602.304,6200.4
602.8,6196.9
603.296,6080.4
603.792,5909.8
604.288,5831.7
604.784,5890.8
605.28,5588.8
605.776,5436.7
606.272,5326.1
606.767,5264.1
607.263,5022.1
607.759,4944.6
608.254,4826.8
608.749,4729.0
609.245,4653.9
609.74,4669.2
610.235,4524.8
610.73,4438.5
611.225,4419.7
611.72,4368.0
612.215,4246.0
612.71,4209.3
613.204,4199.0
613.699,4087.1
614.194,4109.4
614.688,3992.8
615.182,3971.3
615.677,3978.6
616.171,3902.7
616.665,3896.9
617.159,3877.4
617.653,3896.7
618.147,3755.8
618.641,3783.6
619.135,3769.0
619.628,3713.5
620.122,3709.5
620.615,3722.4
621.109,3696.2
621.602,3810.6
622.095,3857.4
622.589,3846.8
623.082,3630.2
623.575,3550.6
624.068,3591.9
624.561,3526.3
625.053,3588.2
625.546,3570.0
626.039,3660.3
626.531,4251.6
627.024,7465.5
627.516,7501.6
628.008,6351.7
628.501,8355.3
628.993,6767.1
629.485,5891.4
629.977,5385.6
630.469,5238.7
630.96,4512.9
631.452,3918.1
631.944,3746.8
632.435,3625.3
632.927,3606.6
633.418,3557.1
633.91,3590.0
634.401,3538.2
634.892,3610.1
635.383,3493.9
635.874,3558.6
636.365,3536.4
636.856,3581.8
637.346,3583.9
637.837,3518.6
638.327,3578.1
638.818,3562.8
639.308,3558.1
639.799,3558.6
640.289,3565.1
640.779,3593.9
641.269,3620.1
641.759,3664.8
642.249,3670.1
642.738,3693.4
643.228,3707.4
643.718,3734.6
644.207,3797.7
644.697,3710.2
645.186,3785.9
645.675,3699.6
646.164,3728.5
646.653,3666.7
647.142,3758.7
647.631,3757.1
648.12,3739.0
648.609,3654.3
649.098,3692.1
649.586,3660.4
650.075,3697.4
650.563,3692.6
651.051,3641.2
651.539,3661.7
652.027,3645.8
652.515,3662.3
653.003,3625.5
653.491,3560.2
653.979,3587.1
654.467,3599.7
654.954,3585.1
655.442,3530.9
655.929,3460.0
656.416,3447.3
656.904,3444.1
657.391,3414.0
657.878,3325.4
658.365,3328.2
658.851,3253.4
659.338,3174.2
659.825,3171.7
660.311,3070.4
660.798,3088.6
661.041,3053.3