File: spectra/VLFR_02-HDPE_bio_Raman_822efd73.csv
nm,Intensity
526.508,829.7
527.055,830.8
527.602,830.8
528.149,828.6
528.695,829.5
529.241,828.5
529.787,829.8
530.334,829.3
530.879,830.4
531.425,830.8
531.971,832.5
532.516,829.7
533.062,830.3
533.607,830.6
534.152,888.5
534.697,887.7
535.242,888.6
535.786,859.3
536.331,851.3
536.876,848.8
537.42,851.5
537.964,849.1
538.508,846.0
539.052,842.8
539.596,842.2
540.14,841.7
540.683,841.8
541.227,840.3
541.77,840.8
542.313,837.5
542.856,840.5
543.399,840.3
543.942,839.3
544.485,837.1
545.027,838.8
545.57,840.6
546.112,838.4
546.654,855.6
547.196,838.8
547.738,839.5
548.28,836.9
548.822,838.7
549.363,838.4
549.905,838.9
550.446,844.7
550.988,838.8
551.529,837.5
552.07,838.5
552.611,838.5
553.152,837.2
553.692,840.0
554.233,839.5
554.773,839.9
555.314,840.4
555.854,839.9
556.394,843.7
556.934,842.9
557.474,845.7
558.014,844.7
558.553,845.1
559.093,842.9
559.632,846.2
560.172,844.2
560.711,844.1
561.25,842.4
561.789,845.1
562.328,907.8
562.867,849.1
563.406,850.1
563.944,909.6
564.483,863.7
565.021,859.1
565.559,851.2
566.098,894.9
566.636,859.0
567.174,853.4
567.711,856.0
568.249,848.1
568.787,849.7
569.324,850.5
569.862,851.7
570.399,851.9
570.936,860.5
571.474,951.1
572.011,876.5
572.548,859.4
573.084,854.3
573.621,860.1
574.158,867.7
574.694,862.5
575.231,867.1
575.767,896.8
576.303,1005.0
576.84,943.9
577.376,927.2
577.912,888.2
578.447,887.4
578.983,892.5
579.519,896.8
580.054,904.1
580.59,904.3
581.125,915.8
581.661,917.1
582.196,922.2
582.731,924.2
583.266,931.3
583.801,933.5
584.336,935.8
584.87,933.0
585.405,936.4
585.94,934.0
586.474,935.2
587.008,938.6
587.543,939.7
588.077,941.5
588.611,943.1
589.145,943.3
589.679,951.1
590.213,954.3
590.747,959.3
591.28,961.5
591.814,964.7
592.347,969.1
592.881,968.6
593.414,968.9
593.947,973.7
594.48,975.0
595.014,971.3
595.547,971.4
596.079,968.6
596.612,976.0
597.145,973.8
597.678,971.2
598.21,979.5
598.743,979.6
599.275,979.4
599.807,984.2
600.34,979.1
600.872,974.2
601.404,980.7
601.936,980.9
602.468,974.7
603.0,975.7
603.532,972.0
604.063,973.6
604.595,965.2
605.126,962.0
605.658,955.7
606.189,952.3
606.721,945.3
607.252,942.7
607.783,945.4
608.314,940.0
608.845,941.1
609.376,938.5
609.907,933.7
610.438,932.2
610.968,929.6
611.499,928.8
612.03,929.7
612.56,929.7
613.091,928.6
613.621,923.7
614.151,928.4
614.681,925.3
615.212,915.5
615.742,921.0
616.272,920.2
616.802,923.1
617.332,925.9
617.861,929.6
618.391,927.3
618.921,926.3
619.45,929.8
619.98,933.2
620.509,924.3
621.039,932.6
621.568,948.3
622.097,988.0
622.627,979.5
623.156,939.9
623.685,932.3
624.214,931.6
624.743,928.8
625.272,932.1
625.801,940.9
626.33,979.4
626.858,1337.3
627.387,1916.6
627.916,1483.8
628.444,1801.1
628.973,1453.9
629.501,1327.3
630.029,1192.0
630.558,1166.0
631.086,1026.3
631.614,949.5
632.142,931.2
632.67,927.0
633.198,929.7
633.726,919.6
634.254,919.3
634.782,919.0
635.31,914.7
635.838,913.6
636.365,913.2
636.893,914.5
637.421,904.6
637.948,903.6
638.476,903.5
639.003,905.4
639.531,905.8
640.058,905.2
640.585,904.1
641.113,908.3
641.64,903.5
642.167,903.1
642.694,904.6
643.221,905.1
643.748,907.5
644.275,903.9
644.802,906.4
645.329,903.5
645.856,908.9
646.382,904.7
646.909,909.6
647.436,912.0
647.962,901.6
648.489,903.4
649.016,906.0
649.542,903.8
650.069,904.3
650.595,902.3
651.121,898.7
651.648,901.0
652.174,897.5
652.7,898.1
653.227,899.5
653.753,899.4
654.279,897.4
654.805,900.7
655.331,893.2
655.857,893.6
656.383,894.9
656.909,892.4
657.435,891.6
657.961,888.2
658.487,890.0
659.013,892.2
659.538,888.7
660.064,889.2
660.59,887.0
661.116,884.4
661.641,880.8
662.167,880.7
662.692,878.5
663.087,873.7