File: spectra/VLFR_06-PET_bio_Raman_93c6b4bd.csv
nm,Intensity
526.508,830.0
527.055,829.6
527.602,830.7
528.149,829.1
528.695,828.4
529.241,828.4
529.787,829.0
530.334,829.2
530.879,829.9
531.425,830.0
531.971,830.2
532.516,830.6
533.062,829.1
533.607,832.5
534.152,1412.6
534.697,1255.3
535.242,1101.4
535.786,1009.2
536.331,954.6
536.876,932.0
537.42,926.6
537.964,921.5
538.508,927.6
539.052,923.0
539.596,933.0
540.14,936.9
540.683,919.9
541.227,916.8
541.77,912.5
542.313,913.3
542.856,918.1
543.399,915.8
543.942,923.3
544.485,920.7
545.027,926.5
545.57,924.0
546.112,926.1
546.654,927.1
547.196,929.5
547.738,928.8
548.28,937.0
548.822,934.1
549.363,936.1
549.905,937.9
550.446,944.7
550.988,952.6
551.529,942.5
552.07,950.6
552.611,951.0
553.152,957.7
553.692,952.5
554.233,953.7
554.773,960.3
555.314,963.5
555.854,985.1
556.394,980.1
556.934,996.0
557.474,1063.6
558.014,1016.6
558.553,1010.2
559.093,986.5
559.632,973.3
560.172,980.5
560.711,981.3
561.25,990.3
561.789,985.5
562.328,1001.7
562.867,1005.0
563.406,1012.8
563.944,1009.1
564.483,1014.8
565.021,1035.5
565.559,1062.6
566.098,1073.7
566.636,1028.0
567.174,1021.7
567.711,1057.0
568.249,1030.0
568.787,1030.3
569.324,1033.0
569.862,1052.9
570.399,1067.1
570.936,1130.4
571.474,1187.1
572.011,1113.6
572.548,1067.3
573.084,1058.3
573.621,1064.9
574.158,1077.8
574.694,1073.0
575.231,1089.7
575.767,1068.6
576.303,1089.6
576.84,1108.9
577.376,1083.7
577.912,1083.9
578.447,1091.3
578.983,1093.3
579.519,1089.3
580.054,1096.6
580.59,1098.8
581.125,1109.5
581.661,1148.8
582.196,1700.2
582.731,1140.2
583.266,1123.9
583.801,1114.2
584.336,1126.2
584.87,1138.4
585.405,1187.6
585.94,1436.4
586.474,1312.5
587.008,1157.7
587.543,1149.0
588.077,1143.5
588.611,1137.6
589.145,1142.9
589.679,1146.2
590.213,1147.1
590.747,1148.8
591.28,1150.3
591.814,1155.2
592.347,1152.0
592.881,1145.9
593.414,1158.7
593.947,1154.3
594.48,1152.8
595.014,1158.4
595.547,1161.2
596.079,1160.2
596.612,1166.6
597.145,1167.0
597.678,1171.4
598.21,1169.3
598.743,1174.4
599.275,1177.6
599.807,1174.0
600.34,1170.3
600.872,1174.6
601.404,1173.3
601.936,1178.0
602.468,1179.9
603.0,1181.5
603.532,1183.3
604.063,1182.6
604.595,1176.6
605.126,1178.4
605.658,1175.7
606.189,1167.0
606.721,1175.5
607.252,1174.8
607.783,1171.6
608.314,1185.0
608.845,1186.0
609.376,1182.6
609.907,1179.9
610.438,1180.8
610.968,1186.4
611.499,1182.9
612.03,1188.4
612.56,1188.3
613.091,1197.9
613.621,1197.5
614.151,1196.6
614.681,1207.7
615.212,1199.8
615.742,1201.7
616.272,1206.1
616.802,1200.7
617.332,1208.3
617.861,1217.8
618.391,1217.6
618.921,1220.1
619.45,1210.7
619.98,1217.2
620.509,1216.1
621.039,1221.7
621.568,1224.3
622.097,1225.2
622.627,1221.1
623.156,1225.3
623.685,1228.4
624.214,1238.0
624.743,1245.0
625.272,1244.4
625.801,1251.9
626.33,1251.1
626.858,1252.0
627.387,1249.7
627.916,1266.3
628.444,1270.3
628.973,1288.9
629.501,1292.3
630.029,1293.3
630.558,1299.0
631.086,1326.5
631.614,1400.9
632.142,1404.0
632.67,1346.5
633.198,1354.4
633.726,1346.7
634.254,1321.3
634.782,1319.6
635.31,1327.2
635.838,1367.5
636.365,1435.2
636.893,1438.6
637.421,1368.9
637.948,1356.9
638.476,1356.5
639.003,1352.1
639.531,1357.4
640.058,1361.3
640.585,1368.3
641.113,1369.1
641.64,1366.6
642.167,1383.9
642.694,1381.1
643.221,1379.2
643.748,1381.0
644.275,1382.5
644.802,1379.1
645.329,1379.0
645.856,1383.7
646.382,1380.1
646.909,1393.6
647.436,1403.0
647.962,1403.8
648.489,1395.6
649.016,1395.6
649.542,1394.4
650.069,1395.4
650.595,1404.3
651.121,1410.4
651.648,1404.8
652.174,1406.9
652.7,1397.7
653.227,1411.0
653.753,1411.2
654.279,1405.9
654.805,1417.1
655.331,1409.4
655.857,1422.9
656.383,1426.7
656.909,1420.6
657.435,1418.5
657.961,1415.0
658.487,1418.1
659.013,1417.1
659.538,1421.3
660.064,1426.9
660.59,1417.5
661.116,1410.0
661.641,1405.6
662.167,1405.2
662.692,1397.0
663.087,1397.8