File: spectra/VLFR_08-PLA_bio_Raman_d333dc1d.csv
nm,Intensity
528.626,1870.5
529.132,1870.6
529.637,1870.4
530.143,1870.8
530.648,1870.0
531.153,1872.2
531.658,1891.8
532.164,3436.2
532.669,1872.9
533.174,1874.2
533.679,2048.7
534.184,2728.5
534.689,2554.4
535.194,2512.7
535.699,2448.4
536.203,2364.3
536.708,2414.0
537.213,2298.2
537.717,2321.7
538.222,2305.6
538.726,2245.4
539.231,2253.7
539.735,2208.7
540.239,2227.9
540.744,2351.2
541.248,2331.2
541.752,2251.7
542.256,2243.7
542.76,2248.8
543.264,2354.6
543.768,2538.0
544.272,2388.7
544.776,2243.3
545.28,2219.1
545.784,2213.1
546.287,2224.6
546.791,2223.4
547.294,2257.4
547.798,2231.0
548.301,2257.5
548.805,2240.7
549.308,2263.7
549.811,2253.2
550.315,2257.5
550.818,2284.6
551.321,2290.4
551.824,2325.4
552.327,2335.8
552.83,2337.5
553.333,2305.9
553.835,2385.9
554.338,2337.1
554.841,2306.0
555.343,2293.3
555.846,2256.0
556.349,2266.2
556.851,2303.7
557.353,2387.4
557.856,2906.7
558.358,2934.2
558.86,2405.1
559.362,2392.5
559.864,2372.9
560.366,2312.8
560.868,2342.0
561.37,2308.2
561.872,2330.1
562.374,2327.2
562.876,2419.7
563.377,2622.1
563.879,2473.8
564.38,2383.7
564.882,2522.9
565.383,2548.7
565.885,2616.2
566.386,2673.4
566.887,2388.9
567.388,2380.4
567.889,2455.2
568.391,2401.5
568.892,2430.4
569.392,2425.3
569.893,2399.3
570.394,2385.1
570.895,2396.2
571.395,2563.7
571.896,2582.4
572.397,2491.5
572.897,2465.6
573.397,2521.2
573.898,2538.4
574.398,2542.4
574.898,2514.1
575.398,2412.6
575.898,2443.1
576.398,2666.9
576.898,2936.4
577.398,2543.8
577.898,2422.6
578.398,2423.1
578.897,2414.2
579.397,2409.8
579.896,2381.5
580.396,2407.0
580.895,2390.8
581.395,2409.4
581.894,2400.0
582.393,2422.1
582.892,2413.8
583.391,2391.6
583.89,2411.1
584.389,2404.5
584.888,2392.1
585.387,2407.0
585.886,2413.5
586.384,2458.5
586.883,2648.3
587.381,2866.2
587.88,2676.2
588.378,2430.6
588.876,2413.6
589.375,2409.7
589.873,2402.6
590.371,2401.0
590.869,2397.2
591.367,2384.9
591.865,2402.0
592.363,2385.2
592.86,2403.0
593.358,2397.9
593.856,2402.9
594.353,2382.8
594.851,2380.2
595.348,2405.7
595.845,2404.7
596.342,2423.1
596.84,2412.7
597.337,2399.3
597.834,2413.3
598.331,2382.1
598.828,2381.6
599.324,2401.0
599.821,2409.3
600.318,2406.0
600.814,2392.3
601.311,2384.6
601.807,2422.4
602.304,2390.4
602.8,2381.7
603.296,2398.5
603.792,2386.9
604.288,2385.5
604.784,2403.6
605.28,2375.3
605.776,2384.5
606.272,2382.7
606.767,2387.5
607.263,2395.0
607.759,2395.7
608.254,2376.7
608.749,2370.6
609.245,2373.6
609.74,2384.5
610.235,2386.2
610.73,2369.5
611.225,2374.6
611.72,2368.5
612.215,2370.7
612.71,2373.7
613.204,2357.9
613.699,2389.6
614.194,2356.4
614.688,2366.0
615.182,2357.3
615.677,2374.1
616.171,2367.9
616.665,2368.2
617.159,2371.0
617.653,2390.5
618.147,2364.7
618.641,2364.1
619.135,2345.1
619.628,2371.3
620.122,2351.7
620.615,2342.0
621.109,2363.7
621.602,2358.2
622.095,2339.8
622.589,2383.6
623.082,2451.0
623.575,2430.7
624.068,2376.6
624.561,2373.8
625.053,2355.2
625.546,2346.2
626.039,2342.7
626.531,2347.3
627.024,2358.0
627.516,2353.8
628.008,2466.4
628.501,2829.5
628.993,2756.6
629.485,2733.5
629.977,2799.2
630.469,3090.8
630.96,4945.3
631.452,4618.9
631.944,3375.5
632.435,3017.8
632.927,3265.1
633.418,3657.1
633.91,3143.0
634.401,2627.6
634.892,2407.4
635.383,2352.5
635.874,2319.5
636.365,2305.9
636.856,2302.3
637.346,2283.2
637.837,2274.0
638.327,2281.9
638.818,2266.3
639.308,2262.2
639.799,2249.3
640.289,2263.6
640.779,2253.0
641.269,2257.9
641.759,2267.4
642.249,2252.1
642.738,2248.6
643.228,2237.0
643.718,2233.5
644.207,2238.7
644.697,2227.8
645.186,2237.5
645.675,2208.1
646.164,2206.0
646.653,2204.9
647.142,2196.8
647.631,2186.5
648.12,2187.5
648.609,2173.7
649.098,2192.7
649.586,2187.3
650.075,2181.1
650.563,2166.6
651.051,2173.3
651.539,2159.7
652.027,2170.2
652.515,2148.4
653.003,2174.5
653.491,2154.3
653.979,2155.2
654.467,2140.5
654.954,2129.5
655.442,2151.6
655.929,2134.0
656.416,2134.5
656.904,2143.6
657.391,2127.6
657.878,2142.2
658.365,2129.6
658.851,2119.2
659.338,2107.8
659.825,2104.7
660.311,2094.2
660.798,2099.8
661.041,2097.7