File: spectra/VLFR_08-PLA_nobio_Raman_806a5e4f.csv
nm,Intensity
526.5,830.2
527.047,829.1
527.594,829.2
528.14,829.8
528.687,829.2
529.233,829.2
529.779,829.4
530.325,831.8
530.871,829.4
531.417,829.8
531.962,832.7
532.508,830.1
533.053,829.1
533.599,829.9
534.144,1043.8
534.689,1000.5
535.234,964.8
535.778,942.6
536.323,941.1
536.867,939.3
537.412,925.3
537.956,924.2
538.5,918.0
539.044,910.6
539.588,908.4
540.132,901.6
540.675,920.2
541.219,918.6
541.762,909.3
542.305,902.8
542.848,905.6
543.391,928.7
543.934,939.2
544.477,919.2
545.02,908.4
545.562,901.0
546.105,899.7
546.647,904.9
547.189,905.6
547.731,904.5
548.273,902.3
548.815,907.3
549.356,909.4
549.898,912.2
550.439,908.9
550.981,912.2
551.522,920.3
552.063,916.2
552.604,918.6
553.145,916.8
553.686,916.8
554.226,929.3
554.767,918.6
555.307,912.4
555.848,908.1
556.388,912.8
556.928,918.7
557.468,930.7
558.008,1041.9
558.547,947.8
559.087,927.7
559.626,926.5
560.166,918.0
560.705,917.6
561.244,913.5
561.783,917.6
562.322,919.3
562.861,929.8
563.4,959.6
563.939,942.2
564.477,930.5
565.015,949.9
565.554,944.4
566.092,978.9
566.63,945.4
567.168,927.3
567.706,928.8
568.244,939.5
568.781,932.9
569.319,932.8
569.857,933.5
570.394,931.5
570.931,937.1
571.468,948.9
572.005,953.9
572.542,946.0
573.079,945.5
573.616,951.8
574.153,945.8
574.689,959.5
575.226,939.5
575.762,937.2
576.298,955.5
576.834,1016.2
577.371,965.5
577.907,940.5
578.442,941.6
578.978,936.8
579.514,939.9
580.049,943.9
580.585,935.9
581.12,939.7
581.656,938.7
582.191,939.6
582.726,941.3
583.261,939.9
583.796,940.5
584.331,940.6
584.865,945.0
585.4,940.6
585.935,941.4
586.469,954.6
587.004,992.3
587.538,1013.5
588.072,968.8
588.606,945.0
589.14,942.4
589.674,940.2
590.208,940.3
590.742,943.1
591.275,943.9
591.809,942.9
592.342,946.9
592.876,940.6
593.409,940.8
593.942,941.0
594.476,943.2
595.009,943.3
595.542,941.6
596.075,945.4
596.607,942.2
597.14,944.6
597.673,943.1
598.205,945.6
598.738,942.0
599.27,945.4
599.803,939.7
600.335,943.4
600.867,943.1
601.399,944.3
601.931,941.8
602.463,942.4
602.995,940.1
603.527,943.4
604.058,945.2
604.59,941.6
605.122,937.9
605.653,939.9
606.184,939.9
606.716,939.3
607.247,938.1
607.778,937.2
608.309,938.4
608.84,938.8
609.371,938.7
609.902,935.3
610.433,939.1
610.964,938.4
611.494,941.4
612.025,934.7
612.556,940.8
613.086,936.9
613.616,940.2
614.147,937.7
614.677,940.9
615.207,941.0
615.737,935.4
616.267,939.2
616.797,939.3
617.327,942.1
617.857,938.3
618.387,940.4
618.917,943.4
619.446,940.5
619.976,937.2
620.505,936.5
621.035,939.2
621.564,937.5
622.093,938.1
622.623,944.3
623.152,951.5
623.681,947.9
624.21,946.0
624.739,941.9
625.268,939.6
625.797,936.1
626.326,939.5
626.855,938.8
627.383,938.3
627.912,950.2
628.441,1007.5
628.969,1001.7
629.498,999.5
630.026,997.3
630.554,1060.1
631.083,1410.2
631.611,1184.9
632.139,1059.7
632.667,1035.1
633.195,1125.5
633.724,1087.0
634.252,1003.9
634.779,954.4
635.307,941.3
635.835,936.1
636.363,932.8
636.891,932.0
637.418,930.3
637.946,929.9
638.474,929.5
639.001,926.8
639.529,927.1
640.056,927.5
640.583,927.7
641.111,925.9
641.638,929.1
642.165,921.9
642.692,925.1
643.22,922.8
643.747,919.7
644.274,923.6
644.801,916.8
645.328,917.4
645.854,917.0
646.381,916.8
646.908,919.3
647.435,916.5
647.962,916.2
648.488,912.8
649.015,917.3
649.542,912.4
650.068,914.4
650.595,917.2
651.121,912.5
651.648,915.2
652.174,917.0
652.7,914.1
653.227,917.0
653.753,913.5
654.279,909.1
654.805,910.9
655.331,912.5
655.858,910.3
656.384,913.2
656.91,910.9
657.436,908.6
657.962,911.0
658.488,909.8
659.013,909.6
659.539,905.3
660.065,905.0
660.591,909.8
661.117,905.4
661.642,909.1
662.168,900.0
662.694,907.7
663.088,901.8