File: spectra/VLFR_09-PET_bio_Raman_180125c7.csv
nm,Intensity
528.635,1851.3
529.14,1848.7
529.645,1852.0
530.151,1850.7
530.656,1850.6
531.161,1856.6
531.666,1889.8
532.171,4226.5
532.676,1857.8
533.181,1874.4
533.686,3927.9
534.191,9820.5
534.696,8392.1
535.201,7411.7
535.705,6834.4
536.21,6150.6
536.715,5942.7
537.219,5791.4
537.724,5791.6
538.228,5776.3
538.733,5895.1
539.237,5905.4
539.741,6261.7
540.246,6287.7
540.75,6298.7
541.254,6131.4
541.758,6199.8
542.262,6314.7
542.766,6445.2
543.27,6382.3
543.774,6542.7
544.278,6555.1
544.781,6641.6
545.285,6675.0
545.789,6758.8
546.292,6981.9
546.796,6866.1
547.299,7013.7
547.803,7037.4
548.306,7312.8
548.809,7264.4
549.313,7237.6
549.816,7203.7
550.319,7642.2
550.822,8245.7
551.325,7687.1
551.828,7569.2
552.331,7752.6
552.834,8139.2
553.337,7808.5
553.839,7853.9
554.342,8029.6
554.845,8184.6
555.347,8428.8
555.85,8852.4
556.352,8719.3
556.854,9011.4
557.357,10425.4
557.859,10269.5
558.361,9343.1
558.863,9285.8
559.365,9075.4
559.867,9136.0
560.369,9044.1
560.871,9198.0
561.373,9494.4
561.875,10028.7
562.377,9834.6
562.878,9799.2
563.38,9800.7
563.881,9747.2
564.383,9868.9
564.884,11205.7
565.386,11385.1
565.887,11516.1
566.388,10622.9
566.889,10192.6
567.391,10529.1
567.892,10961.3
568.393,10510.0
568.893,10381.6
569.394,10655.9
569.895,10900.2
570.396,11460.4
570.897,13514.6
571.397,15048.5
571.898,12870.7
572.398,11627.1
572.899,11259.6
573.399,11216.6
573.899,11373.2
574.399,11240.6
574.9,11482.1
575.4,12336.4
575.9,11711.9
576.4,11679.1
576.899,12092.7
577.399,11935.4
577.899,11714.1
578.399,11820.8
578.898,11526.6
579.398,12020.1
579.897,11870.5
580.397,12154.6
580.896,12499.6
581.396,13052.3
581.895,20704.0
582.394,19172.5
582.893,12769.3
583.392,12432.9
583.891,12573.6
584.39,12512.9
584.889,12690.2
585.387,13947.0
585.886,19957.1
586.385,16954.5
586.883,13246.5
587.382,13003.0
587.88,13022.3
588.379,12921.3
588.877,12817.4
589.375,12589.3
589.873,12604.2
590.371,12640.6
590.869,12700.3
591.367,12736.5
591.865,12858.2
592.363,12760.0
592.86,12807.7
593.358,12775.0
593.856,12825.8
594.353,12860.6
594.851,13087.5
595.348,13114.0
595.845,13095.2
596.342,13046.6
596.84,13180.1
597.337,13365.2
597.834,13271.4
598.331,13422.9
598.827,13196.5
599.324,13192.4
599.821,13400.2
600.318,13477.2
600.814,13225.9
601.311,13541.6
601.807,13653.2
602.303,13426.7
602.8,13817.9
603.296,13731.4
603.792,13719.6
604.288,13947.1
604.784,13992.5
605.28,13597.4
605.776,14200.2
606.272,13815.2
606.767,14498.6
607.263,14118.4
607.758,14365.3
608.254,14562.3
608.749,14279.4
609.244,14789.3
609.74,14592.6
610.235,14659.8
610.73,14706.9
611.225,14706.2
611.72,15071.2
612.215,14719.5
612.709,14977.5
613.204,15423.2
613.699,15536.6
614.193,15661.3
614.688,15681.5
615.182,15713.1
615.676,15774.3
616.171,16220.2
616.665,16083.1
617.159,16230.6
617.653,16485.0
618.147,16354.5
618.641,16681.9
619.134,16577.8
619.628,17107.8
620.122,17194.0
620.615,17240.4
621.109,17421.7
621.602,17648.0
622.095,17457.7
622.588,18029.1
623.082,18044.7
623.575,18067.2
624.068,17853.6
624.56,18308.8
625.053,18926.0
625.546,18674.3
626.039,18672.7
626.531,18529.2
627.024,19105.6
627.516,19284.0
628.008,19325.8
628.501,19455.0
628.993,19881.7
629.485,20060.2
629.977,19603.8
630.469,20226.6
630.961,20862.2
631.452,21034.8
631.944,21748.2
632.436,21293.8
632.927,21146.4
633.418,21313.5
633.91,21196.4
634.401,20745.0
634.892,21014.3
635.383,21314.2
635.874,21984.5
636.365,23459.3
636.856,22408.5
637.347,21614.1
637.837,21123.3
638.328,21409.1
638.818,21867.8
639.309,21519.0
639.799,21468.2
640.289,21395.0
640.78,21179.0
641.27,21932.4
641.76,21241.5
642.249,21312.9
642.739,21305.4
643.229,20971.3
643.719,20517.4
644.208,21813.9
644.698,21251.6
645.187,21232.9
645.676,21113.5
646.165,21433.3
646.655,21487.4
647.144,20725.4
647.633,20495.4
648.121,21232.4
648.61,21364.4
649.099,20903.0
649.587,21119.2
650.076,20442.1
650.564,20920.4
651.053,19764.5
651.541,20143.7
652.029,21092.0
652.517,19817.6
653.005,20045.3
653.493,19263.6
653.981,19485.4
654.468,19393.8
654.956,19550.9
655.444,19745.3
655.931,19653.8
656.418,18735.8
656.906,19157.2
657.393,18262.3
657.88,18233.6
658.367,18156.3
658.854,18241.1
659.341,17924.2
659.827,17492.3
660.314,17330.4
660.8,16933.2
661.044,17554.8