File: spectra/VLFR_06-PET_bio_Raman_de3eba68.csv
nm,Intensity
526.493,828.7
527.039,829.3
527.586,828.85
528.133,829.2
528.679,828.55
529.225,828.45
529.771,828.45
530.317,829.1
530.863,830.3
531.409,829.8
531.955,831.1
532.5,830.15
533.046,828.7
533.591,840.3
534.136,2130.3
534.681,1757.35
535.226,1394.35
535.771,1168.75
536.315,1030.1
536.86,977.1
537.404,949.4
537.948,939.4
538.493,945.0
539.037,940.0
539.58,955.5
540.124,961.0
540.668,918.65
541.211,903.1
541.755,899.15
542.298,898.15
542.841,896.35
543.384,893.65
543.927,905.45
544.47,897.6
545.013,900.55
545.555,900.55
546.098,898.65
546.64,900.65
547.182,901.7
547.724,904.85
548.266,905.55
548.808,909.4
549.35,905.4
549.892,906.6
550.433,924.25
550.974,932.8
551.516,913.5
552.057,914.4
552.598,922.45
553.139,941.35
553.68,922.05
554.22,916.9
554.761,918.65
555.301,936.6
555.842,984.45
556.382,990.9
556.922,997.7
557.462,1129.8
558.002,1021.3
558.542,1015.85
559.082,965.3
559.621,939.8
560.161,936.75
560.7,938.65
561.239,942.5
561.778,945.55
562.317,965.45
562.856,971.75
563.395,975.2
563.934,959.4
564.472,971.05
565.011,1014.55
565.549,1072.6
566.088,1074.9
566.626,988.05
567.164,968.7
567.702,1050.55
568.24,978.15
568.777,969.4
569.315,974.45
569.853,1005.05
570.39,1045.3
570.927,1168.6
571.465,1290.0
572.002,1129.5
572.539,1025.25
573.076,993.15
573.612,995.6
574.149,1025.65
574.686,1001.25
575.222,1031.5
575.759,1010.25
576.295,1030.75
576.831,1043.45
577.367,1011.55
577.903,999.35
578.439,1003.4
578.975,1001.0
579.511,1001.0
580.046,1008.25
580.582,1011.35
581.117,1036.6
581.653,1112.15
582.188,2260.65
582.723,1082.15
583.258,1031.1
583.793,1025.45
584.328,1028.5
584.863,1046.9
585.398,1131.15
585.932,1651.0
586.467,1421.1
587.001,1084.9
587.535,1045.1
588.07,1037.9
588.604,1037.25
589.138,1031.35
589.672,1029.6
590.206,1028.8
590.739,1026.9
591.273,1028.45
591.807,1035.45
592.34,1030.3
592.873,1030.0
593.407,1030.15
593.94,1031.55
594.473,1033.65
595.006,1036.3
595.539,1041.55
596.072,1037.85
596.605,1042.35
597.138,1042.75
597.67,1040.95
598.203,1046.25
598.735,1044.0
599.268,1041.55
599.8,1046.5
600.332,1040.3
600.865,1046.15
601.397,1044.15
601.929,1045.7
602.46,1046.05
602.992,1047.1
603.524,1047.3
604.056,1047.05
604.587,1046.25
605.119,1045.35
605.65,1046.35
606.182,1041.4
606.713,1039.5
607.244,1045.25
607.775,1046.1
608.306,1047.55
608.837,1048.5
609.368,1051.9
609.899,1048.6
610.43,1048.85
610.961,1049.9
611.491,1044.65
612.022,1052.95
612.552,1056.15
613.083,1059.5
613.613,1064.2
614.143,1061.95
614.673,1062.9
615.203,1064.25
615.734,1061.25
616.263,1062.6
616.793,1068.8
617.323,1070.25
617.853,1076.45
618.383,1085.0
618.912,1077.85
619.442,1070.1
619.971,1069.1
620.501,1064.4
621.03,1069.85
621.56,1067.65
622.089,1072.9
622.618,1078.35
623.147,1079.55
623.676,1086.55
624.205,1083.8
624.734,1093.95
625.263,1095.5
625.792,1094.2
626.321,1093.2
626.849,1091.5
627.378,1094.6
627.906,1096.6
628.435,1110.95
628.963,1143.55
629.492,1136.6
630.02,1135.4
630.548,1131.05
631.077,1193.35
631.605,1323.5
632.133,1306.55
632.661,1221.25
633.189,1203.6
633.717,1187.15
634.245,1170.8
634.773,1152.9
635.3,1160.15
635.828,1215.4
636.356,1326.25
636.883,1331.15
637.411,1204.05
637.938,1171.0
638.466,1161.75
638.993,1156.7
639.521,1167.15
640.048,1163.9
640.575,1159.85
641.103,1161.6
641.63,1170.6
642.157,1173.15
642.684,1178.25
643.211,1169.7
643.738,1164.9
644.265,1166.65
644.792,1168.6
645.319,1167.6
645.845,1169.8
646.372,1172.35
646.899,1180.3
647.425,1181.6
647.952,1176.3
648.479,1176.3
649.005,1178.25
649.532,1178.5
650.058,1172.45
650.585,1176.1
651.111,1181.4
651.637,1183.25
652.164,1183.6
652.69,1182.35
653.216,1185.15
653.742,1185.85
654.268,1189.6
654.794,1183.15
655.32,1179.45
655.846,1187.6
656.372,1183.45
656.898,1188.5
657.424,1186.65
657.95,1183.6
658.476,1184.0
659.002,1182.1
659.528,1180.85
660.053,1186.7
660.579,1180.7
661.105,1181.65
661.63,1177.55
662.156,1178.7
662.681,1177.7
663.076,1176.65