File: spectra/VLFR_06-PET_bio_Raman_1d57b388.csv
nm,Intensity
528.65,1844.35
529.155,1846.85
529.66,1847.25
530.165,1845.25
530.67,1847.9
531.175,1849.2
531.68,1875.2
532.185,3721.95
532.69,1850.15
533.194,1858.5
533.699,3017.9
534.204,6234.15
534.708,5598.9
535.213,5018.3
535.717,4568.2
536.222,4289.35
536.726,4166.0
537.231,4198.3
537.735,4241.4
538.239,4264.6
538.743,4265.65
539.247,4326.15
539.751,4461.2
540.255,4422.95
540.759,4433.75
541.263,4394.6
541.767,4453.9
542.271,4543.85
542.775,4634.75
543.279,4656.75
543.782,4660.35
544.286,4715.75
544.789,4813.65
545.293,4781.0
545.796,4834.55
546.3,4807.9
546.803,4911.65
547.306,4856.5
547.81,4967.0
548.313,5106.25
548.816,5070.95
549.319,5062.15
549.822,5154.6
550.325,5253.5
550.828,5499.6
551.331,5391.0
551.834,5380.95
552.337,5406.5
552.839,5555.3
553.342,5512.2
553.844,5527.25
554.347,5564.9
554.849,5665.35
555.352,5740.15
555.854,5971.5
556.357,6022.2
556.859,6067.75
557.361,6468.0
557.863,6317.9
558.365,6266.05
558.867,6242.8
559.369,6084.65
559.871,6214.0
560.373,6168.95
560.875,6282.2
561.377,6354.55
561.878,6594.0
562.38,6535.65
562.881,6570.35
563.383,6624.05
563.884,6676.9
564.386,6755.0
564.887,6928.05
565.388,7167.0
565.89,7287.3
566.391,7071.15
566.892,7026.5
567.393,7058.85
567.894,7316.15
568.395,7226.45
568.896,7233.1
569.396,7465.45
569.897,7375.95
570.398,7773.8
570.898,8176.65
571.399,8396.4
571.9,8262.55
572.4,7962.9
572.9,7903.8
573.401,7874.15
573.901,7871.8
574.401,7780.6
574.901,7864.4
575.401,7926.4
575.901,7994.15
576.401,8094.15
576.901,8121.15
577.401,8032.0
577.901,7934.0
578.4,8005.4
578.9,8162.25
579.399,8192.45
579.899,8265.45
580.398,8497.4
580.898,8472.95
581.397,8841.85
581.896,10495.9
582.395,9628.35
582.895,8282.85
583.394,8224.0
583.893,8220.6
584.391,8245.95
584.89,8292.2
585.389,8747.3
585.888,10232.2
586.386,9648.95
586.885,8444.15
587.384,8416.55
587.882,8267.3
588.38,8429.25
588.879,8331.85
589.377,8270.35
589.875,8316.45
590.373,8332.75
590.871,8358.5
591.369,8441.55
591.867,8465.85
592.365,8676.55
592.863,8581.35
593.361,8479.9
593.858,8518.7
594.356,8459.6
594.853,8523.65
595.351,8653.3
595.848,8626.15
596.345,8695.4
596.843,8701.4
597.34,8731.65
597.837,8787.2
598.334,8584.9
598.831,8703.7
599.328,8763.95
599.824,8651.45
600.321,8799.9
600.818,8659.15
601.314,8847.25
601.811,8710.55
602.307,8771.8
602.804,8906.35
603.3,8754.65
603.796,8901.3
604.293,8742.55
604.789,8842.8
605.285,8676.15
605.781,8807.55
606.277,8855.05
606.772,8746.3
607.268,8888.1
607.764,9012.25
608.259,8843.55
608.755,8842.1
609.25,8759.15
609.746,8862.4
610.241,8811.85
610.736,8676.7
611.231,8723.9
611.727,8725.05
612.222,8717.45
612.716,8853.3
613.211,8804.25
613.706,8777.75
614.201,8716.2
614.695,8765.2
615.19,8711.55
615.684,8746.5
616.179,8773.9
616.673,8592.9
617.168,8769.9
617.662,8624.9
618.156,8706.4
618.65,8814.1
619.144,8763.45
619.638,8683.85
620.131,8864.3
620.625,8769.8
621.119,8777.4
621.612,8566.5
622.106,8777.9
622.599,8709.5
623.093,8849.35
623.586,8696.7
624.079,8826.55
624.572,8949.8
625.065,8837.95
625.558,8664.9
626.051,8760.65
626.544,8761.15
627.037,8784.4
627.529,8798.2
628.022,8847.2
628.514,8941.95
629.007,9045.5
629.499,9035.25
629.991,8843.7
630.483,8840.35
630.976,9257.5
631.468,9601.6
631.959,9515.65
632.451,9332.45
632.943,9269.85
633.435,9160.55
633.926,9101.0
634.418,8922.35
634.909,9018.0
635.401,8924.05
635.892,9252.85
636.383,9819.55
636.874,9322.0
637.365,9037.9
637.856,9060.1
638.347,8904.85
638.838,8872.8
639.329,8923.1
639.819,8794.6
640.31,8768.35
640.8,8779.8
641.291,8688.6
641.781,8838.0
642.271,8926.4
642.761,8719.8
643.251,8531.85
643.741,8887.25
644.231,8819.05
644.721,8532.85
645.211,8947.15
645.7,8696.7
646.19,8688.85
646.679,8756.1
647.169,8487.0
647.658,8511.3
648.147,8596.55
648.636,8476.7
649.125,8536.1
649.614,8414.15
650.103,8297.6
650.592,8325.15
651.08,8311.6
651.569,8129.95
652.058,8056.8
652.546,8069.45
653.034,8010.65
653.523,7945.3
654.011,8234.4
654.499,7954.3
654.987,7774.45
655.475,7908.05
655.963,7637.8
656.45,7756.7
656.938,7594.75
657.425,7690.35
657.913,7498.5
658.4,7304.6
658.888,7519.35
659.375,7382.2
659.862,7269.15
660.349,7310.3
660.836,7057.75
661.079,7158.05