File: spectra/VLFR_01-LDPE_nobio_Raman_56db6c7b.csv
nm,Intensity
526.486,829.9
527.033,830.3
527.579,830.5
528.126,830.6
528.672,828.3
529.219,829.7
529.765,829.5
530.311,829.7
530.857,829.6
531.403,830.3
531.948,831.0
532.494,830.0
533.039,829.4
533.585,829.9
534.13,900.3
534.675,889.6
535.22,877.7
535.764,866.9
536.309,859.4
536.854,856.1
537.398,853.4
537.942,856.4
538.486,853.4
539.03,853.1
539.574,850.6
540.118,848.6
540.662,850.0
541.205,844.8
541.749,848.0
542.292,845.4
542.835,848.4
543.378,845.1
543.921,845.3
544.464,843.5
545.006,844.9
545.549,844.4
546.091,844.0
546.634,844.2
547.176,845.8
547.718,843.9
548.26,843.0
548.802,844.9
549.343,845.1
549.885,842.6
550.426,842.4
550.968,842.7
551.509,844.8
552.05,846.6
552.591,842.6
553.132,846.3
553.673,845.4
554.214,846.2
554.754,846.6
555.295,847.3
555.835,847.8
556.375,851.2
556.915,851.1
557.455,853.0
557.995,853.5
558.535,855.0
559.075,853.3
559.614,852.2
560.154,850.3
560.693,850.6
561.232,852.7
561.772,850.2
562.311,853.7
562.85,855.5
563.388,858.1
563.927,897.7
564.466,872.8
565.004,869.9
565.543,862.7
566.081,901.5
566.619,865.5
567.157,859.2
567.695,862.7
568.233,856.8
568.771,854.4
569.309,855.2
569.846,857.6
570.384,860.8
570.921,863.6
571.458,931.0
571.995,893.1
572.532,868.1
573.069,860.3
573.606,862.4
574.143,867.5
574.68,861.7
575.216,861.8
575.753,896.8
576.289,980.1
576.825,935.5
577.361,912.9
577.897,876.0
578.433,875.6
578.969,878.4
579.505,876.4
580.041,878.5
580.576,882.4
581.112,882.0
581.647,884.5
582.183,889.9
582.718,891.5
583.253,889.6
583.788,894.1
584.323,896.2
584.858,898.4
585.392,897.4
585.927,904.4
586.462,901.7
586.996,907.0
587.53,909.5
588.065,912.5
588.599,914.0
589.133,917.6
589.667,916.8
590.201,922.0
590.735,927.1
591.268,931.0
591.802,935.4
592.335,935.7
592.869,944.6
593.402,950.2
593.936,953.8
594.469,959.3
595.002,967.4
595.535,979.9
596.068,982.2
596.601,996.0
597.133,1008.6
597.666,1015.2
598.199,1022.2
598.731,1030.6
599.264,1036.2
599.796,1038.2
600.328,1042.9
600.86,1039.2
601.393,1038.6
601.925,1041.0
602.457,1032.5
602.988,1032.8
603.52,1026.3
604.052,1019.9
604.583,1014.9
605.115,996.8
605.646,994.7
606.178,984.0
606.709,977.4
607.24,963.8
607.771,963.4
608.302,960.2
608.833,953.6
609.364,951.1
609.895,950.7
610.426,942.7
610.957,943.7
611.487,939.8
612.018,940.1
612.548,936.9
613.078,930.1
613.609,930.0
614.139,927.5
614.669,929.1
615.199,926.4
615.729,920.1
616.259,921.9
616.789,922.4
617.319,927.6
617.849,923.7
618.378,917.6
618.908,918.5
619.437,921.0
619.967,924.8
620.496,922.1
621.025,922.7
621.555,932.1
622.084,952.9
622.613,951.3
623.142,923.9
623.671,916.8
624.2,913.5
624.729,912.3
625.258,912.0
625.786,919.8
626.315,939.6
626.844,1137.3
627.372,1574.8
627.901,1300.2
628.429,1456.2
628.957,1353.9
629.486,1261.6
630.014,1148.7
630.542,1131.9
631.07,1021.5
631.598,950.6
632.126,926.1
632.654,912.1
633.182,907.1
633.71,903.9
634.237,899.9
634.765,897.9
635.293,898.9
635.82,895.7
636.348,899.3
636.875,895.4
637.403,894.8
637.93,894.8
638.458,894.9
638.985,897.6
639.512,892.0
640.039,891.9
640.566,897.5
641.093,897.5
641.62,897.7
642.147,897.7
642.674,899.0
643.201,898.1
643.728,900.3
644.255,900.2
644.781,903.8
645.308,902.4
645.835,904.2
646.361,905.2
646.888,905.8
647.414,908.6
647.941,910.8
648.467,908.5
648.993,910.9
649.52,911.5
650.046,915.8
650.572,915.5
651.098,916.1
651.625,918.6
652.151,916.9
652.677,921.8
653.203,922.6
653.729,920.8
654.255,919.5
654.78,922.0
655.306,919.4
655.832,915.5
656.358,914.8
656.884,918.7
657.409,915.4
657.935,915.9
658.461,912.0
658.986,907.9
659.512,906.4
660.037,907.8
660.563,900.3
661.088,896.5
661.614,895.0
662.139,894.9
662.664,887.7
663.058,888.3