File: spectra/VLFR_08-PLA_nobio_Raman_d6383756.csv
nm,Intensity
526.5,829.0
527.047,830.6
527.594,829.2
528.14,829.3
528.687,829.0
529.233,828.7
529.779,828.8
530.325,829.5
530.871,829.0
531.417,828.0
531.962,831.9
532.508,830.6
533.053,828.0
533.599,829.3
534.144,909.6
534.689,896.1
535.234,886.8
535.778,884.8
536.323,878.7
536.867,883.6
537.412,873.1
537.956,876.9
538.5,873.0
539.044,871.3
539.588,869.9
540.132,871.6
540.675,881.0
541.219,880.5
541.762,872.7
542.305,871.2
542.848,873.6
543.391,882.3
543.934,888.9
544.477,879.3
545.02,874.5
545.562,874.3
546.105,875.9
546.647,875.4
547.189,874.9
547.731,876.5
548.273,876.8
548.815,877.5
549.356,879.4
549.898,878.7
550.439,881.6
550.981,881.2
551.522,881.4
552.063,883.1
552.604,880.3
553.145,885.5
553.686,885.1
554.226,885.8
554.767,884.6
555.307,883.4
555.848,884.5
556.388,879.5
556.928,885.8
557.468,886.7
558.008,923.7
558.547,894.7
559.087,889.7
559.626,891.4
560.166,887.3
560.705,885.0
561.244,887.7
561.783,886.0
562.322,886.4
562.861,889.9
563.4,902.6
563.939,894.5
564.477,890.6
565.015,900.4
565.554,898.9
566.092,910.1
566.63,899.8
567.168,892.6
567.706,891.5
568.244,891.7
568.781,894.3
569.319,894.9
569.857,894.2
570.394,891.8
570.931,894.2
571.468,902.9
572.005,900.0
572.542,897.8
573.079,900.4
573.616,901.9
574.153,900.4
574.689,902.8
575.226,897.1
575.762,893.2
576.298,902.9
576.834,926.7
577.371,907.7
577.907,902.0
578.442,900.6
578.978,896.7
579.514,899.0
580.049,898.5
580.585,898.6
581.12,898.4
581.656,899.8
582.191,899.4
582.726,901.5
583.261,903.4
583.796,903.0
584.331,901.4
584.865,900.2
585.4,901.8
585.935,904.6
586.469,905.2
587.004,919.7
587.538,930.9
588.072,912.4
588.606,905.5
589.14,902.5
589.674,903.5
590.208,903.6
590.742,901.8
591.275,901.3
591.809,903.7
592.342,900.0
592.876,899.2
593.409,900.8
593.942,900.1
594.476,899.5
595.009,901.6
595.542,903.7
596.075,903.9
596.607,900.4
597.14,904.0
597.673,903.4
598.205,905.6
598.738,903.4
599.27,906.1
599.803,898.2
600.335,901.1
600.867,900.7
601.399,899.9
601.931,902.4
602.463,901.8
602.995,901.1
603.527,900.2
604.058,901.3
604.59,895.5
605.122,901.1
605.653,900.0
606.184,897.7
606.716,894.5
607.247,900.6
607.778,897.3
608.309,898.0
608.84,900.1
609.371,900.1
609.902,898.3
610.433,900.6
610.964,897.0
611.494,896.7
612.025,897.4
612.556,894.8
613.086,896.9
613.616,898.0
614.147,901.5
614.677,898.6
615.207,896.9
615.737,898.9
616.267,897.8
616.797,899.4
617.327,896.4
617.857,897.9
618.387,896.8
618.917,896.8
619.446,896.7
619.976,898.5
620.505,897.4
621.035,895.2
621.564,899.5
622.093,897.8
622.623,900.6
623.152,901.9
623.681,900.1
624.21,898.6
624.739,899.8
625.268,894.3
625.797,896.9
626.326,894.7
626.855,897.0
627.383,898.4
627.912,900.3
628.441,926.2
628.969,922.9
629.498,921.2
630.026,926.2
630.554,943.6
631.083,1110.3
631.611,1013.5
632.139,954.0
632.667,936.0
633.195,975.2
633.724,964.7
634.252,925.9
634.779,902.6
635.307,895.0
635.835,894.8
636.363,891.2
636.891,890.8
637.418,890.9
637.946,892.6
638.474,887.3
639.001,890.6
639.529,889.2
640.056,890.9
640.583,887.6
641.111,892.4
641.638,888.1
642.165,886.3
642.692,887.3
643.22,887.7
643.747,885.6
644.274,885.4
644.801,885.1
645.328,886.7
645.854,882.5
646.381,882.8
646.908,884.2
647.435,882.1
647.962,886.1
648.488,881.1
649.015,881.3
649.542,880.0
650.068,883.3
650.595,882.5
651.121,880.0
651.648,876.6
652.174,880.7
652.7,881.0
653.227,880.4
653.753,879.4
654.279,878.0
654.805,877.7
655.331,877.3
655.858,876.7
656.384,878.5
656.91,876.8
657.436,880.3
657.962,879.1
658.488,876.5
659.013,875.5
659.539,876.1
660.065,877.8
660.591,873.6
661.117,874.7
661.642,873.9
662.168,876.8
662.694,873.9
663.088,873.9