File: spectra/VLFR_01-LDPE_nobio_Raman_f0b03248.csv
nm,Intensity
526.486,830.0
527.033,830.7
527.579,829.5
528.126,830.7
528.672,830.2
529.219,829.6
529.765,829.7
530.311,830.0
530.857,829.1
531.403,829.1
531.948,830.8
532.494,830.7
533.039,830.7
533.585,830.5
534.13,865.8
534.675,863.2
535.22,858.1
535.764,856.6
536.309,852.6
536.854,851.1
537.398,850.9
537.942,847.3
538.486,846.3
539.03,847.4
539.574,847.0
540.118,846.3
540.662,847.9
541.205,851.1
541.749,854.8
542.292,851.7
542.835,852.2
543.378,850.5
543.921,846.1
544.464,848.5
545.006,852.5
545.549,854.4
546.091,848.0
546.634,849.2
547.176,846.3
547.718,847.6
548.26,846.5
548.802,846.8
549.343,847.0
549.885,849.6
550.426,848.9
550.968,845.6
551.509,848.1
552.05,846.8
552.591,847.5
553.132,846.9
553.673,847.5
554.214,847.7
554.754,848.0
555.295,848.1
555.835,845.9
556.375,848.6
556.915,850.3
557.455,849.4
557.995,849.9
558.535,852.9
559.075,855.5
559.614,849.5
560.154,851.5
560.693,851.7
561.232,851.8
561.772,853.0
562.311,853.4
562.85,856.9
563.388,858.3
563.927,869.3
564.466,867.4
565.004,888.6
565.543,872.0
566.081,879.4
566.619,863.2
567.157,858.1
567.695,858.6
568.233,854.5
568.771,856.8
569.309,857.4
569.846,859.2
570.384,860.0
570.921,863.0
571.458,877.6
571.995,868.0
572.532,866.2
573.069,870.0
573.606,868.6
574.143,871.8
574.68,868.9
575.216,868.9
575.753,874.3
576.289,888.7
576.825,881.1
577.361,874.2
577.897,863.3
578.433,862.7
578.969,858.3
579.505,863.0
580.041,861.5
580.576,861.5
581.112,867.3
581.647,871.1
582.183,866.2
582.718,868.3
583.253,866.4
583.788,868.4
584.323,865.6
584.858,866.7
585.392,869.1
585.927,873.3
586.462,873.9
586.996,876.3
587.53,879.9
588.065,882.7
588.599,882.0
589.133,883.5
589.667,884.5
590.201,889.0
590.735,889.8
591.268,896.1
591.802,897.9
592.335,899.8
592.869,901.0
593.402,908.1
593.936,907.9
594.469,909.5
595.002,914.7
595.535,918.6
596.068,922.6
596.601,929.9
597.133,934.9
597.666,942.1
598.199,944.2
598.731,951.7
599.264,957.7
599.796,964.9
600.328,960.9
600.86,959.6
601.393,969.0
601.925,966.5
602.457,965.6
602.988,966.6
603.52,959.1
604.052,959.1
604.583,957.8
605.115,952.2
605.646,947.2
606.178,939.0
606.709,936.7
607.24,936.9
607.771,935.3
608.302,932.1
608.833,932.9
609.364,928.0
609.895,930.9
610.426,930.5
610.957,927.4
611.487,925.9
612.018,926.4
612.548,932.6
613.078,926.2
613.609,924.1
614.139,927.1
614.669,925.7
615.199,926.5
615.729,918.3
616.259,921.3
616.789,924.9
617.319,924.8
617.849,920.9
618.378,923.7
618.908,919.8
619.437,921.2
619.967,919.3
620.496,921.1
621.025,922.6
621.555,927.0
622.084,926.4
622.613,927.8
623.142,919.7
623.671,916.3
624.2,924.1
624.729,922.6
625.258,923.1
625.786,919.6
626.315,924.1
626.844,966.1
627.372,1044.1
627.901,1004.2
628.429,1031.3
628.957,1020.7
629.486,1001.4
630.014,976.8
630.542,973.6
631.07,951.6
631.598,937.2
632.126,935.3
632.654,924.6
633.182,918.0
633.71,913.8
634.237,910.1
634.765,914.0
635.293,913.8
635.82,910.7
636.348,914.9
636.875,920.0
637.403,915.8
637.93,918.1
638.458,915.5
638.985,912.0
639.512,917.6
640.039,920.7
640.566,915.9
641.093,925.4
641.62,921.8
642.147,926.5
642.674,926.6
643.201,926.1
643.728,925.9
644.255,926.3
644.781,933.9
645.308,929.5
645.835,930.8
646.361,934.0
646.888,938.4
647.414,936.3
647.941,936.1
648.467,939.9
648.993,942.2
649.52,941.1
650.046,948.1
650.572,943.0
651.098,945.6
651.625,948.0
652.151,947.5
652.677,950.8
653.203,951.7
653.729,944.8
654.255,950.1
654.78,947.9
655.306,949.9
655.832,952.6
656.358,957.6
656.884,945.5
657.409,949.8
657.935,950.8
658.461,948.3
658.986,944.5
659.512,951.6
660.037,944.2
660.563,943.9
661.088,941.2
661.614,936.7
662.139,933.3
662.664,938.8
663.058,933.9