File: spectra/VLFR_02-HDPE_nobio_Raman_7c0ee864.csv
nm,Intensity
526.5,830.3
527.047,829.6
527.594,827.8
528.14,828.0
528.687,828.3
529.233,827.4
529.779,829.4
530.325,828.8
530.871,829.6
531.417,829.7
531.962,836.2
532.508,830.3
533.053,828.6
533.599,829.5
534.144,873.7
534.689,864.9
535.234,861.2
535.778,857.1
536.323,853.3
536.867,852.3
537.412,854.7
537.956,854.5
538.5,852.1
539.044,852.3
539.588,852.8
540.132,851.2
540.675,852.4
541.219,852.2
541.762,850.7
542.305,852.0
542.848,854.0
543.391,850.8
543.934,850.2
544.477,850.8
545.02,851.5
545.562,853.4
546.105,850.8
546.647,852.6
547.189,851.3
547.731,854.8
548.273,855.3
548.815,853.9
549.356,852.0
549.898,855.2
550.439,852.9
550.981,852.2
551.522,855.2
552.063,854.8
552.604,854.4
553.145,857.2
553.686,855.0
554.226,855.6
554.767,857.5
555.307,855.9
555.848,856.4
556.388,855.4
556.928,857.6
557.468,858.9
558.008,859.2
558.547,859.9
559.087,858.5
559.626,860.5
560.166,857.2
560.705,858.1
561.244,858.2
561.783,857.6
562.322,858.7
562.861,859.9
563.4,864.0
563.939,882.5
564.477,868.4
565.015,870.7
565.554,866.3
566.092,892.5
566.63,867.0
567.168,865.7
567.706,868.1
568.244,862.0
568.781,865.0
569.319,865.8
569.857,865.7
570.394,865.8
570.931,872.3
571.468,906.1
572.005,880.1
572.542,874.3
573.079,867.1
573.616,870.7
574.153,876.8
574.689,873.2
575.226,877.3
575.762,893.3
576.298,928.1
576.834,906.1
577.371,895.0
577.907,883.4
578.442,882.3
578.978,887.8
579.514,887.5
580.049,886.4
580.585,888.6
581.12,894.2
581.656,894.4
582.191,891.5
582.726,900.0
583.261,896.3
583.796,896.7
584.331,900.2
584.865,900.7
585.4,901.8
585.935,904.8
586.469,908.9
587.004,910.2
587.538,909.9
588.072,910.8
588.606,909.7
589.14,914.2
589.674,915.0
590.208,919.9
590.742,923.7
591.275,921.9
591.809,925.0
592.342,931.8
592.876,930.8
593.409,932.6
593.942,934.8
594.476,940.0
595.009,940.5
595.542,944.1
596.075,944.6
596.607,948.0
597.14,953.9
597.673,955.9
598.205,960.6
598.738,957.9
599.27,966.4
599.803,965.0
600.335,965.4
600.867,966.2
601.399,963.4
601.931,964.1
602.463,958.9
602.995,957.3
603.527,957.7
604.058,954.2
604.59,951.6
605.122,952.8
605.653,947.0
606.184,943.8
606.716,935.7
607.247,939.0
607.778,934.5
608.309,934.4
608.84,930.8
609.371,930.2
609.902,925.1
610.433,921.4
610.964,922.3
611.494,920.1
612.025,918.4
612.556,918.5
613.086,913.7
613.616,917.0
614.147,914.3
614.677,914.4
615.207,912.6
615.737,911.9
616.267,911.8
616.797,908.1
617.327,911.7
617.857,910.5
618.387,910.5
618.917,909.9
619.446,905.5
619.976,911.7
620.505,909.9
621.035,906.7
621.564,911.8
622.093,921.0
622.623,915.9
623.152,910.0
623.681,908.8
624.21,903.8
624.739,905.1
625.268,909.9
625.797,905.4
626.326,914.1
626.855,991.6
627.383,1132.0
627.912,1030.9
628.441,1104.8
628.969,1064.1
629.498,1026.0
630.026,990.4
630.554,973.7
631.083,932.0
631.611,913.5
632.139,905.0
632.667,906.9
633.195,902.4
633.724,900.4
634.252,899.0
634.779,900.3
635.307,901.8
635.835,900.6
636.363,900.4
636.891,898.2
637.418,900.4
637.946,897.3
638.474,897.6
639.001,897.2
639.529,896.9
640.056,897.5
640.583,896.8
641.111,899.4
641.638,899.4
642.165,898.0
642.692,902.1
643.22,899.0
643.747,898.5
644.274,897.2
644.801,900.6
645.328,900.7
645.854,900.8
646.381,902.0
646.908,900.6
647.435,901.5
647.962,901.7
648.488,903.2
649.015,903.7
649.542,901.6
650.068,903.2
650.595,905.1
651.121,903.8
651.648,904.9
652.174,905.6
652.7,904.7
653.227,905.0
653.753,907.1
654.279,909.1
654.805,906.1
655.331,904.0
655.858,903.5
656.384,902.9
656.91,906.2
657.436,904.2
657.962,904.7
658.488,899.9
659.013,904.3
659.539,903.3
660.065,903.8
660.591,902.5
661.117,896.4
661.642,898.8
662.168,897.0
662.694,898.0
663.088,898.6