File: spectra/VLFR_08-PLA_nobio_Raman_1e32b803.csv
nm,Intensity
526.508,831.3
527.055,829.2
527.602,830.8
528.149,829.5
528.695,829.7
529.241,829.4
529.787,829.7
530.334,829.6
530.879,830.5
531.425,828.4
531.971,832.4
532.516,830.8
533.062,829.7
533.607,832.0
534.152,1095.7
534.697,1041.5
535.242,1005.2
535.786,984.6
536.331,975.3
536.876,978.7
537.42,967.2
537.964,965.4
538.508,950.4
539.052,947.8
539.596,948.5
540.14,940.1
540.683,961.8
541.227,964.7
541.77,953.8
542.313,949.2
542.856,950.1
543.399,979.1
543.942,989.4
544.485,963.3
545.027,956.2
545.57,953.1
546.112,952.2
546.654,951.0
547.196,958.7
547.738,954.9
548.28,955.7
548.822,959.1
549.363,960.5
549.905,961.3
550.446,964.3
550.988,968.1
551.529,968.0
552.07,972.3
552.611,977.4
553.152,975.4
553.692,974.2
554.233,984.9
554.773,972.8
555.314,971.6
555.854,961.8
556.394,965.7
556.934,972.1
557.474,990.2
558.014,1126.0
558.553,1014.3
559.093,989.9
559.632,985.8
560.172,980.0
560.711,979.8
561.25,973.4
561.789,976.3
562.328,976.9
562.867,990.8
563.406,1027.5
563.944,1006.6
564.483,995.3
565.021,1019.5
565.559,1007.6
566.098,1052.9
566.636,1012.5
567.174,989.5
567.711,997.8
568.249,997.5
568.787,999.8
569.324,998.9
569.862,997.1
570.399,997.3
570.936,1000.2
571.474,1016.5
572.011,1021.3
572.548,1018.4
573.084,1017.2
573.621,1027.0
574.158,1015.1
574.694,1030.4
575.231,1004.9
575.767,1006.2
576.303,1026.8
576.84,1094.0
577.376,1038.6
577.912,1012.2
578.447,1008.6
578.983,1009.7
579.519,1011.9
580.054,1013.4
580.59,1007.6
581.125,1006.4
581.661,1012.5
582.196,1014.0
582.731,1011.7
583.266,1013.4
583.801,1015.4
584.336,1016.7
584.87,1013.2
585.405,1016.1
585.94,1011.9
586.474,1032.3
587.008,1071.5
587.543,1100.7
588.077,1050.8
588.611,1019.6
589.145,1018.6
589.679,1013.7
590.213,1011.3
590.747,1012.2
591.28,1017.8
591.814,1016.9
592.347,1013.2
592.881,1016.0
593.414,1014.4
593.947,1014.9
594.48,1015.4
595.014,1012.9
595.547,1019.3
596.079,1013.0
596.612,1013.2
597.145,1010.8
597.678,1013.8
598.21,1012.1
598.743,1018.2
599.275,1016.3
599.807,1014.2
600.34,1019.5
600.872,1017.6
601.404,1015.7
601.936,1011.3
602.468,1016.3
603.0,1012.5
603.532,1016.6
604.063,1012.1
604.595,1010.7
605.126,1007.1
605.658,1005.6
606.189,1008.7
606.721,1004.8
607.252,1009.6
607.783,1005.0
608.314,1006.2
608.845,1005.9
609.376,1006.3
609.907,1009.7
610.438,1006.8
610.968,1009.7
611.499,1004.1
612.03,1005.6
612.56,1009.9
613.091,1007.7
613.621,1013.1
614.151,1010.0
614.681,1011.1
615.212,1007.7
615.742,1009.6
616.272,1010.1
616.802,1009.1
617.332,1008.0
617.861,1007.9
618.391,1005.5
618.921,1008.8
619.45,1003.1
619.98,1002.6
620.509,1001.2
621.039,1002.4
621.568,1006.0
622.097,1003.8
622.627,1021.6
623.156,1026.0
623.685,1016.8
624.214,1015.9
624.743,1007.3
625.272,1007.0
625.801,1001.2
626.33,1003.9
626.858,1004.7
627.387,1005.5
627.916,1012.4
628.444,1097.5
628.973,1077.0
629.501,1070.0
630.029,1083.7
630.558,1148.0
631.086,1605.1
631.614,1309.4
632.142,1152.8
632.67,1128.5
633.198,1231.1
633.726,1198.7
634.254,1084.9
634.782,1023.8
635.31,1007.5
635.838,1001.0
636.365,994.3
636.893,991.7
637.421,991.0
637.948,991.5
638.476,991.0
639.003,983.7
639.531,985.6
640.058,986.8
640.585,983.0
641.113,983.8
641.64,988.9
642.167,984.0
642.694,981.8
643.221,980.2
643.748,975.9
644.275,980.9
644.802,972.3
645.329,974.7
645.856,973.5
646.382,970.6
646.909,969.8
647.436,967.6
647.962,969.9
648.489,971.0
649.016,964.0
649.542,968.1
650.069,968.0
650.595,967.7
651.121,960.1
651.648,959.7
652.174,968.5
652.7,962.9
653.227,965.1
653.753,963.6
654.279,960.7
654.805,963.8
655.331,961.8
655.857,961.3
656.383,958.8
656.909,960.8
657.435,962.0
657.961,961.4
658.487,961.8
659.013,958.5
659.538,957.7
660.064,955.7
660.59,957.7
661.116,953.4
661.641,951.7
662.167,950.1
662.692,951.2
663.087,952.1