File: spectra/VLFR_02-HDPE_bio_Raman_a3d612d3.csv
nm,Intensity
526.547,832.1
527.095,831.55
527.642,833.15
528.189,833.5
528.736,833.15
529.283,833.05
529.829,832.3
530.376,832.55
530.922,832.35
531.468,832.95
532.014,842.8
532.56,832.5
533.106,832.2
533.651,832.6
534.196,876.2
534.742,868.4
535.287,861.3
535.832,855.0
536.376,853.5
536.921,853.65
537.465,851.8
538.01,852.0
538.554,850.8
539.098,848.85
539.642,847.25
540.186,846.3
540.729,845.6
541.273,845.65
541.816,844.85
542.36,845.55
542.903,845.9
543.446,845.6
543.988,845.1
544.531,846.1
545.074,845.85
545.616,846.7
546.158,844.1
546.701,844.95
547.243,845.0
547.785,844.55
548.326,844.6
548.868,843.9
549.41,843.9
549.951,845.2
550.492,845.75
551.034,845.35
551.575,844.75
552.116,845.55
552.656,844.5
553.197,845.2
553.738,846.9
554.278,846.4
554.819,845.1
555.359,847.35
555.899,845.0
556.439,847.45
556.979,847.8
557.519,850.7
558.058,849.55
558.598,853.3
559.137,851.2
559.677,851.5
560.216,849.0
560.755,850.45
561.294,849.5
561.833,851.65
562.371,853.4
562.91,854.8
563.449,857.8
563.987,912.05
564.525,867.25
565.064,862.95
565.602,863.45
566.14,967.15
566.678,863.95
567.216,858.85
567.753,856.9
568.291,857.55
568.828,854.35
569.366,857.8
569.903,858.75
570.44,859.7
570.977,863.2
571.514,952.15
572.051,868.85
572.588,862.3
573.125,859.8
573.661,860.55
574.198,861.75
574.734,858.4
575.271,866.4
575.807,897.75
576.343,909.35
576.879,890.75
577.415,878.0
577.951,864.35
578.486,863.45
579.022,864.1
579.557,864.6
580.093,865.45
580.628,866.2
581.164,865.55
581.699,868.25
582.234,869.05
582.769,870.65
583.304,873.45
583.838,873.15
584.373,873.55
584.908,873.95
585.442,877.5
585.977,879.35
586.511,881.4
587.045,884.45
587.58,886.55
588.114,887.0
588.648,889.1
589.182,892.6
589.715,894.95
590.249,895.5
590.783,896.35
591.316,898.4
591.85,898.9
592.383,900.35
592.917,900.75
593.45,901.2
593.983,900.85
594.516,902.35
595.049,905.0
595.582,905.35
596.115,905.7
596.648,908.55
597.18,906.9
597.713,911.9
598.245,915.15
598.778,917.25
599.31,918.65
599.842,922.35
600.375,919.2
600.907,922.4
601.439,920.25
601.971,924.9
602.503,921.55
603.034,921.45
603.566,920.15
604.098,920.5
604.629,915.85
605.161,914.35
605.692,911.45
606.224,909.1
606.755,903.7
607.286,901.75
607.817,903.4
608.348,900.25
608.879,899.3
609.41,895.4
609.941,896.45
610.472,896.05
611.002,895.7
611.533,894.8
612.063,893.55
612.594,889.95
613.124,889.75
613.655,892.75
614.185,890.25
614.715,886.15
615.245,886.65
615.775,886.15
616.305,885.3
616.835,885.4
617.365,888.3
617.895,885.2
618.425,884.5
618.954,884.65
619.484,884.05
620.013,884.15
620.543,882.55
621.072,882.8
621.602,889.25
622.131,891.0
622.66,888.3
623.189,883.9
623.718,880.5
624.247,880.35
624.776,881.7
625.305,880.55
625.834,882.95
626.363,891.8
626.891,976.2
627.42,1109.4
627.949,1012.5
628.477,1076.3
629.006,1033.3
629.534,999.8
630.062,964.7
630.591,955.7
631.119,909.95
631.647,885.1
632.175,879.05
632.703,874.5
633.231,874.7
633.759,872.55
634.287,872.95
634.815,871.85
635.343,870.65
635.871,872.95
636.398,873.15
636.926,871.4
637.454,872.25
637.981,871.75
638.509,871.9
639.036,871.55
639.564,872.45
640.091,873.0
640.618,873.15
641.146,875.3
641.673,874.4
642.2,872.95
642.727,873.85
643.254,876.15
643.781,875.2
644.308,873.0
644.835,872.9
645.362,874.0
645.889,875.05
646.416,875.55
646.942,875.15
647.469,874.6
647.996,877.2
648.522,877.15
649.049,876.45
649.576,875.25
650.102,876.95
650.629,875.45
651.155,877.0
651.682,875.15
652.208,877.25
652.734,875.85
653.261,878.15
653.787,876.2
654.313,875.75
654.839,877.35
655.365,875.75
655.892,875.1
656.418,875.15
656.944,874.05
657.47,874.5
657.996,873.85
658.522,874.5
659.048,871.2
659.574,873.6
660.099,871.95
660.625,872.0
661.151,870.4
661.677,869.0
662.203,866.2
662.728,864.95
663.123,864.95