File: spectra/VLFR_06-PET_bio_Raman_2e26d36c.csv
nm,Intensity
528.65,1845.0
529.155,1845.65
529.66,1847.0
530.165,1846.4
530.67,1847.65
531.175,1851.1
531.68,1900.7
532.185,4885.6
532.69,1853.4
533.194,1869.2
533.699,4478.6
534.204,10761.2
534.708,8354.35
535.213,6395.8
535.717,4797.3
536.222,3745.75
536.726,3422.1
537.231,3201.85
537.735,3142.35
538.239,3213.05
538.743,3187.85
539.247,3219.6
539.751,3429.45
540.255,3258.15
540.759,3062.8
541.263,2965.25
541.767,2978.9
542.271,3021.2
542.775,3012.8
543.279,3020.4
543.782,3094.0
544.286,3087.05
544.789,3113.4
545.293,3112.85
545.796,3128.8
546.3,3106.8
546.803,3176.15
547.306,3190.9
547.81,3202.1
548.313,3238.4
548.816,3251.45
549.319,3255.95
549.822,3269.05
550.325,3436.8
550.828,4107.2
551.331,3394.4
551.834,3378.0
552.337,3501.85
552.839,4033.4
553.342,3495.15
553.844,3535.9
554.347,3560.35
554.849,3652.65
555.352,3947.8
555.854,4270.2
556.357,4495.9
556.859,4512.95
557.361,5812.8
557.863,5259.45
558.365,4904.5
558.867,4429.9
559.369,4080.4
559.871,4050.3
560.373,4014.05
560.875,4123.45
561.377,4164.1
561.878,4323.65
562.38,4373.65
562.881,4560.85
563.383,4574.0
563.884,4406.3
564.386,4553.8
564.887,4975.75
565.388,5652.45
565.89,6094.5
566.391,5031.95
566.892,4711.85
567.393,4965.0
567.894,5271.8
568.395,4740.1
568.896,4674.75
569.396,4854.4
569.897,5146.95
570.398,5772.1
570.898,7221.4
571.399,8283.1
571.9,6587.7
572.4,5511.7
572.9,5166.65
573.401,5094.2
573.901,5328.45
574.401,5242.95
574.901,5343.6
575.401,5732.7
575.901,5383.5
576.401,5795.2
576.901,5785.05
577.401,5407.3
577.901,5342.75
578.4,5303.9
578.9,5378.2
579.399,5369.0
579.899,5487.5
580.398,5594.6
580.898,5881.7
581.397,6174.0
581.896,12146.3
582.395,11256.7
582.895,5928.05
583.394,5969.05
583.893,5820.5
584.391,5942.55
584.89,6227.35
585.389,8135.6
585.888,13582.1
586.386,10565.8
586.885,6861.85
587.384,6112.35
587.882,6040.8
588.38,6099.9
588.879,5962.95
589.377,6030.55
589.875,6126.7
590.373,5920.95
590.871,6088.4
591.369,6084.85
591.867,6095.25
592.365,6231.05
592.863,6104.4
593.361,6197.35
593.858,6197.1
594.356,6115.85
594.853,6232.0
595.351,6316.4
595.848,6308.3
596.345,6380.65
596.843,6385.75
597.34,6428.55
597.837,6334.65
598.334,6345.1
598.831,6502.45
599.328,6570.7
599.824,6495.7
600.321,6438.65
600.818,6462.9
601.314,6527.2
601.811,6379.6
602.307,6481.45
602.804,6558.25
603.3,6535.9
603.796,6450.65
604.293,6526.25
604.789,6453.15
605.285,6321.25
605.781,6543.35
606.277,6600.45
606.772,6614.4
607.268,6543.85
607.764,6614.75
608.259,6459.5
608.755,6416.6
609.25,6472.3
609.746,6507.0
610.241,6402.85
610.736,6474.85
611.231,6407.4
611.727,6470.5
612.222,6461.1
612.716,6387.1
613.211,6543.1
613.706,6698.5
614.201,6627.65
614.695,6534.4
615.19,6632.65
615.684,6676.55
616.179,6474.75
616.673,6535.0
617.168,6602.4
617.662,6628.1
618.156,6685.05
618.65,6786.3
619.144,6714.05
619.638,6647.5
620.131,6669.05
620.625,6621.2
621.119,6622.1
621.612,6550.2
622.106,6650.25
622.599,6622.25
623.093,6632.85
623.586,6724.55
624.079,6669.25
624.572,6878.5
625.065,6856.15
625.558,6783.8
626.051,6869.75
626.544,6679.25
627.037,6822.2
627.529,6948.0
628.022,6966.9
628.514,7246.6
629.007,7264.6
629.499,7493.65
629.991,7234.3
630.483,7228.45
630.976,8120.95
631.468,9559.2
631.959,9731.1
632.451,8844.35
632.943,8235.9
633.435,8291.45
633.926,7965.4
634.418,7706.4
634.909,7673.25
635.401,7702.95
635.892,8640.85
636.383,10556.6
636.874,9629.6
637.365,8219.35
637.856,7828.75
638.347,7750.05
638.838,7610.6
639.329,7733.45
639.819,7571.8
640.31,7848.5
640.8,7596.8
641.291,7584.75
641.781,7703.8
642.271,7984.9
642.761,7898.5
643.251,7719.8
643.741,8026.55
644.231,7774.8
644.721,7716.55
645.211,7863.4
645.7,7837.9
646.19,7959.5
646.679,7944.3
647.169,7789.85
647.658,7852.75
648.147,8025.1
648.636,7841.4
649.125,7617.8
649.614,7922.25
650.103,7800.4
650.592,7731.15
651.08,7869.3
651.569,7642.7
652.058,7651.1
652.546,7521.95
653.034,7534.4
653.523,7414.6
654.011,7627.65
654.499,7537.2
654.987,7419.5
655.475,7566.25
655.963,7329.0
656.45,7491.45
656.938,7215.9
657.425,7275.4
657.913,7187.85
658.4,7212.5
658.888,7006.95
659.375,7010.45
659.862,6965.0
660.349,6981.75
660.836,6894.25
661.079,6945.95