File: spectra/VLFR_08-PLA_bio_Raman_18d64c87.csv
nm,Intensity
526.495,828.7
527.042,828.3
527.589,829.7
528.136,830.9
528.682,828.9
529.229,829.9
529.775,830.1
530.321,828.8
530.867,829.3
531.413,827.7
531.959,832.2
532.505,830.3
533.051,828.2
533.596,831.7
534.141,1021.4
534.687,984.1
535.232,946.2
535.777,936.0
536.321,930.1
536.866,934.4
537.41,924.1
537.955,922.2
538.499,914.4
539.043,914.3
539.587,909.4
540.131,908.5
540.675,922.5
541.219,919.6
541.762,910.0
542.305,910.4
542.849,914.5
543.392,927.4
543.935,938.9
544.478,920.7
545.02,910.1
545.563,910.4
546.106,909.2
546.648,906.5
547.19,912.3
547.732,909.9
548.274,912.0
548.816,909.8
549.358,914.3
549.9,914.1
550.441,919.4
550.983,919.4
551.524,918.7
552.065,926.0
552.606,922.6
553.147,922.9
553.688,920.4
554.229,927.8
554.769,925.0
555.31,924.1
555.85,916.5
556.391,920.3
556.931,921.4
557.471,932.6
558.011,1026.0
558.551,948.2
559.09,936.4
559.63,934.9
560.169,927.7
560.709,927.3
561.248,925.4
561.787,928.0
562.326,927.0
562.865,936.5
563.404,967.6
563.943,948.2
564.481,938.9
565.02,958.3
565.558,950.3
566.096,973.5
566.634,954.6
567.172,936.9
567.71,937.5
568.248,943.1
568.786,943.7
569.324,942.1
569.861,942.4
570.399,941.6
570.936,944.5
571.473,960.6
572.01,959.9
572.547,957.8
573.084,960.6
573.621,957.7
574.158,954.8
574.694,967.0
575.231,951.8
575.767,952.9
576.303,964.2
576.84,1017.7
577.376,967.7
577.912,953.1
578.448,953.1
578.984,948.3
579.519,947.3
580.055,956.4
580.59,952.6
581.126,951.6
581.661,954.0
582.196,951.1
582.731,951.9
583.267,953.8
583.801,953.3
584.336,958.7
584.871,952.6
585.406,955.2
585.94,955.0
586.475,966.3
587.009,997.9
587.543,1011.2
588.078,974.8
588.612,957.7
589.146,956.6
589.68,955.0
590.214,956.7
590.747,949.6
591.281,956.1
591.815,954.2
592.348,955.9
592.881,952.1
593.415,953.3
593.948,954.0
594.481,960.0
595.014,955.0
595.547,954.3
596.08,957.4
596.613,954.6
597.146,954.1
597.678,954.2
598.211,961.2
598.743,958.1
599.276,955.1
599.808,952.6
600.34,955.5
600.872,956.7
601.404,959.4
601.936,954.3
602.468,954.4
603.0,957.4
603.532,952.5
604.064,956.9
604.595,953.0
605.127,951.2
605.658,952.9
606.189,945.1
606.721,953.6
607.252,951.1
607.783,952.2
608.314,953.2
608.845,952.4
609.376,953.4
609.907,951.3
610.438,953.5
610.968,951.2
611.499,947.1
612.029,951.4
612.56,958.3
613.09,952.2
613.621,954.8
614.151,955.4
614.681,960.4
615.211,952.3
615.741,952.3
616.271,957.3
616.801,954.6
617.331,954.8
617.861,950.8
618.39,951.8
618.92,956.2
619.45,957.6
619.979,954.0
620.509,950.4
621.038,952.5
621.567,951.0
622.096,951.0
622.626,959.5
623.155,966.6
623.684,959.4
624.213,960.0
624.742,955.7
625.271,952.5
625.799,950.9
626.328,955.4
626.857,951.0
627.386,952.6
627.914,961.7
628.443,1011.0
628.971,996.0
629.5,996.3
630.028,999.8
630.556,1045.9
631.084,1315.3
631.613,1138.7
632.141,1048.6
632.669,1036.4
633.197,1097.9
633.725,1074.9
634.253,1003.0
634.781,962.3
635.308,954.2
635.836,948.5
636.364,948.3
636.891,944.6
637.419,943.6
637.947,941.3
638.474,938.6
639.002,943.7
639.529,938.6
640.056,943.0
640.584,938.0
641.111,941.4
641.638,943.3
642.165,941.2
642.692,935.3
643.219,936.5
643.746,933.0
644.273,931.3
644.8,932.9
645.327,929.2
645.854,928.7
646.381,932.0
646.908,928.8
647.434,931.0
647.961,928.1
648.488,927.8
649.014,924.6
649.541,923.0
650.067,925.7
650.594,923.1
651.12,923.3
651.646,924.0
652.173,921.2
652.699,926.0
653.225,921.5
653.752,924.6
654.278,924.1
654.804,922.0
655.33,921.5
655.856,920.9
656.382,920.7
656.908,922.4
657.434,918.1
657.96,920.2
658.486,918.4
659.012,917.5
659.538,915.1
660.064,918.1
660.589,914.1
661.115,917.8
661.641,915.1
662.166,913.0
662.692,914.7
663.086,911.7