File: spectra/VLFR_01-LDPE_nobio_Raman_145599eb.csv
nm,Intensity
526.532,833.4
527.079,832.95
527.625,832.9
528.172,833.55
528.718,834.1
529.265,833.4
529.811,833.8
530.357,832.95
530.903,833.55
531.449,833.3
531.994,839.85
532.54,834.2
533.085,833.85
533.63,833.7
534.176,875.05
534.721,869.05
535.266,860.35
535.81,855.15
536.355,851.5
536.9,849.45
537.444,847.7
537.988,847.85
538.533,846.5
539.077,845.45
539.621,845.5
540.165,845.35
540.708,843.65
541.252,843.6
541.795,842.05
542.339,842.5
542.882,843.25
543.425,843.25
543.968,842.95
544.511,842.3
545.054,841.75
545.597,841.75
546.139,841.65
546.682,843.2
547.224,841.95
547.766,840.35
548.308,842.05
548.85,842.5
549.392,841.4
549.934,842.55
550.475,841.45
551.017,839.55
551.558,841.95
552.1,841.25
552.641,841.4
553.182,842.55
553.723,843.05
554.264,842.6
554.804,843.7
555.345,846.25
555.885,845.35
556.426,844.95
556.966,847.3
557.506,847.85
558.046,847.8
558.586,847.6
559.126,847.7
559.665,848.35
560.205,846.75
560.745,845.85
561.284,845.05
561.823,846.9
562.362,848.6
562.901,849.05
563.44,852.6
563.979,882.55
564.518,859.5
565.056,856.2
565.595,853.7
566.133,880.55
566.671,854.25
567.21,853.8
567.748,855.25
568.285,850.8
568.823,851.25
569.361,853.35
569.899,852.55
570.436,856.95
570.974,858.05
571.511,914.5
572.048,872.2
572.585,861.75
573.122,858.7
573.659,860.25
574.196,862.05
574.733,860.65
575.269,864.65
575.806,877.8
576.342,934.15
576.878,909.0
577.414,889.5
577.951,876.1
578.486,873.6
579.022,876.35
579.558,876.55
580.094,879.35
580.629,882.75
581.165,883.7
581.7,886.2
582.236,889.95
582.771,894.1
583.306,902.25
583.841,905.75
584.376,907.45
584.911,916.9
585.445,920.6
585.98,924.75
586.514,933.2
587.049,942.9
587.583,953.55
588.117,954.6
588.651,962.7
589.186,968.95
589.72,979.35
590.253,985.15
590.787,997.4
591.321,1001.8
591.854,1009.15
592.388,1013.5
592.921,1018.35
593.455,1022.5
593.988,1030.25
594.521,1038.9
595.054,1049.8
595.587,1053.6
596.12,1064.0
596.653,1075.6
597.186,1085.95
597.718,1088.05
598.251,1107.6
598.783,1115.4
599.316,1127.05
599.848,1128.0
600.38,1129.8
600.912,1125.9
601.444,1128.25
601.976,1126.35
602.508,1120.0
603.04,1110.8
603.572,1106.2
604.103,1094.65
604.635,1082.05
605.167,1066.8
605.698,1050.1
606.229,1040.2
606.761,1030.45
607.292,1022.2
607.823,1017.9
608.354,1008.95
608.885,1004.1
609.416,998.45
609.947,994.95
610.477,988.2
611.008,984.45
611.539,977.05
612.069,975.15
612.6,977.9
613.13,974.3
613.66,969.95
614.19,966.65
614.721,962.7
615.251,959.1
615.781,955.5
616.311,955.95
616.841,950.45
617.37,951.85
617.9,953.3
618.43,949.6
618.96,948.3
619.489,945.35
620.019,945.05
620.548,941.2
621.077,941.75
621.607,947.4
622.136,960.7
622.665,954.55
623.194,942.35
623.723,935.7
624.252,935.3
624.781,930.95
625.31,931.9
625.839,937.4
626.368,950.3
626.896,1099.25
627.425,1281.95
627.953,1142.35
628.482,1294.3
629.01,1159.55
629.539,1103.0
630.067,1052.75
630.596,1041.35
631.124,974.25
631.652,942.75
632.18,933.15
632.708,926.05
633.236,925.2
633.764,924.15
634.292,923.85
634.82,922.6
635.348,921.65
635.876,923.2
636.403,924.5
636.931,925.15
637.459,922.75
637.986,927.0
638.514,927.65
639.041,929.3
639.568,931.55
640.096,931.9
640.623,935.5
641.15,935.6
641.678,939.65
642.205,939.65
642.732,941.65
643.259,944.7
643.786,943.2
644.313,942.3
644.84,942.3
645.367,943.4
645.894,945.15
646.421,946.75
646.948,948.8
647.474,947.55
648.001,947.3
648.528,952.2
649.054,950.45
649.581,950.3
650.108,952.5
650.634,954.55
651.161,954.9
651.687,958.15
652.214,957.75
652.74,954.2
653.266,958.6
653.793,957.85
654.319,957.85
654.845,960.35
655.371,956.65
655.897,954.4
656.424,950.5
656.95,949.15
657.476,948.4
658.002,945.35
658.528,945.0
659.054,937.85
659.58,941.0
660.106,933.9
660.631,930.55
661.157,926.65
661.683,921.3
662.209,919.85
662.735,915.25
663.129,914.65