File: spectra/VLFR_06-PET_nobio_Raman_8660aefd.csv
nm,Intensity
526.532,833.0
527.079,833.6
527.625,833.25
528.172,832.75
528.718,832.5
529.265,833.15
529.811,833.5
530.357,834.0
530.903,833.55
531.449,833.5
531.994,840.05
532.54,833.85
533.085,833.7
533.63,859.15
534.176,2465.25
534.721,1979.05
535.266,1537.7
535.81,1272.85
536.355,1119.7
536.9,1053.05
537.444,1027.35
537.988,1018.55
538.533,1027.7
539.077,1022.05
539.621,1043.45
540.165,1045.9
540.708,1000.4
541.252,984.9
541.795,976.1
542.339,981.55
542.882,983.8
543.425,982.65
543.968,991.7
544.511,982.3
545.054,991.2
545.597,994.2
546.139,995.45
546.682,998.25
547.224,1004.0
547.766,1003.3
548.308,1008.2
548.85,1007.9
549.392,1012.6
549.934,1016.75
550.475,1054.75
551.017,1040.8
551.558,1029.35
552.1,1037.45
552.641,1056.75
553.182,1056.3
553.723,1091.3
554.264,1046.35
554.804,1054.25
555.345,1073.85
555.885,1137.25
556.426,1155.25
556.966,1165.45
557.506,1373.15
558.046,1192.3
558.586,1194.1
559.126,1128.4
559.665,1096.35
560.205,1099.6
560.745,1105.45
561.284,1114.0
561.823,1120.55
562.362,1139.0
562.901,1168.05
563.44,1169.65
563.979,1155.0
564.518,1164.65
565.056,1238.7
565.595,1323.3
566.133,1310.95
566.671,1198.1
567.21,1181.0
567.748,1296.45
568.285,1197.6
568.823,1197.45
569.361,1210.15
569.899,1246.55
570.436,1318.3
570.974,1483.5
571.511,1607.2
572.048,1413.05
572.585,1280.75
573.122,1252.6
573.659,1261.55
574.196,1292.0
574.733,1277.4
575.269,1326.7
575.806,1287.5
576.342,1335.55
576.878,1350.15
577.414,1305.75
577.951,1299.8
578.486,1305.05
579.022,1304.7
579.558,1313.85
580.094,1324.7
580.629,1335.5
581.165,1358.9
581.7,1502.6
582.236,3030.95
582.771,1418.4
583.306,1370.2
583.841,1367.35
584.376,1384.35
584.911,1408.05
585.445,1577.1
585.98,2245.65
586.514,1837.7
587.049,1457.75
587.583,1418.9
588.117,1410.95
588.651,1407.95
589.186,1407.9
589.72,1403.4
590.253,1414.25
590.787,1415.5
591.321,1417.8
591.854,1416.25
592.388,1417.1
592.921,1419.55
593.455,1420.8
593.988,1428.6
594.521,1435.65
595.054,1438.75
595.587,1444.5
596.12,1443.85
596.653,1452.35
597.186,1459.45
597.718,1452.1
598.251,1467.6
598.783,1469.4
599.316,1472.9
599.848,1464.5
600.38,1473.7
600.912,1475.0
601.444,1474.0
601.976,1470.7
602.508,1474.5
603.04,1478.8
603.572,1485.65
604.103,1489.05
604.635,1485.95
605.167,1482.0
605.698,1475.4
606.229,1476.25
606.761,1475.45
607.292,1479.3
607.823,1493.7
608.354,1498.1
608.885,1485.85
609.416,1498.8
609.947,1497.7
610.477,1494.3
611.008,1500.1
611.539,1502.6
612.069,1508.75
612.6,1520.3
613.13,1526.4
613.66,1534.95
614.19,1538.95
614.721,1540.35
615.251,1541.9
615.781,1538.15
616.311,1543.85
616.841,1553.7
617.37,1568.2
617.9,1578.7
618.43,1583.3
618.96,1573.0
619.489,1575.1
620.019,1571.25
620.548,1574.8
621.077,1574.05
621.607,1583.55
622.136,1583.95
622.665,1602.15
623.194,1611.45
623.723,1616.85
624.252,1621.0
624.781,1636.5
625.31,1647.1
625.839,1647.1
626.368,1640.95
626.896,1653.25
627.425,1650.45
627.953,1677.45
628.482,1695.8
629.01,1728.15
629.539,1737.5
630.067,1740.15
630.596,1747.75
631.124,1829.45
631.652,2000.8
632.18,1970.65
632.708,1870.5
633.236,1856.45
633.764,1832.85
634.292,1804.65
634.82,1788.15
635.348,1817.35
635.876,1917.6
636.403,2087.25
636.931,2038.55
637.459,1886.45
637.986,1852.4
638.514,1847.7
639.041,1853.2
639.568,1866.0
640.096,1869.5
640.623,1876.65
641.15,1886.05
641.678,1889.55
642.205,1914.65
642.732,1918.35
643.259,1900.35
643.786,1902.8
644.313,1904.8
644.84,1907.5
645.367,1908.05
645.894,1917.2
646.421,1921.55
646.948,1941.3
647.474,1946.3
648.001,1945.85
648.528,1948.5
649.054,1943.45
649.581,1943.75
650.108,1946.75
650.634,1953.05
651.161,1949.85
651.687,1955.55
652.214,1961.4
652.74,1971.65
653.266,1971.45
653.793,1979.2
654.319,1974.95
654.845,1974.95
655.371,1977.8
655.897,1990.35
656.424,1989.65
656.95,1982.65
657.476,1988.5
658.002,1985.05
658.528,1993.15
659.054,1984.85
659.58,1990.25
660.106,1982.9
660.631,1987.35
661.157,1971.95
661.683,1968.2
662.209,1966.65
662.735,1961.2
663.129,1968.55