File: spectra/VLFR_02-HDPE_nobio_Raman_d73dc053.csv
nm,Intensity
526.486,829.1
527.033,829.7
527.579,829.5
528.126,829.7
528.672,829.7
529.219,830.6
529.765,829.8
530.311,829.2
530.857,828.8
531.403,829.3
531.948,832.3
532.494,832.6
533.039,829.5
533.585,830.1
534.13,876.9
534.675,872.1
535.22,866.7
535.764,859.6
536.309,854.8
536.854,852.2
537.398,850.6
537.942,851.4
538.486,850.5
539.03,848.7
539.574,846.3
540.118,845.6
540.662,844.4
541.205,845.4
541.749,845.5
542.292,845.3
542.835,844.9
543.378,843.8
543.921,843.6
544.464,846.0
545.006,846.0
545.549,843.4
546.091,843.2
546.634,842.2
547.176,843.5
547.718,843.9
548.26,843.5
548.802,843.3
549.343,843.7
549.885,844.3
550.426,843.2
550.968,845.1
551.509,843.8
552.05,845.4
552.591,842.7
553.132,845.3
553.673,845.7
554.214,844.4
554.754,846.7
555.295,846.5
555.835,848.4
556.375,848.3
556.915,849.5
557.455,853.2
557.995,851.7
558.535,853.8
559.075,851.7
559.614,851.1
560.154,849.6
560.693,851.5
561.232,847.9
561.772,853.1
562.311,853.8
562.85,855.2
563.388,856.9
563.927,911.1
564.466,873.3
565.004,870.9
565.543,865.6
566.081,981.7
566.619,873.2
567.157,858.9
567.695,858.4
568.233,850.4
568.771,852.4
569.309,855.8
569.846,857.2
570.384,860.2
570.921,864.1
571.458,946.8
571.995,879.1
572.532,860.7
573.069,856.8
573.606,854.0
574.143,863.5
574.68,853.1
575.216,862.6
575.753,951.7
576.289,923.7
576.825,899.2
577.361,886.1
577.897,861.7
578.433,855.0
578.969,855.4
579.505,854.2
580.041,852.3
580.576,851.6
581.112,854.1
581.647,853.8
582.183,853.1
582.718,852.8
583.253,854.6
583.788,853.6
584.323,853.0
584.858,853.8
585.392,853.9
585.927,851.2
586.462,851.0
586.996,853.6
587.53,853.5
588.065,854.4
588.599,852.7
589.133,854.7
589.667,851.1
590.201,858.0
590.735,854.6
591.268,853.3
591.802,855.6
592.335,855.1
592.869,855.3
593.402,857.5
593.936,857.1
594.469,858.0
595.002,857.9
595.535,859.4
596.068,861.6
596.601,859.8
597.133,863.1
597.666,862.8
598.199,863.4
598.731,865.2
599.264,868.1
599.796,867.6
600.328,866.9
600.86,867.8
601.393,866.9
601.925,867.1
602.457,867.2
602.988,867.1
603.52,867.7
604.052,866.7
604.583,862.1
605.115,867.3
605.646,864.5
606.178,862.7
606.709,863.8
607.24,860.8
607.771,863.4
608.302,861.3
608.833,863.9
609.364,861.4
609.895,863.1
610.426,864.7
610.957,868.8
611.487,864.8
612.018,863.3
612.548,863.3
613.078,861.3
613.609,861.5
614.139,862.0
614.669,860.9
615.199,859.8
615.729,860.9
616.259,862.3
616.789,859.6
617.319,866.0
617.849,863.7
618.378,864.0
618.908,861.9
619.437,865.5
619.967,866.8
620.496,865.6
621.025,866.0
621.555,871.7
622.084,880.7
622.613,883.2
623.142,867.3
623.671,863.5
624.2,864.4
624.729,865.5
625.258,869.8
625.786,870.6
626.315,883.8
626.844,1002.0
627.372,1317.5
627.901,1123.0
628.429,1174.0
628.957,1174.3
629.486,1104.7
630.014,1033.4
630.542,1021.8
631.07,937.7
631.598,887.7
632.126,874.6
632.654,864.7
633.182,861.9
633.71,860.6
634.237,856.3
634.765,857.3
635.293,855.1
635.82,855.2
636.348,856.6
636.875,852.4
637.403,851.4
637.93,851.1
638.458,851.8
638.985,853.0
639.512,849.7
640.039,851.1
640.566,849.9
641.093,850.6
641.62,849.8
642.147,851.1
642.674,850.9
643.201,848.6
643.728,851.4
644.255,848.4
644.781,852.0
645.308,849.0
645.835,851.5
646.361,849.2
646.888,848.9
647.414,850.4
647.941,849.8
648.467,849.0
648.993,849.1
649.52,852.5
650.046,850.5
650.572,849.7
651.098,849.6
651.625,849.8
652.151,850.7
652.677,848.5
653.203,851.1
653.729,850.0
654.255,850.5
654.78,851.1
655.306,851.1
655.832,853.4
656.358,851.4
656.884,851.6
657.409,850.1
657.935,849.6
658.461,850.3
658.986,850.1
659.512,851.4
660.037,853.5
660.563,852.7
661.088,849.4
661.614,850.7
662.139,846.4
662.664,847.4
663.058,847.4