File: spectra/VLFR_07-PET_bio_Raman_6952032f.csv
nm,Intensity
791.588,5946.6
792.685,5923.4
793.781,5902.3
794.878,5842.6
795.975,5885.2
797.071,5900.3
798.168,5905.4
799.264,5854.8
800.36,5834.2
801.456,5871.2
802.552,5835.7
803.648,5836.2
804.744,5792.7
805.84,5766.8
806.936,5751.1
808.031,5720.6
809.127,5671.6
810.222,5673.1
811.317,5643.1
812.412,5589.9
813.507,5548.1
814.602,5505.4
815.697,5504.6
816.792,5485.9
817.887,5481.8
818.981,5410.5
820.076,5425.2
821.17,5421.4
822.265,5370.3
823.359,5306.9
824.453,5317.7
825.547,5330.9
826.641,5305.0
827.735,5264.6
828.828,5213.7
829.922,5199.3
831.016,5204.6
832.109,5134.4
833.202,5125.9
834.295,5110.2
835.388,5093.4
836.481,5084.3
837.574,5063.9
838.667,5057.8
839.76,5011.7
840.852,5027.2
841.945,5039.9
843.037,4959.2
844.129,4953.7
845.221,4934.8
846.314,4865.3
847.405,4895.3
848.497,4876.1
849.589,4832.1
850.68,4849.2
851.772,4838.5
852.863,4818.4
853.955,4821.1
855.046,4803.9
856.137,4760.0
857.228,4794.5
858.318,4768.7
859.409,4788.8
860.5,4770.5
861.59,4751.8
862.681,4733.7
863.771,4719.3
864.861,4702.9
865.951,4724.2
867.041,4688.1
868.131,4665.0
869.22,4696.3
870.31,4650.7
871.399,4699.5
872.488,4721.2
873.578,4691.7
874.667,4666.7
875.756,4646.6
876.845,4632.5
877.933,4619.1
879.022,4623.5
880.11,4612.1
881.199,4596.8
882.287,4602.4
883.375,4578.7
884.463,4571.1
885.551,4576.0
886.639,4547.3
887.726,4519.9
888.814,4514.8
889.901,4503.8
890.988,4492.4
892.075,4485.8
893.162,4458.8
894.249,4454.5
895.336,4435.4
896.423,4399.2
897.509,4445.4
898.595,4480.0
899.682,4397.9
900.768,4367.1
901.854,4353.0
902.94,4333.8
904.025,4342.1
905.111,4324.4
906.196,4340.0
907.282,4345.3
908.367,4339.3
909.452,4308.0
910.537,4259.5
911.622,4255.0
912.706,4227.2
913.791,4208.8
914.875,4210.2
915.959,4183.7
917.044,4175.7
918.128,4182.3
919.211,4159.1
920.295,4139.2
921.379,4140.6
922.462,4125.7
923.546,4122.9
924.629,4112.2
925.712,4098.2
926.795,4095.8
927.877,4065.1
928.96,4065.4
930.043,4044.5
931.125,4035.2
932.207,4030.3
933.289,4028.0
934.371,4009.6
935.453,4000.6
936.535,4001.1
937.616,3997.0
938.697,3980.4
939.779,3980.6
940.86,3976.4
941.941,3964.3
943.022,3955.8
944.102,3947.0
945.183,3943.5
946.263,3940.0
947.343,3928.5
948.423,3930.9
949.503,3918.7
950.583,3904.2
951.663,3910.5
952.742,3909.5
953.822,3895.5
954.901,3896.2
955.98,3891.4
957.059,3884.3
958.137,3884.6
959.216,3870.9
960.294,3872.6
961.373,3865.8
962.451,3867.1
963.529,3861.0
964.607,3863.1
965.684,3856.9
966.762,3846.8
967.839,3847.4
968.917,3848.6
969.994,3844.9
971.071,3837.9
972.147,3841.7
973.224,3839.4
974.3,3835.6
975.377,3832.0
976.453,3826.4
977.529,3823.6
978.605,3818.1
979.68,3822.1
980.756,3819.1
981.831,3814.4
982.907,3815.6
983.982,3813.8
985.057,3807.5
986.131,3801.5
987.206,3807.4
988.28,3803.9
989.355,3800.7
990.429,3800.3
991.503,3799.3
992.576,3796.8
993.65,3794.4
994.723,3792.9
995.797,3791.3
996.87,3789.5
997.943,3790.5
999.016,3788.3
1000.09,3781.7
1001.16,3782.9
1002.23,3781.8
1003.31,3781.8
1004.38,3780.6
1005.45,3777.9
1006.52,3771.0
1007.59,3774.4
1008.66,3774.2
1009.73,3774.5
1010.81,3772.8
1011.88,3770.8
1012.95,3773.3
1014.02,3768.3
1015.09,3767.6
1016.16,3770.6
1017.23,3767.5
1018.3,3764.0
1019.37,3765.9
1020.44,3763.7
1021.51,3766.7
1022.58,3766.7
1023.64,3762.5
1024.71,3760.7
1025.78,3759.3
1026.85,3759.4
1027.92,3760.0
1028.99,3758.1
1030.05,3758.0
1031.12,3755.4
1032.19,3756.6
1033.26,3756.7
1034.32,3758.5
1035.39,3755.5
1036.46,3755.5
1037.52,3754.9
1038.59,3753.4
1039.66,3752.2
1040.72,3754.3
1041.79,3753.0
1042.86,3751.2
1043.92,3751.8
1044.99,3752.3
1046.05,3749.8
1047.12,3753.6
1048.18,3749.2
1049.25,3750.0
1050.31,3750.4
1051.37,3748.8
1052.44,3751.0
1053.5,3750.0
1054.57,3750.9
1055.63,3749.6
1056.69,3748.1
1057.76,3748.1
1058.82,3749.2
1059.88,3748.4
1060.95,3747.6
1062.01,3749.6
1063.07,3748.9
1064.13,3750.2
1065.19,3748.4
1066.26,3748.5
1067.32,3747.4
1068.11,3745.5