File: spectra/VLFR_07-PET_bio_Raman_764be8a2.csv
nm,Intensity
791.377,13034.4
792.477,12114.4
793.576,11622.9
794.676,11419.1
795.775,11166.0
796.874,11182.9
797.973,11024.7
799.072,11213.0
800.171,11112.7
801.27,11191.5
802.368,11000.4
803.467,10915.6
804.565,10999.8
805.664,10659.5
806.762,10708.9
807.86,10571.2
808.958,10570.7
810.056,10364.2
811.153,10374.1
812.251,10336.8
813.349,10117.0
814.446,9997.04
815.543,10004.7
816.64,9805.08
817.737,9760.16
818.834,9639.32
819.931,9661.86
821.028,9649.04
822.125,9521.28
823.221,9249.98
824.317,9415.1
825.414,9250.62
826.51,9327.0
827.606,9151.94
828.702,8936.08
829.797,8939.54
830.893,9083.12
831.988,8829.1
833.084,8790.64
834.179,8630.94
835.274,8503.46
836.369,8616.76
837.464,8583.76
838.559,8687.94
839.654,8490.56
840.748,8727.12
841.843,8659.18
842.937,8320.3
844.031,8292.34
845.125,8091.78
846.219,7922.36
847.313,7955.18
848.407,7843.9
849.5,7805.58
850.593,7703.0
851.687,7637.1
852.78,7628.68
853.873,7559.36
854.966,7481.76
856.059,7537.76
857.151,7461.46
858.244,7508.96
859.336,7545.06
860.428,7589.52
861.52,7308.32
862.612,7218.96
863.704,7217.48
864.796,7239.74
865.888,7063.14
866.979,7023.72
868.07,7010.8
869.162,7014.12
870.253,6983.86
871.344,7127.7
872.434,7267.22
873.525,7337.88
874.615,7045.02
875.706,6820.44
876.796,6845.32
877.886,6743.3
878.976,6687.38
880.066,6580.76
881.156,6593.82
882.245,6605.34
883.335,6587.56
884.424,6540.44
885.513,6533.48
886.602,6471.36
887.691,6355.16
888.78,6376.32
889.868,6270.94
890.957,6228.08
892.045,6194.4
893.133,6207.88
894.221,6070.9
895.309,6079.04
896.397,6053.04
897.484,6246.88
898.571,6776.38
899.659,6310.26
900.746,5912.92
901.833,5832.58
902.92,5866.28
904.006,5728.24
905.093,5785.04
906.179,5838.26
907.266,6151.6
908.352,6112.42
909.438,5858.88
910.523,5615.64
911.609,5456.78
912.695,5441.28
913.78,5374.96
914.865,5322.84
915.95,5279.14
917.035,5313.34
918.12,5208.5
919.204,5228.52
920.289,5094.9
921.373,5155.54
922.457,5085.88
923.541,5046.58
924.625,5006.5
925.709,5019.46
926.792,4944.54
927.876,4907.48
928.959,4882.96
930.042,4844.42
931.125,4778.76
932.208,4748.6
933.29,4762.44
934.373,4711.1
935.455,4685.24
936.537,4647.58
937.619,4612.42
938.701,4596.8
939.782,4589.34
940.864,4548.16
941.945,4556.36
943.026,4494.46
944.107,4463.78
945.188,4447.1
946.269,4428.82
947.349,4413.54
948.43,4393.82
949.51,4391.78
950.59,4361.08
951.67,4342.08
952.75,4306.2
953.829,4290.24
954.909,4283.96
955.988,4279.24
957.067,4253.38
958.146,4244.46
959.224,4232.0
960.303,4214.82
961.381,4179.8
962.459,4176.94
963.537,4193.48
964.615,4153.2
965.693,4138.98
966.771,4141.62
967.848,4130.12
968.925,4116.48
970.002,4101.76
971.079,4097.2
972.156,4079.64
973.232,4069.9
974.309,4063.16
975.385,4056.82
976.461,4038.96
977.537,4030.92
978.612,4030.98
979.688,4019.92
980.763,3999.24
981.838,4004.68
982.913,4002.44
983.988,3986.34
985.063,3981.48
986.137,3983.38
987.211,3965.52
988.285,3961.86
989.359,3950.26
990.433,3949.18
991.506,3939.26
992.58,3931.5
993.653,3932.1
994.726,3924.7
995.799,3914.54
996.872,3909.76
997.944,3907.4
999.016,3906.72
1000.09,3895.56
1001.16,3893.24
1002.23,3887.04
1003.3,3881.74
1004.38,3878.12
1005.45,3877.0
1006.52,3873.58
1007.59,3868.08
1008.66,3862.8
1009.73,3856.44
1010.8,3854.4
1011.87,3853.0
1012.94,3849.78
1014.01,3846.56
1015.08,3846.54
1016.15,3842.22
1017.22,3837.36
1018.29,3837.98
1019.36,3836.42
1020.42,3832.1
1021.49,3833.32
1022.56,3841.18
1023.63,3836.52
1024.7,3828.42
1025.76,3823.6
1026.83,3820.46
1027.9,3818.84
1028.97,3812.0
1030.03,3808.9
1031.1,3806.7
1032.17,3807.18
1033.23,3807.54
1034.3,3809.94
1035.36,3809.62
1036.43,3807.58
1037.5,3802.1
1038.56,3798.8
1039.63,3797.38
1040.69,3796.96
1041.76,3794.44
1042.82,3793.78
1043.89,3792.18
1044.95,3791.24
1046.01,3789.28
1047.08,3788.52
1048.14,3788.1
1049.2,3788.04
1050.27,3787.9
1051.33,3786.56
1052.39,3786.54
1053.46,3786.92
1054.52,3784.9
1055.58,3786.46
1056.64,3784.34
1057.7,3784.92
1058.77,3784.24
1059.83,3784.1
1060.89,3783.22
1061.95,3783.18
1063.01,3782.46
1064.07,3783.14
1065.13,3783.02
1066.19,3781.56
1067.25,3782.0
1068.05,3780.56