File: spectra/VLFR_02-HDPE_bio_Raman_bb327efc.csv
nm,Intensity
528.635,1837.7
529.14,1836.2
529.645,1838.0
530.151,1837.3
530.656,1838.2
531.161,1839.9
531.666,1878.1
532.171,4593.4
532.676,1839.5
533.181,1837.7
533.686,1984.7
534.191,2345.9
534.696,2352.1
535.201,2314.6
535.705,2133.9
536.21,2069.7
536.715,2041.3
537.219,2046.9
537.724,2043.8
538.228,2027.8
538.733,2006.4
539.237,1987.0
539.741,1973.8
540.246,1973.1
540.75,1967.9
541.254,1964.1
541.758,1974.0
542.262,1960.0
542.766,1959.8
543.27,1962.7
543.774,1957.7
544.278,1949.3
544.781,1962.7
545.285,1957.2
545.789,1954.0
546.292,1948.8
546.796,1951.8
547.299,1949.6
547.803,1957.6
548.306,1947.6
548.809,1946.4
549.313,1946.0
549.816,1948.6
550.319,1951.6
550.822,1941.7
551.325,1952.0
551.828,1952.4
552.331,1946.9
552.834,1957.0
553.337,1981.8
553.839,1975.1
554.342,1984.6
554.845,1980.0
555.347,1982.9
555.85,1994.2
556.352,2001.9
556.854,2014.1
557.357,2032.6
557.859,2042.4
558.361,2056.6
558.863,2037.5
559.365,2031.2
559.867,2030.2
560.369,2020.9
560.871,2024.0
561.373,2029.9
561.875,2036.4
562.377,2056.6
562.878,2077.4
563.38,2106.6
563.881,3017.4
564.383,2306.8
564.884,2229.7
565.386,2169.4
565.887,2630.1
566.388,2707.4
566.889,2123.4
567.391,2282.6
567.892,2085.0
568.393,2082.0
568.893,2086.2
569.394,2081.5
569.895,2086.2
570.396,2123.5
570.897,2181.6
571.397,3543.8
571.898,2439.9
572.398,2160.4
572.899,2089.5
573.399,2076.6
573.899,2184.1
574.399,2068.1
574.9,2071.8
575.4,2789.5
575.9,2650.2
576.4,3401.5
576.899,2946.8
577.399,2481.8
577.899,2122.4
578.399,2086.0
578.898,2070.0
579.398,2061.8
579.897,2049.8
580.397,2051.5
580.896,2034.2
581.396,2039.2
581.895,2037.1
582.394,2024.2
582.893,2021.6
583.392,2018.8
583.891,2015.3
584.39,2016.7
584.889,2009.8
585.387,2024.5
585.886,2017.7
586.385,2017.6
586.883,2029.5
587.382,2023.1
587.88,2024.9
588.379,2024.6
588.877,2023.5
589.375,2024.7
589.873,2018.7
590.371,2025.3
590.869,2027.2
591.367,2021.0
591.865,2021.8
592.363,2017.6
592.86,2025.0
593.358,2035.8
593.856,2030.1
594.353,2031.2
594.851,2043.0
595.348,2045.9
595.845,2054.5
596.342,2062.4
596.84,2060.1
597.337,2074.1
597.834,2082.3
598.331,2092.4
598.827,2079.7
599.324,2111.6
599.821,2121.6
600.318,2101.9
600.814,2116.1
601.311,2111.2
601.807,2138.6
602.303,2142.3
602.8,2110.4
603.296,2097.9
603.792,2122.3
604.288,2114.4
604.784,2106.4
605.28,2083.3
605.776,2092.0
606.272,2075.5
606.767,2077.6
607.263,2078.2
607.758,2071.1
608.254,2061.2
608.749,2065.1
609.244,2065.0
609.74,2060.8
610.235,2064.4
610.73,2085.5
611.225,2105.1
611.72,2053.1
612.215,2053.7
612.709,2053.9
613.204,2052.0
613.699,2055.2
614.193,2061.7
614.688,2048.5
615.182,2068.9
615.676,2075.1
616.171,2078.6
616.665,2123.3
617.159,2162.6
617.653,2162.1
618.147,2158.7
618.641,2136.5
619.134,2172.0
619.628,2207.1
620.122,2180.7
620.615,2218.4
621.109,2300.9
621.602,2505.4
622.095,2784.1
622.588,2605.4
623.082,2308.5
623.575,2216.7
624.068,2194.2
624.56,2200.8
625.053,2234.0
625.546,2318.7
626.039,2496.9
626.531,3862.5
627.024,9841.5
627.516,8811.9
628.008,7094.7
628.501,11426.9
628.993,6777.7
629.485,5635.4
629.977,4708.2
630.469,4424.4
630.961,3170.9
631.452,2447.2
631.944,2268.8
632.436,2205.8
632.927,2169.9
633.418,2149.6
633.91,2110.6
634.401,2087.4
634.892,2054.6
635.383,2045.1
635.874,2041.3
636.365,2041.3
636.856,2023.7
637.347,1997.6
637.837,1991.0
638.328,1990.1
638.818,1976.7
639.309,1965.2
639.799,1962.1
640.289,1972.2
640.78,1947.8
641.27,1959.0
641.76,1961.3
642.249,1955.0
642.739,1947.8
643.229,1949.2
643.719,1949.0
644.208,1951.4
644.698,1953.1
645.187,1947.7
645.676,1949.0
646.165,1947.4
646.655,1945.7
647.144,1947.7
647.633,1948.2
648.121,1952.7
648.61,1943.7
649.099,1943.5
649.587,1942.1
650.076,1950.9
650.564,1960.0
651.053,1945.3
651.541,1949.8
652.029,1945.4
652.517,1944.5
653.005,1949.0
653.493,1941.9
653.981,1943.5
654.468,1940.0
654.956,1946.0
655.444,1934.5
655.931,1943.5
656.418,1935.1
656.906,1936.7
657.393,1939.5
657.88,1934.2
658.367,1932.3
658.854,1935.8
659.341,1934.5
659.827,1945.3
660.314,1941.0
660.8,1933.6
661.044,1932.6