File: spectra/VLFR_02-HDPE_bio_Raman_c157b4cf.csv
nm,Intensity
526.547,832.4
527.095,831.85
527.642,832.25
528.189,832.1
528.736,831.0
529.283,831.25
529.829,832.6
530.376,832.25
530.922,831.45
531.468,832.55
532.014,839.95
532.56,833.1
533.106,831.8
533.651,832.55
534.196,892.05
534.742,891.7
535.287,888.1
535.832,878.9
536.376,873.7
536.921,872.25
537.465,871.0
538.01,870.0
538.554,868.7
539.098,867.75
539.642,865.5
540.186,864.9
540.729,867.95
541.273,866.4
541.816,866.75
542.36,867.45
542.903,869.3
543.446,866.45
543.988,869.95
544.531,868.8
545.074,869.35
545.616,869.55
546.158,869.85
546.701,870.2
547.243,869.3
547.785,868.0
548.326,870.55
548.868,871.7
549.41,869.95
549.951,869.6
550.492,870.5
551.034,870.45
551.575,871.95
552.116,870.3
552.656,872.45
553.197,870.1
553.738,872.0
554.278,874.75
554.819,872.7
555.359,874.35
555.899,873.3
556.439,876.75
556.979,874.85
557.519,878.2
558.058,880.4
558.598,879.9
559.137,879.75
559.677,881.25
560.216,882.8
560.755,883.65
561.294,885.15
561.833,887.8
562.371,891.4
562.91,892.1
563.449,896.75
563.987,954.35
564.525,906.9
565.064,908.45
565.602,905.7
566.14,963.95
566.678,911.5
567.216,910.1
567.753,914.4
568.291,914.8
568.828,919.1
569.366,923.15
569.903,927.8
570.44,935.4
570.977,940.65
571.514,1047.7
572.051,958.9
572.588,957.95
573.125,966.5
573.661,972.15
574.198,994.8
574.734,999.7
575.271,1015.25
575.807,1055.8
576.343,1137.6
576.879,1114.6
577.415,1123.45
577.951,1128.2
578.486,1149.75
579.022,1182.6
579.557,1207.45
580.093,1237.1
580.628,1256.0
581.164,1284.95
581.699,1309.85
582.234,1341.7
582.769,1375.7
583.304,1400.0
583.838,1432.8
584.373,1462.1
584.908,1492.15
585.442,1532.7
585.977,1577.65
586.511,1632.5
587.045,1677.7
587.58,1724.6
588.114,1773.75
588.648,1818.5
589.182,1886.2
589.715,1922.55
590.249,1981.4
590.783,2039.0
591.316,2084.0
591.85,2139.0
592.383,2165.0
592.917,2185.3
593.45,2216.85
593.983,2238.2
594.516,2274.4
595.049,2299.95
595.582,2320.55
596.115,2344.3
596.648,2376.0
597.18,2384.4
597.713,2409.5
598.245,2433.45
598.778,2458.25
599.31,2455.45
599.842,2470.1
600.375,2457.35
600.907,2447.55
601.439,2430.7
601.971,2404.3
602.503,2390.6
603.034,2361.65
603.566,2328.5
604.098,2270.25
604.629,2227.3
605.161,2162.2
605.692,2094.4
606.224,2047.5
606.755,2002.85
607.286,1964.45
607.817,1925.6
608.348,1887.5
608.879,1861.4
609.41,1820.7
609.941,1793.65
610.472,1767.85
611.002,1740.55
611.533,1720.05
612.063,1702.4
612.594,1692.65
613.124,1680.35
613.655,1662.25
614.185,1643.4
614.715,1624.7
615.245,1595.75
615.775,1572.5
616.305,1558.15
616.835,1556.7
617.365,1548.5
617.895,1535.0
618.425,1523.5
618.954,1514.5
619.484,1501.85
620.013,1482.45
620.543,1475.85
621.072,1465.3
621.602,1470.5
622.131,1473.95
622.66,1462.45
623.189,1439.9
623.718,1424.55
624.247,1415.15
624.776,1410.0
625.305,1413.25
625.834,1401.9
626.363,1432.4
626.891,1661.35
627.42,1924.6
627.949,1699.4
628.477,1937.8
629.006,1693.0
629.534,1631.1
630.062,1557.65
630.591,1543.95
631.119,1461.0
631.647,1427.8
632.175,1423.7
632.703,1417.0
633.231,1426.55
633.759,1424.75
634.287,1435.25
634.815,1435.6
635.343,1443.15
635.871,1458.7
636.398,1461.35
636.926,1477.25
637.454,1488.25
637.981,1488.8
638.509,1491.8
639.036,1511.35
639.564,1515.05
640.091,1527.05
640.618,1536.4
641.146,1553.25
641.673,1560.9
642.2,1572.05
642.727,1584.5
643.254,1579.8
643.781,1595.7
644.308,1596.5
644.835,1602.45
645.362,1607.6
645.889,1615.6
646.416,1619.8
646.942,1619.8
647.469,1618.0
647.996,1619.8
648.522,1616.8
649.049,1606.5
649.576,1613.3
650.102,1607.35
650.629,1605.35
651.155,1601.45
651.682,1607.1
652.208,1612.15
652.734,1612.75
653.261,1605.0
653.787,1597.45
654.313,1602.25
654.839,1593.15
655.365,1587.35
655.892,1572.6
656.418,1564.1
656.944,1549.75
657.47,1541.75
657.996,1521.55
658.522,1514.3
659.048,1500.0
659.574,1478.45
660.099,1462.3
660.625,1434.75
661.151,1410.2
661.677,1400.15
662.203,1377.45
662.728,1359.85
663.123,1335.4