File: spectra/VLFR_07-PET_bio_Raman_8bf34814.csv
nm,Intensity
791.377,14921.3
792.477,13603.2
793.576,12883.7
794.676,12350.8
795.775,12009.2
796.874,12121.0
797.973,12112.7
799.072,11913.4
800.171,11875.2
801.27,11854.2
802.368,11891.0
803.467,11450.5
804.565,11324.9
805.664,11206.3
806.762,11034.5
807.86,11085.4
808.958,10905.8
810.056,10908.1
811.153,10721.2
812.251,10631.7
813.349,10403.2
814.446,10456.8
815.543,10427.9
816.64,10298.5
817.737,10135.6
818.834,10137.5
819.931,9957.42
821.028,9820.64
822.125,9934.94
823.221,9717.1
824.317,9562.52
825.414,9791.82
826.51,9428.28
827.606,9378.58
828.702,9263.58
829.797,9084.06
830.893,9361.52
831.988,8933.9
833.084,8884.58
834.179,8769.16
835.274,8646.02
836.369,8722.12
837.464,8766.96
838.559,8706.74
839.654,8627.54
840.748,8730.36
841.843,8932.9
842.937,8563.8
844.031,8398.3
845.125,8086.5
846.219,8047.5
847.313,7836.12
848.407,7912.42
849.5,7910.9
850.593,7845.32
851.687,7777.12
852.78,7744.4
853.873,7732.5
854.966,7667.38
856.059,7550.04
857.151,7557.64
858.244,7634.62
859.336,7766.66
860.428,7730.88
861.52,7527.9
862.612,7354.36
863.704,7344.68
864.796,7324.12
865.888,7224.36
866.979,7149.42
868.07,7069.36
869.162,7066.06
870.253,7154.82
871.344,7218.64
872.434,7527.42
873.525,7480.0
874.615,7316.12
875.706,6946.04
876.796,6888.12
877.886,6795.98
878.976,6710.74
880.066,6742.52
881.156,6678.14
882.245,6722.2
883.335,6536.74
884.424,6559.76
885.513,6534.76
886.602,6506.68
887.691,6387.38
888.78,6423.58
889.868,6301.06
890.957,6290.48
892.045,6337.56
893.133,6189.82
894.221,6060.86
895.309,6182.42
896.397,6105.34
897.484,6314.0
898.571,7075.56
899.659,6474.52
900.746,5930.5
901.833,5845.3
902.92,5774.24
904.006,5822.38
905.093,5720.52
906.179,5866.22
907.266,6311.34
908.352,6350.62
909.438,5892.42
910.523,5643.3
911.609,5477.86
912.695,5432.7
913.78,5365.0
914.865,5334.34
915.95,5321.3
917.035,5270.02
918.12,5233.88
919.204,5222.52
920.289,5186.58
921.373,5095.86
922.457,5082.14
923.541,5033.5
924.625,5009.6
925.709,5021.46
926.792,4928.56
927.876,4916.28
928.959,4879.16
930.042,4830.92
931.125,4801.6
932.208,4775.06
933.29,4761.78
934.373,4731.48
935.455,4685.18
936.537,4699.08
937.619,4657.16
938.701,4603.48
939.782,4615.58
940.864,4571.5
941.945,4565.0
943.026,4529.88
944.107,4502.0
945.188,4485.86
946.269,4462.9
947.349,4436.8
948.43,4438.24
949.51,4397.2
950.59,4356.66
951.67,4376.5
952.75,4344.22
953.829,4320.38
954.909,4297.92
955.988,4294.76
957.067,4291.72
958.146,4267.98
959.224,4256.36
960.303,4228.9
961.381,4218.54
962.459,4195.54
963.537,4189.86
964.615,4177.2
965.693,4166.44
966.771,4139.88
967.848,4156.9
968.925,4120.94
970.002,4112.84
971.079,4101.98
972.156,4094.16
973.232,4072.96
974.309,4079.96
975.385,4064.28
976.461,4047.98
977.537,4046.02
978.612,4034.16
979.688,4025.42
980.763,4018.76
981.838,4013.44
982.913,3998.9
983.988,3993.24
985.063,3991.16
986.137,3980.78
987.211,3974.68
988.285,3969.72
989.359,3965.32
990.433,3951.68
991.506,3938.08
992.58,3941.24
993.653,3926.72
994.726,3926.54
995.799,3921.06
996.872,3919.52
997.944,3906.94
999.016,3905.1
1000.09,3899.96
1001.16,3895.9
1002.23,3895.62
1003.3,3884.82
1004.38,3882.92
1005.45,3880.08
1006.52,3872.44
1007.59,3868.78
1008.66,3865.1
1009.73,3861.26
1010.8,3858.16
1011.87,3851.04
1012.94,3854.06
1014.01,3852.72
1015.08,3848.94
1016.15,3848.98
1017.22,3843.24
1018.29,3837.92
1019.36,3837.12
1020.42,3838.22
1021.49,3844.18
1022.56,3846.88
1023.63,3840.62
1024.7,3836.28
1025.76,3829.9
1026.83,3824.84
1027.9,3821.3
1028.97,3816.84
1030.03,3815.08
1031.1,3812.1
1032.17,3812.26
1033.23,3810.52
1034.3,3814.96
1035.36,3814.3
1036.43,3815.4
1037.5,3809.64
1038.56,3803.8
1039.63,3801.56
1040.69,3798.34
1041.76,3795.7
1042.82,3797.12
1043.89,3794.76
1044.95,3793.8
1046.01,3791.3
1047.08,3791.98
1048.14,3789.68
1049.2,3790.72
1050.27,3789.16
1051.33,3790.5
1052.39,3788.36
1053.46,3788.38
1054.52,3788.66
1055.58,3788.94
1056.64,3786.96
1057.7,3787.7
1058.77,3786.36
1059.83,3786.0
1060.89,3786.24
1061.95,3785.74
1063.01,3785.62
1064.07,3784.3
1065.13,3784.6
1066.19,3783.14
1067.25,3783.66
1068.05,3783.14