File: spectra/VLFR_02-HDPE_nobio_Raman_5cfeb588.csv
nm,Intensity
526.486,829.62
527.033,829.46
527.579,829.6
528.126,829.08
528.672,829.24
529.219,828.84
529.765,828.88
530.311,828.6
530.857,829.38
531.403,828.68
531.948,834.46
532.494,830.58
533.039,828.94
533.585,828.98
534.13,883.88
534.675,886.72
535.22,880.26
535.764,875.82
536.309,872.16
536.854,871.7
537.398,871.06
537.942,868.6
538.486,868.12
539.03,870.54
539.574,872.02
540.118,870.3
540.662,874.1
541.205,879.46
541.749,888.24
542.292,886.78
542.835,888.5
543.378,892.54
543.921,883.2
544.464,886.74
545.006,894.16
545.549,895.84
546.091,882.96
546.634,885.28
547.176,886.8
547.718,881.4
548.26,880.48
548.802,881.88
549.343,880.84
549.885,880.88
550.426,882.22
550.968,883.16
551.509,879.26
552.05,880.42
552.591,880.34
553.132,879.36
553.673,880.46
554.214,880.4
554.754,880.06
555.295,878.84
555.835,880.6
556.375,880.96
556.915,880.9
557.455,882.72
557.995,883.94
558.535,889.08
559.075,892.62
559.614,886.88
560.154,885.5
560.693,885.6
561.232,890.82
561.772,894.76
562.311,892.8
562.85,895.36
563.388,904.2
563.927,913.52
564.466,918.16
565.004,970.12
565.543,941.96
566.081,943.88
566.619,911.74
567.157,903.1
567.695,894.46
568.233,892.24
568.771,892.26
569.309,894.58
569.846,898.94
570.384,901.38
570.921,901.92
571.458,905.56
571.995,903.94
572.532,908.9
573.069,918.58
573.606,910.92
574.143,919.5
574.68,916.34
575.216,910.06
575.753,909.46
576.289,902.52
576.825,902.6
577.361,905.48
577.897,896.4
578.433,892.6
578.969,891.08
579.505,891.3
580.041,893.52
580.576,892.34
581.112,892.1
581.647,898.3
582.183,897.04
582.718,893.6
583.253,893.62
583.788,894.24
584.323,892.7
584.858,893.2
585.392,893.14
585.927,892.94
586.462,894.86
586.996,893.56
587.53,894.36
588.065,893.66
588.599,891.76
589.133,892.2
589.667,892.76
590.201,893.26
590.735,893.54
591.268,894.04
591.802,893.9
592.335,894.92
592.869,893.74
593.402,893.26
593.936,894.72
594.469,895.56
595.002,894.58
595.535,895.78
596.068,896.0
596.601,896.78
597.133,898.22
597.666,897.68
598.199,897.58
598.731,897.36
599.264,900.08
599.796,899.52
600.328,898.3
600.86,898.06
601.393,899.04
601.925,897.64
602.457,898.28
602.988,899.36
603.52,899.1
604.052,899.26
604.583,897.96
605.115,897.48
605.646,896.14
606.178,895.52
606.709,896.48
607.24,894.08
607.771,894.52
608.302,895.32
608.833,897.84
609.364,895.56
609.895,895.8
610.426,895.22
610.957,895.06
611.487,893.78
612.018,896.7
612.548,896.98
613.078,897.8
613.609,898.14
614.139,899.76
614.669,897.66
615.199,898.02
615.729,897.08
616.259,897.44
616.789,896.76
617.319,896.18
617.849,896.44
618.378,899.44
618.908,896.34
619.437,897.64
619.967,898.28
620.496,898.16
621.025,897.72
621.555,901.3
622.084,901.88
622.613,903.74
623.142,903.62
623.671,904.08
624.2,903.88
624.729,907.06
625.258,906.06
625.786,910.82
626.315,912.96
626.844,924.12
627.372,942.72
627.901,949.9
628.429,972.52
628.957,992.02
629.486,987.72
630.014,969.88
630.542,956.12
631.07,948.5
631.598,940.54
632.126,935.9
632.654,915.8
633.182,905.54
633.71,900.9
634.237,896.56
634.765,896.26
635.293,895.72
635.82,894.8
636.348,896.44
636.875,894.52
637.403,894.92
637.93,893.48
638.458,894.32
638.985,894.32
639.512,893.68
640.039,894.2
640.566,896.4
641.093,896.9
641.62,896.74
642.147,898.58
642.674,900.26
643.201,899.56
643.728,901.6
644.255,905.92
644.781,908.88
645.308,909.68
645.835,909.1
646.361,908.62
646.888,910.0
647.414,912.76
647.941,914.34
648.467,912.8
648.993,913.7
649.52,911.8
650.046,907.48
650.572,905.52
651.098,904.82
651.625,905.34
652.151,902.26
652.677,899.46
653.203,899.86
653.729,897.6
654.255,895.9
654.78,893.26
655.306,892.64
655.832,890.54
656.358,890.52
656.884,890.08
657.409,888.5
657.935,889.18
658.461,889.48
658.986,886.72
659.512,886.18
660.037,886.04
660.563,885.82
661.088,885.74
661.614,884.28
662.139,883.48
662.664,883.32
663.058,882.2