File: spectra/VLFR_06-PET_nobio_Raman_df57789a.csv
nm,Intensity
526.486,828.1
527.033,829.4
527.579,828.1
528.126,826.0
528.672,828.1
529.219,829.0
529.765,827.8
530.311,827.5
530.857,829.1
531.403,829.0
531.948,833.5
532.494,830.8
533.039,828.0
533.585,836.0
534.13,2213.2
534.675,1852.1
535.22,1459.4
535.764,1230.8
536.309,1087.5
536.854,1023.7
537.398,1003.4
537.942,994.4
538.486,1000.1
539.03,995.2
539.574,1011.7
540.118,1024.2
540.662,978.0
541.205,959.9
541.749,958.8
542.292,958.2
542.835,959.5
543.378,957.7
543.921,967.5
544.464,955.2
545.006,967.3
545.549,962.1
546.091,964.9
546.634,963.4
547.176,971.4
547.718,971.5
548.26,972.1
548.802,970.3
549.343,973.5
549.885,976.0
550.426,986.3
550.968,1010.0
551.509,985.0
552.05,985.0
552.591,991.3
553.132,1010.2
553.673,989.0
554.214,993.4
554.754,998.5
555.295,999.9
555.835,1065.3
556.375,1071.9
556.915,1083.2
557.455,1222.5
557.995,1115.0
558.535,1104.0
559.075,1051.1
559.614,1016.1
560.154,1018.9
560.693,1024.7
561.232,1030.6
561.772,1034.4
562.311,1055.5
562.85,1065.8
563.388,1066.3
563.927,1049.6
564.466,1062.3
565.004,1112.2
565.543,1186.7
566.081,1194.3
566.619,1090.5
567.157,1068.7
567.695,1159.7
568.233,1090.6
568.771,1078.4
569.309,1089.3
569.846,1109.1
570.384,1161.6
570.921,1303.2
571.458,1439.7
571.995,1270.0
572.532,1151.5
573.069,1118.3
573.606,1117.0
574.143,1148.3
574.68,1126.6
575.216,1161.9
575.753,1142.6
576.289,1169.6
576.825,1188.8
577.361,1149.3
577.897,1137.4
578.433,1143.0
578.969,1149.1
579.505,1151.5
580.041,1153.8
580.576,1159.2
581.112,1187.8
581.647,1270.7
582.183,2576.9
582.718,1254.4
583.253,1180.8
583.788,1185.4
584.323,1201.8
584.858,1215.5
585.392,1312.8
585.927,1913.2
586.462,1649.8
586.996,1269.1
587.53,1225.2
588.065,1210.8
588.599,1202.7
589.133,1209.0
589.667,1207.7
590.201,1202.8
590.735,1210.4
591.268,1213.4
591.802,1217.7
592.335,1211.4
592.869,1208.7
593.402,1207.1
593.936,1210.5
594.469,1218.3
595.002,1217.2
595.535,1225.9
596.068,1226.6
596.601,1227.8
597.133,1229.6
597.666,1224.0
598.199,1235.9
598.731,1234.3
599.264,1239.0
599.796,1237.6
600.328,1240.0
600.86,1231.7
601.393,1234.5
601.925,1234.9
602.457,1238.4
602.988,1236.5
603.52,1250.5
604.052,1235.2
604.583,1235.3
605.115,1235.6
605.646,1228.5
606.178,1235.5
606.709,1229.3
607.24,1235.3
607.771,1230.1
608.302,1243.3
608.833,1252.0
609.364,1241.0
609.895,1244.3
610.426,1238.6
610.957,1242.6
611.487,1240.3
612.018,1252.9
612.548,1252.4
613.078,1269.3
613.609,1261.3
614.139,1258.6
614.669,1275.1
615.199,1267.1
615.729,1270.3
616.259,1269.8
616.789,1271.5
617.319,1281.1
617.849,1282.7
618.378,1290.4
618.908,1301.3
619.437,1292.1
619.967,1278.8
620.496,1277.9
621.025,1287.2
621.555,1283.0
622.084,1290.0
622.613,1300.1
623.142,1319.5
623.671,1317.6
624.2,1314.1
624.729,1333.6
625.258,1328.1
625.786,1327.0
626.315,1326.6
626.844,1328.1
627.372,1333.5
627.901,1337.7
628.429,1358.5
628.957,1393.1
629.486,1400.7
630.014,1382.8
630.542,1384.7
631.07,1453.8
631.598,1616.9
632.126,1581.1
632.654,1509.3
633.182,1481.1
633.71,1478.9
634.237,1434.2
634.765,1426.3
635.293,1440.7
635.82,1492.6
636.348,1637.8
636.875,1650.2
637.403,1495.9
637.93,1472.9
638.458,1460.4
638.985,1461.7
639.512,1458.8
640.039,1456.9
640.566,1452.0
641.093,1473.1
641.62,1470.4
642.147,1481.2
642.674,1494.9
643.201,1485.2
643.728,1484.4
644.255,1480.5
644.781,1471.3
645.308,1489.8
645.835,1488.3
646.361,1499.5
646.888,1504.6
647.414,1500.8
647.941,1518.3
648.467,1512.9
648.993,1501.7
649.52,1502.0
650.046,1511.1
650.572,1513.5
651.098,1504.5
651.625,1517.4
652.151,1526.1
652.677,1519.5
653.203,1527.1
653.729,1523.3
654.255,1531.0
654.78,1530.4
655.306,1515.8
655.832,1532.6
656.358,1525.6
656.884,1543.9
657.409,1529.5
657.935,1529.0
658.461,1533.6
658.986,1536.5
659.512,1534.3
660.037,1536.4
660.563,1540.7
661.088,1532.1
661.614,1525.4
662.139,1529.1
662.664,1532.1
663.058,1522.6