File: spectra/VLFR_07-PET_nobio_Raman_d63dd4f6.csv
nm,Intensity
791.588,7797.2
792.685,7451.8
793.781,7398.9
794.878,7289.2
795.975,7223.1
797.071,7221.7
798.168,7155.2
799.264,7147.9
800.36,7060.9
801.456,7075.3
802.552,7047.1
803.648,7028.1
804.744,7030.7
805.84,6979.4
806.936,7011.0
808.031,6930.9
809.127,6902.6
810.222,6845.4
811.317,6893.1
812.412,6790.1
813.507,6706.1
814.602,6699.7
815.697,6615.8
816.792,6607.7
817.887,6605.8
818.981,6534.8
820.076,6457.1
821.17,6359.8
822.265,6392.7
823.359,6299.6
824.453,6309.8
825.547,6280.9
826.641,6180.5
827.735,6198.2
828.828,6144.2
829.922,6062.6
831.016,6031.6
832.109,6008.2
833.202,5949.1
834.295,5959.1
835.388,5908.4
836.481,5890.7
837.574,5942.7
838.667,5940.3
839.76,5863.6
840.852,5942.9
841.945,5925.2
843.037,5849.6
844.129,5786.5
845.221,5766.9
846.314,5702.6
847.405,5630.7
848.497,5654.6
849.589,5624.5
850.681,5580.1
851.772,5599.7
852.863,5576.1
853.955,5550.3
855.046,5544.5
856.137,5504.0
857.228,5505.3
858.318,5527.7
859.409,5568.7
860.5,5539.8
861.59,5444.2
862.681,5396.0
863.771,5450.5
864.861,5396.6
865.951,5345.5
867.041,5303.0
868.131,5275.8
869.22,5305.5
870.31,5286.1
871.399,5378.7
872.488,5377.5
873.578,5400.2
874.667,5295.5
875.756,5250.1
876.845,5196.8
877.933,5174.5
879.022,5170.2
880.11,5151.5
881.199,5136.5
882.287,5116.4
883.375,5130.9
884.463,5049.9
885.551,5098.8
886.639,5066.4
887.726,5034.2
888.814,4988.4
889.901,4958.3
890.988,5022.5
892.075,4945.5
893.162,4925.0
894.249,4900.8
895.336,4886.3
896.423,4905.6
897.509,5024.7
898.595,5141.2
899.682,4964.1
900.768,4818.1
901.854,4773.9
902.94,4766.9
904.025,4746.1
905.111,4750.9
906.196,4761.1
907.282,4887.3
908.367,4860.0
909.452,4745.6
910.537,4645.2
911.622,4617.2
912.706,4593.1
913.791,4570.5
914.875,4602.6
915.959,4564.5
917.044,4527.6
918.128,4528.2
919.211,4487.6
920.295,4461.7
921.379,4468.2
922.462,4409.5
923.546,4427.8
924.629,4415.7
925.712,4388.0
926.795,4370.3
927.877,4366.1
928.96,4332.0
930.043,4300.7
931.125,4311.1
932.207,4287.6
933.289,4278.6
934.371,4258.0
935.453,4238.8
936.535,4237.2
937.616,4203.2
938.697,4205.0
939.779,4191.6
940.86,4166.7
941.941,4155.0
943.022,4160.9
944.102,4129.9
945.183,4134.0
946.263,4111.5
947.343,4107.4
948.423,4088.0
949.503,4094.8
950.583,4074.2
951.663,4066.9
952.742,4057.3
953.822,4049.9
954.901,4034.8
955.98,4020.7
957.059,4014.1
958.137,4009.7
959.216,3998.1
960.294,3991.3
961.373,3987.2
962.451,3981.6
963.529,3973.8
964.607,3971.0
965.684,3957.7
966.762,3958.1
967.839,3944.8
968.917,3935.1
969.994,3931.6
971.071,3932.1
972.147,3925.5
973.224,3919.2
974.3,3914.4
975.377,3905.6
976.453,3903.3
977.529,3898.7
978.605,3897.1
979.68,3890.1
980.756,3890.5
981.831,3890.1
982.907,3878.8
983.982,3867.5
985.057,3870.2
986.131,3863.9
987.206,3865.3
988.28,3864.4
989.355,3852.1
990.429,3853.7
991.503,3854.3
992.576,3844.1
993.65,3846.1
994.723,3842.5
995.797,3834.4
996.87,3834.3
997.943,3831.8
999.016,3833.0
1000.09,3832.5
1001.16,3827.2
1002.23,3822.5
1003.31,3820.4
1004.38,3816.2
1005.45,3815.8
1006.52,3815.1
1007.59,3810.1
1008.66,3810.2
1009.73,3806.9
1010.81,3806.1
1011.88,3804.8
1012.95,3803.0
1014.02,3800.8
1015.09,3797.9
1016.16,3799.0
1017.23,3798.6
1018.3,3796.2
1019.37,3795.7
1020.44,3797.0
1021.51,3796.4
1022.58,3796.1
1023.64,3795.4
1024.71,3790.2
1025.78,3790.1
1026.85,3789.1
1027.92,3790.0
1028.99,3782.7
1030.05,3780.8
1031.12,3778.4
1032.19,3778.2
1033.26,3780.8
1034.32,3781.0
1035.39,3782.4
1036.46,3779.7
1037.52,3780.2
1038.59,3772.2
1039.66,3776.3
1040.72,3774.5
1041.79,3771.6
1042.86,3773.8
1043.92,3770.9
1044.99,3769.6
1046.05,3770.8
1047.12,3769.4
1048.18,3770.3
1049.25,3768.2
1050.31,3770.5
1051.37,3768.9
1052.44,3766.5
1053.5,3767.5
1054.57,3767.2
1055.63,3767.4
1056.69,3767.8
1057.76,3766.0
1058.82,3765.2
1059.88,3767.8
1060.95,3765.7
1062.01,3765.4
1063.07,3765.7
1064.13,3765.2
1065.19,3766.3
1066.26,3765.1
1067.32,3763.9
1068.11,3764.9