File: spectra/VLFR_07-PET_bio_Raman_9e351a32.csv
nm,Intensity
791.377,17524.2
792.477,16059.5
793.576,15256.8
794.676,14933.8
795.775,14623.3
796.874,14642.9
797.973,14348.8
799.072,14698.6
800.171,14489.9
801.27,14436.0
802.368,14333.7
803.467,14047.8
804.565,14069.4
805.664,13825.5
806.762,13633.7
807.86,13531.7
808.958,13510.7
810.056,13295.6
811.153,13098.8
812.251,13087.0
813.349,13112.1
814.446,12698.0
815.543,12751.1
816.64,12541.8
817.737,12619.9
818.834,12170.0
819.931,12242.6
821.028,12013.0
822.125,12023.9
823.221,11848.2
824.317,11772.8
825.414,11838.0
826.51,11865.0
827.606,11295.1
828.702,11325.5
829.797,11122.4
830.893,11290.3
831.988,11055.7
833.084,10990.9
834.179,10799.4
835.274,10741.2
836.369,10784.9
837.464,10772.5
838.559,10634.4
839.654,10649.7
840.748,10857.4
841.843,10822.2
842.937,10446.9
844.031,10365.7
845.125,10099.1
846.219,9754.34
847.313,9916.2
848.407,9659.7
849.5,9701.16
850.593,9522.16
851.687,9510.48
852.78,9391.3
853.873,9469.54
854.966,9354.52
856.059,9115.22
857.151,9221.14
858.244,9289.46
859.336,9161.4
860.428,9343.3
861.52,9097.4
862.612,8808.2
863.704,8649.06
864.796,8772.76
865.888,8813.48
866.979,8451.16
868.07,8497.9
869.162,8466.4
870.253,8510.44
871.344,8509.96
872.434,8853.88
873.525,8831.96
874.615,8418.5
875.706,8304.24
876.796,8102.02
877.886,7998.66
878.976,7921.64
880.066,7796.64
881.156,7925.8
882.245,7865.96
883.335,7705.9
884.424,7713.56
885.513,7728.8
886.602,7584.02
887.691,7557.4
888.78,7358.36
889.868,7320.94
890.957,7301.7
892.045,7263.86
893.133,7208.2
894.221,7131.18
895.309,6996.74
896.397,7048.74
897.484,7290.96
898.571,7972.0
899.659,7393.16
900.746,6781.6
901.833,6779.32
902.92,6658.34
904.006,6613.42
905.093,6522.46
906.179,6656.66
907.266,7084.08
908.352,7166.2
909.438,6677.64
910.523,6326.52
911.609,6228.94
912.695,6154.0
913.78,6044.16
914.865,6021.02
915.95,5924.94
917.035,5899.38
918.12,5865.52
919.204,5737.34
920.289,5751.4
921.373,5697.7
922.457,5659.88
923.541,5571.94
924.625,5537.42
925.709,5486.96
926.792,5410.58
927.876,5446.52
928.959,5327.88
930.042,5273.3
931.125,5269.32
932.208,5189.76
933.29,5153.22
934.373,5148.78
935.455,5108.88
936.537,5040.9
937.619,4978.54
938.701,4961.54
939.782,4935.88
940.864,4921.84
941.945,4856.0
943.026,4834.24
944.107,4785.56
945.188,4785.36
946.269,4713.88
947.349,4725.4
948.43,4676.76
949.51,4645.9
950.59,4621.7
951.67,4588.68
952.75,4584.42
953.829,4529.36
954.909,4524.52
955.988,4503.38
957.067,4447.62
958.146,4460.44
959.224,4435.36
960.303,4414.62
961.381,4370.98
962.459,4380.18
963.537,4351.8
964.615,4323.58
965.693,4314.06
966.771,4289.58
967.848,4290.82
968.925,4254.1
970.002,4244.42
971.079,4223.92
972.156,4228.34
973.232,4198.08
974.309,4187.62
975.385,4174.06
976.461,4162.34
977.537,4157.66
978.612,4139.04
979.688,4122.44
980.763,4112.06
981.838,4103.06
982.913,4102.36
983.988,4073.14
985.063,4071.86
986.137,4062.92
987.211,4057.62
988.285,4050.48
989.359,4030.0
990.433,4023.7
991.506,4013.18
992.58,4003.58
993.653,3996.6
994.726,3984.1
995.799,3977.26
996.872,3967.02
997.944,3966.0
999.016,3960.68
1000.09,3946.42
1001.16,3948.06
1002.23,3943.32
1003.3,3924.66
1004.38,3918.14
1005.45,3924.06
1006.52,3913.44
1007.59,3904.28
1008.66,3901.82
1009.73,3895.5
1010.8,3889.48
1011.87,3884.4
1012.94,3881.94
1014.01,3881.92
1015.08,3875.98
1016.15,3874.2
1017.22,3867.86
1018.29,3863.54
1019.36,3861.44
1020.42,3862.9
1021.49,3863.44
1022.56,3869.24
1023.63,3862.36
1024.7,3855.3
1025.76,3845.16
1026.83,3840.76
1027.9,3838.74
1028.97,3829.76
1030.03,3826.7
1031.1,3820.7
1032.17,3822.98
1033.23,3822.42
1034.3,3826.74
1035.36,3827.72
1036.43,3825.62
1037.5,3815.64
1038.56,3809.74
1039.63,3806.94
1040.69,3805.52
1041.76,3802.52
1042.82,3801.98
1043.89,3800.1
1044.95,3799.84
1046.01,3797.92
1047.08,3796.58
1048.14,3795.72
1049.2,3794.82
1050.27,3793.88
1051.33,3793.86
1052.39,3792.44
1053.46,3791.84
1054.52,3790.7
1055.58,3791.78
1056.64,3790.6
1057.7,3789.74
1058.77,3788.74
1059.83,3788.8
1060.89,3789.2
1061.95,3789.14
1063.01,3787.64
1064.07,3788.72
1065.13,3787.16
1066.19,3786.76
1067.25,3785.9
1068.05,3784.94