File: spectra/VLFR_06-PET_bio_Raman_9468c16d.csv
nm,Intensity
528.626,1865.2
529.132,1867.0
529.637,1866.3
530.143,1867.4
530.648,1866.8
531.153,1869.7
531.658,1925.5
532.164,4897.7
532.669,1873.7
533.174,1882.3
533.679,3631.2
534.184,8351.5
534.689,6582.2
535.194,5147.6
535.699,4022.4
536.203,3382.5
536.708,3071.9
537.213,2984.3
537.717,2959.8
538.222,2976.9
538.726,2971.6
539.231,3005.4
539.735,3170.6
540.239,3048.3
540.744,2899.1
541.248,2808.8
541.752,2804.2
542.256,2853.4
542.76,2838.3
543.264,2831.0
543.768,2883.3
544.272,2863.2
544.776,2869.5
545.28,2876.1
545.784,2877.8
546.287,2894.0
546.791,2909.5
547.294,2942.3
547.798,2934.7
548.301,2930.9
548.805,2965.5
549.308,2939.9
549.811,2976.9
550.315,3097.0
550.818,3577.3
551.321,3038.5
551.824,3048.9
552.327,3044.6
552.83,3464.4
553.333,3096.9
553.835,3114.2
554.338,3150.2
554.841,3171.6
555.343,3387.5
555.846,3599.7
556.349,3645.5
556.851,3730.5
557.353,4555.6
557.856,4207.4
558.358,3888.2
558.86,3710.5
559.362,3379.1
559.864,3372.7
560.366,3358.4
560.868,3423.3
561.37,3459.1
561.872,3535.7
562.374,3618.3
562.876,3720.0
563.377,3694.1
563.879,3586.8
564.38,3697.9
564.882,3926.3
565.383,4441.7
565.885,4675.0
566.386,4000.3
566.887,3776.8
567.388,3999.8
567.889,4190.8
568.391,3794.2
568.892,3807.1
569.392,3885.3
569.893,4148.4
570.394,4561.4
570.895,5517.9
571.395,6416.2
571.896,5163.3
572.397,4362.1
572.897,4135.6
573.397,4091.4
573.898,4195.1
574.398,4181.7
574.898,4278.5
575.398,4563.5
575.898,4265.4
576.398,4517.4
576.898,4533.1
577.398,4260.3
577.898,4291.8
578.398,4257.4
578.897,4317.2
579.397,4305.2
579.896,4360.9
580.396,4423.9
580.895,4583.3
581.395,4868.8
581.894,8847.6
582.393,8423.6
582.892,4653.0
583.391,4599.0
583.89,4588.9
584.389,4685.3
584.888,4845.2
585.387,5842.8
585.886,9091.8
586.384,7478.8
586.883,5203.8
587.381,4805.9
587.88,4727.6
588.378,4691.2
588.876,4747.8
589.375,4722.4
589.873,4669.8
590.371,4661.0
590.869,4664.7
591.367,4805.2
591.865,4809.7
592.363,4778.9
592.86,4815.4
593.358,4752.2
593.856,4826.8
594.353,4774.8
594.851,4897.2
595.348,4936.7
595.845,4947.6
596.342,4965.8
596.84,5013.0
597.337,4929.1
597.834,5000.4
598.331,5009.2
598.828,5060.0
599.324,5037.9
599.821,5037.3
600.318,5123.9
600.814,5075.8
601.311,5150.7
601.807,5148.5
602.304,5124.2
602.8,5253.2
603.296,5200.5
603.792,5216.1
604.288,5295.9
604.784,5238.1
605.28,5312.8
605.776,5346.9
606.272,5423.4
606.767,5497.4
607.263,5428.1
607.759,5645.9
608.254,5621.9
608.749,5622.4
609.245,5591.4
609.74,5508.2
610.235,5619.3
610.73,5674.8
611.225,5685.1
611.72,5659.1
612.215,5614.8
612.71,5751.6
613.204,5658.9
613.699,5704.1
614.194,5760.3
614.688,5790.4
615.182,5865.5
615.677,5867.9
616.171,5747.7
616.665,5786.5
617.159,5809.4
617.653,5799.1
618.147,5883.7
618.641,5836.4
619.135,5929.3
619.628,5755.8
620.122,5948.9
620.615,5835.1
621.109,5798.6
621.602,5828.7
622.095,5877.7
622.589,5901.8
623.082,5859.8
623.575,5935.6
624.068,5873.6
624.561,6057.1
625.053,5861.7
625.546,5921.4
626.039,5985.1
626.531,5891.7
627.024,5829.5
627.516,5911.4
628.008,5949.5
628.501,6097.4
628.993,6173.8
629.485,6156.7
629.977,6148.8
630.469,6199.0
630.96,6589.3
631.452,7138.2
631.944,7293.5
632.435,6840.5
632.927,6561.6
633.418,6660.2
633.91,6394.9
634.401,6233.1
634.892,6228.1
635.383,6327.5
635.874,6719.8
636.365,7567.5
636.856,7208.8
637.346,6440.4
637.837,6295.0
638.327,6162.6
638.818,6080.4
639.308,6176.1
639.799,6075.4
640.289,6106.6
640.779,5835.3
641.269,6033.1
641.759,6044.7
642.249,6133.4
642.738,6212.6
643.228,6075.3
643.718,6109.9
644.207,6109.7
644.697,6122.2
645.186,6020.5
645.675,6121.0
646.164,6054.6
646.653,5953.7
647.142,6018.2
647.631,6069.0
648.12,5939.8
648.609,5887.2
649.098,5986.4
649.586,5857.6
650.075,5865.3
650.563,5838.6
651.051,5923.7
651.539,5882.3
652.027,5714.1
652.515,5787.7
653.003,5830.4
653.491,5605.9
653.979,5781.4
654.467,5745.4
654.954,5576.5
655.442,5654.9
655.929,5710.8
656.416,5570.9
656.904,5692.5
657.391,5477.1
657.878,5402.4
658.365,5428.8
658.851,5446.0
659.338,5235.8
659.825,5257.8
660.311,5192.4
660.798,5269.9
661.041,5244.7