File: spectra/VLFR_02-HDPE_bio_Raman_b8d9b01d.csv
nm,Intensity
526.547,832.15
527.095,831.55
527.642,832.85
528.189,831.55
528.736,832.55
529.283,832.5
529.829,831.95
530.376,831.6
530.922,831.9
531.468,832.7
532.014,844.05
532.56,832.4
533.106,831.9
533.651,832.45
534.196,927.55
534.742,921.7
535.287,916.8
535.832,912.8
536.376,910.8
536.921,906.85
537.465,906.0
538.01,902.7
538.554,903.2
539.098,902.0
539.642,902.1
540.186,898.25
540.729,897.55
541.273,898.0
541.816,900.4
542.36,904.75
542.903,901.75
543.446,904.85
543.988,904.75
544.531,905.65
545.074,905.8
545.616,902.85
546.158,905.4
546.701,903.4
547.243,903.9
547.785,905.05
548.326,904.25
548.868,908.4
549.41,909.4
549.951,909.2
550.492,910.05
551.034,908.5
551.575,909.35
552.116,909.5
552.656,909.45
553.197,910.75
553.738,912.95
554.278,912.65
554.819,914.35
555.359,913.3
555.899,913.85
556.439,915.95
556.979,915.1
557.519,913.5
558.058,916.05
558.598,911.9
559.137,915.6
559.677,915.25
560.216,915.65
560.755,916.7
561.294,919.2
561.833,923.15
562.371,915.75
562.91,918.2
563.449,919.25
563.987,937.65
564.525,926.25
565.064,925.45
565.602,924.4
566.14,947.85
566.678,923.25
567.216,925.3
567.753,927.65
568.291,924.3
568.828,925.3
569.366,929.15
569.903,929.25
570.44,929.2
570.977,928.25
571.514,958.45
572.051,934.75
572.588,934.4
573.125,935.6
573.661,936.0
574.198,940.25
574.734,935.3
575.271,940.15
575.807,950.45
576.343,957.6
576.879,951.45
577.415,948.45
577.951,949.5
578.486,949.4
579.022,949.7
579.557,953.5
580.093,952.25
580.628,957.35
581.164,953.35
581.699,958.35
582.234,960.85
582.769,965.0
583.304,966.1
583.838,967.55
584.373,965.65
584.908,967.6
585.442,970.25
585.977,969.1
586.511,968.45
587.045,971.75
587.58,969.75
588.114,975.5
588.648,973.75
589.182,973.75
589.715,978.75
590.249,976.85
590.783,980.3
591.316,980.9
591.85,983.15
592.383,981.6
592.917,980.4
593.45,983.65
593.983,985.55
594.516,988.7
595.049,990.6
595.582,990.35
596.115,996.2
596.648,990.45
597.18,998.2
597.713,996.3
598.245,997.6
598.778,1002.85
599.31,998.7
599.842,1004.05
600.375,1002.25
600.907,997.4
601.439,1007.0
601.971,1001.05
602.503,1000.6
603.034,999.7
603.566,1001.75
604.098,996.65
604.629,995.1
605.161,991.45
605.692,986.5
606.224,985.3
606.755,981.25
607.286,986.75
607.817,983.8
608.348,984.25
608.879,985.45
609.41,980.75
609.941,982.45
610.472,978.35
611.002,976.4
611.533,975.9
612.063,978.05
612.594,980.1
613.124,976.35
613.655,980.3
614.185,978.95
614.715,979.2
615.245,976.25
615.775,975.45
616.305,975.0
616.835,975.55
617.365,973.8
617.895,975.45
618.425,977.95
618.954,975.4
619.484,974.1
620.013,973.75
620.543,972.0
621.072,970.75
621.602,974.15
622.131,974.15
622.66,973.5
623.189,972.55
623.718,973.3
624.247,972.95
624.776,971.6
625.305,970.25
625.834,968.65
626.363,969.2
626.891,1000.85
627.42,1040.7
627.949,1007.8
628.477,1034.3
629.006,1015.75
629.534,1006.15
630.062,994.45
630.591,992.35
631.119,979.95
631.647,972.55
632.175,967.1
632.703,971.85
633.231,966.15
633.759,969.6
634.287,966.3
634.815,965.1
635.343,965.45
635.871,963.9
636.398,968.3
636.926,968.1
637.454,967.1
637.981,966.95
638.509,968.65
639.036,967.0
639.564,968.2
640.091,967.5
640.618,970.35
641.146,974.45
641.673,975.0
642.2,973.2
642.727,974.75
643.254,975.0
643.781,975.8
644.308,974.85
644.835,977.15
645.362,974.05
645.889,979.25
646.416,978.25
646.942,981.95
647.469,983.7
647.996,984.3
648.522,987.2
649.049,984.9
649.576,984.55
650.102,989.05
650.629,987.85
651.155,987.95
651.682,985.8
652.208,986.5
652.734,986.55
653.261,982.75
653.787,974.75
654.313,976.7
654.839,973.8
655.365,969.1
655.892,965.9
656.418,962.3
656.944,961.75
657.47,959.0
657.996,954.45
658.522,954.2
659.048,951.7
659.574,950.1
660.099,945.85
660.625,942.55
661.151,938.4
661.677,940.4
662.203,938.75
662.728,937.8
663.123,933.45