File: spectra/VLFR_02-HDPE_bio_Raman_aee31176.csv
nm,Intensity
526.495,829.9
527.042,827.7
527.589,830.0
528.136,828.8
528.682,828.7
529.229,828.4
529.775,830.2
530.321,828.6
530.867,828.5
531.413,829.4
531.959,832.5
532.505,830.1
533.051,829.7
533.596,828.9
534.141,876.3
534.687,873.4
535.232,870.9
535.777,852.7
536.321,845.6
536.866,844.3
537.41,842.0
537.955,844.4
538.499,842.7
539.043,840.8
539.587,839.3
540.131,838.1
540.675,837.3
541.219,837.3
541.762,838.0
542.305,838.8
542.849,837.8
543.392,836.5
543.935,837.3
544.478,835.8
545.02,837.5
545.563,835.8
546.106,836.9
546.648,834.8
547.19,836.3
547.732,835.0
548.274,836.5
548.816,836.9
549.358,836.4
549.9,835.8
550.441,835.5
550.983,836.5
551.524,837.3
552.065,837.3
552.606,837.8
553.147,836.4
553.688,838.7
554.229,840.0
554.769,840.1
555.31,839.7
555.85,839.6
556.391,840.7
556.931,842.3
557.471,842.2
558.011,842.4
558.551,842.3
559.09,842.1
559.63,840.9
560.169,840.0
560.709,842.4
561.248,840.5
561.787,841.6
562.326,842.4
562.865,844.3
563.404,846.0
563.943,899.1
564.481,857.8
565.02,852.9
565.558,850.0
566.096,900.9
566.634,848.8
567.172,846.6
567.71,850.1
568.248,843.3
568.786,843.7
569.324,842.9
569.861,843.8
570.399,846.1
570.936,851.2
571.473,945.7
572.01,868.5
572.547,850.7
573.084,846.3
573.621,846.6
574.158,851.6
574.694,844.8
575.231,846.1
575.767,878.0
576.303,978.3
576.84,908.8
577.376,892.4
577.912,854.9
578.448,850.6
578.984,847.8
579.519,849.6
580.055,850.3
580.59,849.9
581.126,850.9
581.661,849.7
582.196,851.4
582.731,854.3
583.267,855.0
583.801,855.0
584.336,857.5
584.871,855.1
585.406,860.4
585.94,863.7
586.475,864.2
587.009,865.6
587.543,870.8
588.078,871.4
588.612,875.9
589.146,876.6
589.68,877.6
590.214,882.3
590.747,887.2
591.281,892.8
591.815,894.8
592.348,895.3
592.881,897.1
593.415,900.6
593.948,901.7
594.481,911.5
595.014,907.3
595.547,913.0
596.08,914.8
596.613,914.5
597.146,917.0
597.678,921.7
598.211,922.2
598.743,924.3
599.276,927.4
599.808,926.3
600.34,926.7
600.872,930.4
601.404,925.6
601.936,932.6
602.468,926.6
603.0,926.8
603.532,924.1
604.064,916.3
604.595,916.0
605.127,913.8
605.658,909.9
606.189,907.2
606.721,899.4
607.252,899.0
607.783,898.3
608.314,898.3
608.845,892.9
609.376,891.7
609.907,890.4
610.438,889.2
610.968,885.6
611.499,889.7
612.029,886.9
612.56,881.4
613.09,883.9
613.621,883.4
614.151,884.1
614.681,881.3
615.211,880.5
615.741,882.4
616.271,881.2
616.801,886.8
617.331,887.1
617.861,886.7
618.39,884.0
618.92,883.7
619.45,884.5
619.979,886.8
620.509,885.6
621.038,886.2
621.567,903.5
622.096,934.6
622.626,924.5
623.155,896.7
623.684,887.8
624.213,881.0
624.742,885.9
625.271,886.5
625.799,896.0
626.328,926.6
626.857,1200.9
627.386,1662.4
627.914,1308.4
628.443,1591.4
628.971,1301.7
629.5,1207.0
630.028,1093.9
630.556,1072.1
631.084,961.9
631.613,896.0
632.141,885.4
632.669,883.0
633.197,878.7
633.725,876.5
634.253,874.1
634.781,872.6
635.308,868.3
635.836,872.2
636.364,871.4
636.891,870.9
637.419,867.0
637.947,867.7
638.474,869.0
639.002,865.3
639.529,868.8
640.056,869.9
640.584,869.1
641.111,872.5
641.638,871.6
642.165,871.7
642.692,868.3
643.219,870.3
643.746,871.8
644.273,874.5
644.8,873.2
645.327,876.2
645.854,876.1
646.381,875.1
646.908,874.0
647.434,874.4
647.961,877.5
648.488,877.0
649.014,872.5
649.541,872.6
650.067,874.3
650.594,874.1
651.12,875.1
651.646,871.0
652.173,874.5
652.699,874.0
653.225,876.2
653.752,873.5
654.278,871.5
654.804,874.8
655.33,872.1
655.856,871.8
656.382,872.9
656.908,874.6
657.434,870.7
657.96,868.6
658.486,866.2
659.012,866.4
659.538,867.5
660.064,866.2
660.589,866.9
661.115,863.0
661.641,863.2
662.166,861.4
662.692,862.0
663.086,857.8