File: spectra/VLFR_01-LDPE_nobio_Raman_0bf7d86f.csv
nm,Intensity
526.486,831.1
527.033,831.9
527.579,830.1
528.126,830.5
528.672,830.4
529.219,830.8
529.765,831.3
530.311,829.1
530.857,830.6
531.403,830.6
531.948,833.4
532.494,830.9
533.039,829.7
533.585,830.9
534.13,868.9
534.675,867.1
535.22,859.1
535.764,851.1
536.309,847.9
536.854,849.1
537.398,847.4
537.942,847.4
538.486,845.1
539.03,843.9
539.574,843.7
540.118,842.9
540.662,843.6
541.205,842.3
541.749,840.6
542.292,841.5
542.835,841.2
543.378,840.0
543.921,840.2
544.464,841.4
545.006,839.6
545.549,840.1
546.091,839.5
546.634,839.5
547.176,838.5
547.718,840.8
548.26,838.9
548.802,839.4
549.343,840.4
549.885,840.1
550.426,838.4
550.968,839.2
551.509,839.5
552.05,840.8
552.591,840.0
553.132,839.8
553.673,840.3
554.214,840.3
554.754,840.8
555.295,841.4
555.835,840.0
556.375,842.4
556.915,842.7
557.455,844.9
557.995,845.3
558.535,844.1
559.075,844.0
559.614,840.6
560.154,843.0
560.693,840.8
561.232,842.2
561.772,841.6
562.311,842.3
562.85,844.2
563.388,848.0
563.927,867.1
564.466,857.5
565.004,854.3
565.543,850.1
566.081,867.0
566.619,848.9
567.157,847.3
567.695,848.1
568.233,844.6
568.771,846.0
569.309,845.7
569.846,845.0
570.384,847.6
570.921,848.5
571.458,879.8
571.995,861.9
572.532,851.4
573.069,850.3
573.606,850.6
574.143,854.7
574.68,851.1
575.216,854.3
575.753,868.1
576.289,915.1
576.825,891.7
577.361,879.4
577.897,861.4
578.433,860.8
578.969,863.2
579.505,860.8
580.041,864.5
580.576,865.9
581.112,867.1
581.647,867.5
582.183,870.2
582.718,869.7
583.253,870.7
583.788,871.8
584.323,873.0
584.858,872.9
585.392,879.7
585.927,876.7
586.462,877.5
586.996,880.1
587.53,887.2
588.065,887.9
588.599,886.3
589.133,890.0
589.667,892.9
590.201,897.9
590.735,902.2
591.268,903.7
591.802,905.2
592.335,911.2
592.869,914.5
593.402,912.2
593.936,918.8
594.469,926.9
595.002,933.1
595.535,939.8
596.068,948.1
596.601,954.4
597.133,969.7
597.666,975.3
598.199,977.8
598.731,987.8
599.264,998.2
599.796,1001.3
600.328,1006.2
600.86,1004.6
601.393,1009.7
601.925,1004.7
602.457,1003.1
602.988,991.5
603.52,990.2
604.052,986.6
604.583,981.2
605.115,976.9
605.646,967.9
606.178,954.5
606.709,956.1
607.24,947.9
607.771,939.6
608.302,942.1
608.833,935.4
609.364,931.9
609.895,924.2
610.426,927.4
610.957,922.9
611.487,920.2
612.018,919.6
612.548,915.2
613.078,917.3
613.609,913.6
614.139,912.3
614.669,909.3
615.199,909.9
615.729,905.1
616.259,907.0
616.789,903.4
617.319,907.1
617.849,903.9
618.378,903.5
618.908,902.7
619.437,904.2
619.967,899.5
620.496,898.4
621.025,898.8
621.555,902.8
622.084,914.6
622.613,910.7
623.142,901.4
623.671,895.1
624.2,893.9
624.729,890.8
625.258,894.3
625.786,892.0
626.315,902.8
626.844,987.3
627.372,1169.1
627.901,1060.1
628.429,1140.5
628.957,1081.1
629.486,1029.9
630.014,991.0
630.542,980.1
631.07,934.2
631.598,906.0
632.126,890.9
632.654,882.3
633.182,885.0
633.71,878.3
634.237,876.4
634.765,877.2
635.293,874.5
635.82,876.0
636.348,874.4
636.875,877.1
637.403,874.3
637.93,877.0
638.458,874.5
638.985,875.2
639.512,878.2
640.039,878.4
640.566,877.4
641.093,878.7
641.62,878.4
642.147,879.0
642.674,881.3
643.201,878.6
643.728,882.0
644.255,880.7
644.781,882.3
645.308,885.2
645.835,883.5
646.361,885.1
646.888,886.0
647.414,889.2
647.941,888.1
648.467,891.8
648.993,889.1
649.52,891.2
650.046,893.1
650.572,893.9
651.098,892.2
651.625,894.9
652.151,896.7
652.677,897.3
653.203,899.1
653.729,903.0
654.255,901.5
654.78,898.1
655.306,902.1
655.832,901.8
656.358,902.7
656.884,898.5
657.409,899.8
657.935,898.5
658.461,892.4
658.986,894.2
659.512,893.2
660.037,887.4
660.563,885.6
661.088,885.1
661.614,880.9
662.139,876.0
662.664,875.5
663.058,877.0