File: spectra/VLFR_07-PET_nobio_Raman_5622b84f.csv
cm-1,Intensity
109.24,9276.45
126.699,8691.7
144.108,8385.6
161.468,8322.25
178.779,8148.75
196.04,8140.2
213.253,8193.45
230.417,8153.15
247.532,8059.7
264.599,8166.8
281.618,8040.45
298.59,7989.35
315.513,7961.55
332.389,7914.8
349.218,7859.25
365.999,7783.45
382.734,7632.55
399.422,7599.85
416.064,7581.4
432.659,7539.2
449.208,7360.75
465.711,7229.85
482.168,7170.5
498.579,7095.5
514.946,7092.85
531.267,7027.3
547.542,6892.45
563.773,6856.35
579.96,6762.7
596.102,6779.15
612.199,6666.25
628.252,6851.15
644.261,6653.75
660.227,6533.6
676.149,6495.85
692.027,6488.8
707.862,6535.4
723.654,6394.65
739.403,6333.05
755.109,6291.75
770.773,6237.35
786.394,6308.1
801.973,6286.05
817.509,6295.55
833.004,6215.75
848.457,6410.0
863.868,6300.25
879.238,6166.95
894.567,6030.15
909.854,5946.55
925.1,5908.9
940.306,5841.3
955.471,5796.55
970.595,5782.1
985.679,5759.75
1000.72,5787.85
1015.73,5739.7
1030.69,5718.45
1045.61,5627.7
1060.5,5597.55
1075.34,5636.65
1090.15,5663.35
1104.92,5658.9
1119.64,5598.15
1134.33,5523.5
1148.98,5445.1
1163.6,5489.6
1178.17,5489.6
1192.7,5372.45
1207.2,5351.25
1221.66,5347.0
1236.08,5331.4
1250.46,5389.15
1264.81,5479.15
1279.12,5518.5
1293.39,5464.0
1307.62,5348.55
1321.82,5268.1
1335.98,5229.75
1350.11,5185.3
1364.19,5178.85
1378.24,5103.0
1392.26,5154.55
1406.24,5114.75
1420.18,5087.3
1434.08,5094.3
1447.96,5117.5
1461.79,5032.75
1475.59,4967.25
1489.35,5010.6
1503.08,4963.4
1516.78,4958.2
1530.44,4924.75
1544.06,4910.8
1557.65,4872.75
1571.2,4829.9
1584.72,4844.6
1598.21,5067.3
1611.66,5205.65
1625.08,4912.5
1638.46,4737.2
1651.81,4704.7
1665.13,4685.7
1678.41,4694.6
1691.66,4706.0
1704.88,4787.35
1718.06,4928.3
1731.21,4903.5
1744.32,4698.6
1757.41,4564.6
1770.46,4545.65
1783.48,4499.95
1796.46,4501.05
1809.42,4449.1
1822.34,4461.3
1835.23,4432.55
1848.08,4418.1
1860.91,4417.35
1873.7,4376.65
1886.46,4370.75
1899.19,4329.5
1911.89,4322.7
1924.56,4300.65
1937.19,4286.25
1949.8,4274.05
1962.37,4244.2
1974.91,4237.4
1987.42,4203.65
1999.9,4177.05
2012.36,4168.55
2024.78,4162.0
2037.16,4134.05
2049.52,4130.5
2061.85,4114.2
2074.15,4114.4
2086.42,4090.1
2098.66,4080.0
2110.87,4071.45
2123.05,4066.5
2135.2,4048.85
2147.32,4037.9
2159.41,4026.75
2171.47,4009.9
2183.51,4001.9
2195.51,4000.95
2207.49,3990.3
2219.43,3992.75
2231.35,3976.5
2243.24,3972.3
2255.1,3961.25
2266.93,3953.7
2278.73,3940.35
2290.51,3945.35
2302.26,3934.1
2313.97,3926.95
2325.67,3924.6
2337.33,3919.1
2348.96,3913.2
2360.57,3903.15
2372.15,3898.4
2383.7,3897.85
2395.23,3891.0
2406.73,3889.25
2418.2,3888.05
2429.64,3879.3
2441.06,3876.45
2452.45,3865.65
2463.81,3865.45
2475.15,3858.5
2486.46,3853.75
2497.74,3852.0
2509.0,3849.45
2520.23,3841.4
2531.43,3843.7
2542.61,3841.4
2553.76,3837.45
2564.88,3832.45
2575.98,3833.25
2587.06,3830.05
2598.1,3824.05
2609.13,3820.95
2620.12,3818.3
2631.09,3816.8
2642.04,3813.55
2652.96,3811.7
2663.85,3804.4
2674.72,3803.2
2685.57,3804.6
2696.39,3800.75
2707.18,3796.35
2717.95,3796.1
2728.69,3790.5
2739.41,3794.15
2750.11,3785.8
2760.78,3785.1
2771.43,3788.45
2782.05,3783.35
2792.65,3780.2
2803.22,3780.5
2813.77,3780.05
2824.3,3775.05
2834.8,3775.1
2845.27,3772.05
2855.73,3771.15
2866.16,3769.4
2876.56,3769.35
2886.95,3767.5
2897.3,3767.25
2907.64,3766.05
2917.95,3763.45
2928.24,3763.85
2938.51,3764.65
2948.75,3765.5
2958.97,3765.5
2969.17,3765.05
2979.34,3760.8
2989.49,3759.35
2999.62,3756.2
3009.72,3754.45
3019.81,3752.0
3029.87,3751.3
3039.9,3750.8
3049.92,3751.85
3059.91,3751.4
3069.88,3752.9
3079.83,3752.75
3089.76,3751.9
3099.66,3748.05
3109.54,3745.0
3119.4,3744.35
3129.24,3745.05
3139.06,3742.9
3148.85,3743.55
3158.62,3743.75
3168.38,3742.7
3178.11,3741.6
3187.81,3741.8
3197.5,3741.15
3207.17,3740.2
3216.81,3738.9
3226.44,3739.9
3236.04,3739.6
3245.62,3739.4
3255.18,3738.25
3264.72,3739.9
3274.24,3738.65
3283.73,3740.0
3293.21,3738.35
3302.67,3739.15
3312.1,3739.65
3321.52,3738.85
3330.91,3739.25
3340.29,3738.4
3349.64,3737.1
3358.97,3737.25
3368.29,3737.55
3375.26,3736.35