File: spectra/VLFR_01-LDPE_bio_Raman_fe19d443.csv
nm,Intensity
528.65,1856.05
529.155,1855.95
529.66,1856.75
530.165,1855.95
530.67,1857.05
531.175,1858.15
531.68,1868.45
532.185,2575.05
532.69,1857.2
533.194,1857.75
533.699,1945.85
534.204,2145.9
534.708,2148.9
535.213,2123.35
535.717,2119.85
536.222,2101.45
536.726,2103.4
537.231,2105.5
537.735,2119.2
538.239,2108.7
538.743,2101.25
539.247,2112.25
539.751,2093.1
540.255,2092.8
540.759,2104.35
541.263,2088.1
541.767,2095.6
542.271,2097.0
542.775,2098.8
543.279,2096.9
543.782,2096.5
544.286,2093.55
544.789,2105.35
545.293,2097.35
545.796,2103.8
546.3,2095.2
546.803,2100.8
547.306,2094.65
547.81,2096.9
548.313,2110.25
548.816,2103.15
549.319,2099.7
549.822,2102.7
550.325,2111.15
550.828,2113.1
551.331,2111.8
551.834,2119.1
552.337,2114.55
552.839,2107.55
553.342,2128.2
553.844,2127.2
554.347,2127.95
554.849,2130.75
555.352,2142.7
555.854,2135.75
556.357,2140.4
556.859,2157.6
557.361,2150.65
557.863,2178.2
558.365,2177.7
558.867,2178.95
559.369,2173.6
559.871,2174.35
560.373,2182.8
560.875,2185.4
561.377,2186.4
561.878,2192.75
562.38,2224.3
562.881,2217.55
563.383,2231.25
563.884,2400.0
564.386,2308.75
564.887,2284.6
565.388,2271.3
565.89,2382.3
566.391,2384.05
566.892,2280.2
567.393,2285.05
567.894,2277.85
568.395,2276.8
568.896,2288.55
569.396,2304.45
569.897,2302.9
570.398,2325.3
570.898,2344.65
571.399,2584.25
571.9,2474.35
572.4,2375.45
572.9,2377.05
573.401,2370.4
573.901,2398.95
574.401,2394.15
574.901,2381.7
575.401,2504.9
575.901,2579.5
576.401,2714.6
576.901,2686.3
577.401,2542.45
577.901,2463.6
578.4,2456.3
578.9,2478.65
579.399,2487.65
579.899,2499.4
580.398,2507.7
580.898,2522.8
581.397,2521.35
581.896,2552.95
582.395,2551.8
582.895,2540.05
583.394,2585.85
583.893,2572.6
584.391,2592.85
584.89,2591.55
585.389,2592.15
585.888,2613.4
586.386,2639.2
586.885,2646.4
587.384,2667.25
587.882,2697.35
588.38,2684.65
588.879,2682.5
589.377,2711.6
589.875,2714.5
590.373,2748.15
590.871,2756.55
591.369,2783.25
591.867,2812.4
592.365,2857.7
592.863,2823.95
593.361,2844.8
593.858,2850.9
594.356,2809.65
594.853,2900.15
595.351,2897.55
595.848,2951.45
596.345,2968.0
596.843,3003.85
597.34,3032.15
597.837,3005.2
598.334,3025.15
598.831,3086.25
599.328,3055.05
599.824,3083.25
600.321,3105.9
600.818,3094.6
601.314,3125.6
601.811,3123.6
602.307,3095.5
602.804,3116.9
603.3,3076.65
603.796,3093.55
604.293,3049.2
604.789,3046.2
605.285,2981.4
605.781,2996.3
606.277,2969.3
606.772,2906.3
607.268,2915.8
607.764,2901.4
608.259,2868.8
608.755,2858.5
609.25,2834.05
609.746,2838.1
610.241,2814.0
610.736,2804.0
611.231,2782.0
611.727,2765.5
612.222,2763.55
612.716,2752.4
613.211,2758.4
613.706,2736.9
614.201,2765.85
614.695,2718.05
615.19,2720.7
615.684,2708.8
616.179,2708.75
616.673,2690.95
617.168,2695.8
617.662,2644.7
618.156,2673.25
618.65,2672.6
619.144,2677.85
619.638,2670.65
620.131,2662.9
620.625,2659.55
621.119,2655.7
621.612,2689.25
622.106,2718.95
622.599,2731.1
623.093,2638.1
623.586,2616.45
624.079,2611.15
624.572,2595.45
625.065,2593.15
625.558,2619.65
626.051,2637.55
626.544,2877.6
627.037,4118.6
627.529,4095.5
628.022,3734.25
628.514,4455.8
629.007,3804.95
629.499,3547.35
629.991,3333.2
630.483,3264.9
630.976,2911.5
631.468,2730.9
631.959,2623.4
632.451,2576.45
632.943,2565.75
633.435,2552.85
633.926,2502.9
634.418,2523.0
634.909,2519.35
635.401,2489.9
635.892,2496.05
636.383,2474.1
636.874,2500.85
637.365,2486.05
637.856,2481.45
638.347,2489.9
638.838,2482.75
639.329,2469.8
639.819,2458.3
640.31,2455.1
640.8,2464.1
641.291,2480.45
641.781,2433.9
642.271,2476.25
642.761,2465.3
643.251,2464.65
643.741,2478.6
644.231,2480.95
644.721,2477.7
645.211,2469.25
645.7,2466.2
646.19,2477.45
646.679,2445.05
647.169,2470.1
647.658,2465.6
648.147,2446.6
648.636,2428.75
649.125,2452.25
649.614,2475.55
650.103,2447.85
650.592,2425.4
651.08,2450.25
651.569,2445.2
652.058,2457.1
652.546,2434.6
653.034,2457.9
653.523,2400.95
654.011,2451.0
654.499,2431.0
654.987,2402.55
655.475,2380.7
655.963,2391.3
656.45,2376.4
656.938,2376.55
657.425,2376.95
657.913,2365.7
658.4,2327.45
658.888,2338.0
659.375,2314.4
659.862,2320.65
660.349,2289.55
660.836,2298.05
661.079,2285.9