File: spectra/VLFR_02-HDPE_nobio_Raman_72051eae.csv
nm,Intensity
526.486,830.6
527.033,829.9
527.579,830.1
528.126,831.1
528.672,831.7
529.219,831.7
529.765,831.0
530.311,829.8
530.857,830.5
531.403,830.4
531.948,832.3
532.494,830.8
533.039,829.5
533.585,831.9
534.13,941.5
534.675,925.8
535.22,912.5
535.764,904.3
536.309,894.6
536.854,891.4
537.398,887.6
537.942,887.4
538.486,883.5
539.03,875.7
539.574,877.0
540.118,872.8
540.662,875.0
541.205,870.8
541.749,867.2
542.292,868.1
542.835,866.8
543.378,866.9
543.921,865.6
544.464,866.0
545.006,863.8
545.549,862.8
546.091,861.1
546.634,862.7
547.176,863.8
547.718,860.7
548.26,860.7
548.802,862.2
549.343,860.3
549.885,857.4
550.426,859.7
550.968,858.0
551.509,860.4
552.05,861.4
552.591,859.4
553.132,863.7
553.673,865.2
554.214,867.5
554.754,868.8
555.295,871.0
555.835,874.4
556.375,874.0
556.915,876.0
557.455,881.0
557.995,883.0
558.535,890.3
559.075,887.7
559.614,887.8
560.154,887.5
560.693,887.5
561.232,890.3
561.772,893.8
562.311,901.6
562.85,904.3
563.388,919.1
563.927,960.3
564.466,934.9
565.004,935.9
565.543,929.1
566.081,1001.5
566.619,944.8
567.157,934.0
567.695,939.0
568.233,940.2
568.771,941.8
569.309,951.6
569.846,956.6
570.384,969.0
570.921,980.5
571.458,1075.4
571.995,1029.9
572.532,1014.4
573.069,1019.2
573.606,1032.5
574.143,1064.0
574.68,1066.6
575.216,1093.3
575.753,1183.5
576.289,1279.9
576.825,1276.6
577.361,1278.4
577.897,1279.4
578.433,1316.4
578.969,1370.9
579.505,1413.9
580.041,1455.5
580.576,1500.1
581.112,1544.7
581.647,1585.1
582.183,1631.3
582.718,1674.4
583.253,1726.3
583.788,1764.2
584.323,1783.2
584.858,1829.1
585.392,1879.9
585.927,1922.0
586.462,1969.9
586.996,2039.9
587.53,2101.5
588.065,2153.7
588.599,2208.1
589.133,2251.9
589.667,2320.7
590.201,2363.8
590.735,2410.1
591.268,2459.4
591.802,2484.6
592.335,2495.8
592.869,2499.9
593.402,2505.4
593.936,2505.4
594.469,2534.8
595.002,2547.5
595.535,2586.7
596.068,2605.9
596.601,2633.8
597.133,2670.6
597.666,2706.8
598.199,2759.7
598.731,2798.0
599.264,2869.8
599.796,2868.4
600.328,2883.5
600.86,2889.0
601.393,2849.7
601.925,2840.6
602.457,2790.3
602.988,2761.2
603.52,2709.9
604.052,2642.7
604.583,2556.0
605.115,2488.4
605.646,2389.3
606.178,2306.8
606.709,2234.6
607.24,2183.6
607.771,2125.4
608.302,2096.9
608.833,2037.5
609.364,2002.7
609.895,1962.9
610.426,1913.6
610.957,1890.4
611.487,1869.0
612.018,1842.6
612.548,1829.0
613.078,1801.7
613.609,1787.4
614.139,1767.0
614.669,1732.0
615.199,1703.8
615.729,1685.2
616.259,1663.5
616.789,1636.0
617.319,1621.1
617.849,1614.4
618.378,1593.3
618.908,1577.4
619.437,1574.3
619.967,1566.3
620.496,1544.1
621.025,1529.0
621.555,1534.0
622.084,1543.3
622.613,1546.4
623.142,1515.9
623.671,1504.0
624.2,1500.5
624.729,1511.4
625.258,1506.0
625.786,1510.9
626.315,1528.8
626.844,1707.9
627.372,2143.4
627.901,1896.0
628.429,2063.1
628.957,2006.6
629.486,1892.6
630.014,1804.1
630.542,1778.1
631.07,1661.9
631.598,1585.9
632.126,1582.9
632.654,1565.3
633.182,1574.4
633.71,1565.7
634.237,1573.1
634.765,1583.3
635.293,1575.3
635.82,1596.2
636.348,1610.2
636.875,1624.2
637.403,1613.0
637.93,1635.6
638.458,1628.5
638.985,1638.9
639.512,1651.4
640.039,1668.0
640.566,1677.4
641.093,1696.2
641.62,1702.6
642.147,1711.4
642.674,1712.1
643.201,1724.6
643.728,1707.9
644.255,1717.2
644.781,1711.9
645.308,1727.1
645.835,1705.0
646.361,1708.4
646.888,1718.6
647.414,1714.8
647.941,1705.2
648.467,1708.7
648.993,1705.9
649.52,1682.6
650.046,1671.3
650.572,1675.0
651.098,1667.9
651.625,1674.8
652.151,1674.3
652.677,1671.7
653.203,1669.6
653.729,1671.0
654.255,1674.1
654.78,1662.7
655.306,1643.0
655.832,1646.9
656.358,1626.1
656.884,1621.9
657.409,1596.8
657.935,1575.3
658.461,1567.6
658.986,1541.9
659.512,1511.8
660.037,1499.1
660.563,1466.3
661.088,1444.3
661.614,1413.4
662.139,1394.5
662.664,1369.2
663.058,1357.8