File: spectra/VLFR_02-HDPE_nobio_Raman_8da6476b.csv
nm,Intensity
526.486,829.3
527.033,827.6
527.579,828.3
528.126,827.7
528.672,829.7
529.219,828.6
529.765,829.6
530.311,829.0
530.857,830.1
531.403,828.7
531.948,831.6
532.494,830.0
533.039,829.8
533.585,829.3
534.13,882.7
534.675,874.9
535.22,870.0
535.764,857.8
536.309,852.9
536.854,852.1
537.398,850.4
537.942,849.8
538.486,849.7
539.03,848.1
539.574,844.7
540.118,845.2
540.662,843.7
541.205,843.3
541.749,843.1
542.292,845.7
542.835,845.3
543.378,843.5
543.921,842.7
544.464,842.8
545.006,844.1
545.549,840.4
546.091,844.3
546.634,843.6
547.176,842.4
547.718,842.2
548.26,843.8
548.802,844.1
549.343,844.4
549.885,844.6
550.426,845.0
550.968,842.4
551.509,842.3
552.05,843.6
552.591,842.8
553.132,843.5
553.673,844.4
554.214,844.6
554.754,844.8
555.295,845.8
555.835,847.8
556.375,846.3
556.915,849.3
557.455,849.6
557.995,850.3
558.535,851.8
559.075,849.7
559.614,850.0
560.154,848.3
560.693,846.3
561.232,847.6
561.772,849.8
562.311,852.2
562.85,852.5
563.388,855.3
563.927,913.1
564.466,875.2
565.004,867.3
565.543,863.6
566.081,972.1
566.619,870.3
567.157,857.4
567.695,855.5
568.233,852.0
568.771,852.8
569.309,851.6
569.846,855.6
570.384,856.6
570.921,862.7
571.458,952.4
571.995,876.6
572.532,859.4
573.069,851.2
573.606,856.6
574.143,863.1
574.68,854.4
575.216,861.5
575.753,941.9
576.289,939.1
576.825,907.7
577.361,888.1
577.897,864.3
578.433,857.1
578.969,860.4
579.505,856.0
580.041,855.5
580.576,857.5
581.112,855.1
581.647,856.3
582.183,857.6
582.718,857.4
583.253,853.2
583.788,856.0
584.323,853.4
584.858,856.2
585.392,855.2
585.927,855.3
586.462,855.5
586.996,856.0
587.53,857.5
588.065,857.2
588.599,856.6
589.133,854.7
589.667,856.0
590.201,853.7
590.735,855.9
591.268,854.9
591.802,855.1
592.335,855.4
592.869,856.6
593.402,854.8
593.936,854.8
594.469,853.7
595.002,856.5
595.535,856.5
596.068,854.7
596.601,857.1
597.133,855.7
597.666,856.2
598.199,859.4
598.731,856.8
599.264,858.4
599.796,862.0
600.328,857.7
600.86,859.4
601.393,858.1
601.925,860.9
602.457,858.5
602.988,860.6
603.52,857.1
604.052,857.3
604.583,858.4
605.115,857.0
605.646,853.2
606.178,855.5
606.709,853.3
607.24,854.2
607.771,851.1
608.302,855.1
608.833,853.7
609.364,854.9
609.895,853.6
610.426,853.4
610.957,858.4
611.487,855.8
612.018,852.8
612.548,854.0
613.078,853.6
613.609,852.5
614.139,852.9
614.669,851.4
615.199,854.9
615.729,852.2
616.259,856.3
616.789,856.7
617.319,859.9
617.849,860.3
618.378,862.0
618.908,860.3
619.437,859.6
619.967,859.2
620.496,862.1
621.025,865.1
621.555,871.6
622.084,885.5
622.613,886.9
623.142,869.3
623.671,864.9
624.2,862.7
624.729,860.3
625.258,867.0
625.786,868.4
626.315,886.5
626.844,1046.2
627.372,1411.0
627.901,1184.5
628.429,1275.3
628.957,1231.6
629.486,1142.6
630.014,1052.5
630.542,1033.5
631.07,945.0
631.598,888.7
632.126,869.4
632.654,864.9
633.182,863.5
633.71,860.5
634.237,857.7
634.765,855.8
635.293,853.3
635.82,851.2
636.348,854.8
636.875,853.7
637.403,848.3
637.93,849.6
638.458,848.8
638.985,847.8
639.512,848.7
640.039,848.8
640.566,850.5
641.093,847.8
641.62,846.9
642.147,848.2
642.674,847.3
643.201,846.6
643.728,847.4
644.255,847.8
644.781,849.1
645.308,846.3
645.835,847.0
646.361,844.8
646.888,844.6
647.414,844.9
647.941,848.9
648.467,845.9
648.993,846.7
649.52,844.8
650.046,845.6
650.572,843.1
651.098,842.3
651.625,846.2
652.151,847.1
652.677,843.6
653.203,847.0
653.729,845.6
654.255,845.2
654.78,843.8
655.306,844.3
655.832,845.1
656.358,843.7
656.884,846.1
657.409,845.8
657.935,846.3
658.461,845.8
658.986,845.9
659.512,844.8
660.037,846.1
660.563,845.5
661.088,844.2
661.614,845.3
662.139,843.3
662.664,842.5
663.058,842.2