File: spectra/VLFR_01-LDPE_bio_Raman_cf41ce3c.csv
nm,Intensity
526.495,829.8
527.042,829.7
527.589,828.3
528.136,828.1
528.682,829.7
529.229,828.8
529.775,826.9
530.321,829.2
530.867,828.8
531.413,829.0
531.959,830.7
532.505,829.3
533.051,829.3
533.596,830.0
534.141,893.7
534.687,884.0
535.232,872.4
535.777,860.3
536.321,859.2
536.866,854.5
537.41,854.7
537.955,854.2
538.499,850.8
539.043,847.4
539.587,846.0
540.131,844.7
540.675,844.6
541.219,843.1
541.762,843.6
542.305,842.9
542.849,841.7
543.392,842.0
543.935,842.6
544.478,842.8
545.02,844.3
545.563,843.2
546.106,843.0
546.648,842.2
547.19,844.4
547.732,842.9
548.274,845.5
548.816,844.8
549.358,843.7
549.9,844.2
550.441,843.5
550.983,841.8
551.524,844.2
552.065,842.2
552.606,843.1
553.147,847.4
553.688,847.4
554.229,847.3
554.769,847.3
555.31,847.0
555.85,851.0
556.391,849.6
556.931,850.8
557.471,852.9
558.011,856.5
558.551,854.0
559.09,853.7
559.63,850.8
560.169,853.2
560.709,850.4
561.248,852.2
561.787,851.7
562.326,854.3
562.865,856.1
563.404,862.9
563.943,950.7
564.481,880.2
565.02,875.2
565.558,871.3
566.096,1045.1
566.634,872.8
567.172,864.8
567.71,864.3
568.248,857.6
568.786,857.6
569.324,859.4
569.861,858.9
570.399,860.7
570.936,871.9
571.473,1033.8
572.01,890.0
572.547,869.7
573.084,859.6
573.621,859.5
574.158,872.2
574.694,860.5
575.231,870.7
575.767,954.3
576.303,992.1
576.84,938.8
577.376,909.3
577.912,872.0
578.448,866.7
578.984,866.2
579.519,867.6
580.055,865.7
580.59,870.3
581.126,869.3
581.661,870.4
582.196,872.3
582.731,873.1
583.267,874.7
583.801,876.1
584.336,880.3
584.871,879.2
585.406,884.1
585.94,888.7
586.475,890.0
587.009,894.1
587.543,897.5
588.078,901.4
588.612,902.6
589.146,902.9
589.68,909.6
590.214,909.2
590.747,909.3
591.281,914.9
591.815,920.2
592.348,922.3
592.881,919.6
593.415,923.2
593.948,921.7
594.481,925.3
595.014,926.6
595.547,930.1
596.08,927.8
596.613,932.2
597.146,930.3
597.678,935.0
598.211,931.9
598.743,937.1
599.276,938.7
599.808,943.7
600.34,943.1
600.872,943.2
601.404,938.3
601.936,943.8
602.468,944.6
603.0,941.0
603.532,935.9
604.064,936.3
604.595,931.9
605.127,926.9
605.658,925.3
606.189,922.8
606.721,921.5
607.252,919.2
607.783,916.2
608.314,911.4
608.845,912.6
609.376,913.7
609.907,913.9
610.438,911.5
610.968,910.8
611.499,910.2
612.029,906.4
612.56,905.5
613.09,902.4
613.621,902.1
614.151,901.6
614.681,902.8
615.211,901.2
615.741,899.4
616.271,901.4
616.801,904.1
617.331,905.3
617.861,905.3
618.39,902.1
618.92,899.3
619.45,902.9
619.979,904.2
620.509,902.4
621.038,905.5
621.567,917.7
622.096,935.0
622.626,929.7
623.155,905.4
623.684,902.3
624.213,897.8
624.742,897.3
625.271,903.0
625.799,905.2
626.328,934.5
626.857,1148.4
627.386,1576.2
627.914,1275.6
628.443,1454.9
628.971,1387.7
629.5,1274.3
630.028,1151.1
630.556,1122.3
631.084,996.7
631.613,926.3
632.141,908.0
632.669,897.8
633.197,897.6
633.725,895.9
634.253,892.4
634.781,885.6
635.308,888.8
635.836,892.4
636.364,888.9
636.891,887.8
637.419,887.1
637.947,885.3
638.474,884.5
639.002,887.7
639.529,886.2
640.056,885.6
640.584,883.9
641.111,887.4
641.638,886.7
642.165,886.7
642.692,886.7
643.219,886.2
643.746,886.4
644.273,888.2
644.8,884.2
645.327,886.5
645.854,887.1
646.381,889.2
646.908,891.6
647.434,887.3
647.961,892.1
648.488,891.5
649.014,888.2
649.541,886.0
650.067,890.2
650.594,886.6
651.12,889.2
651.646,888.6
652.173,889.1
652.699,887.4
653.225,889.6
653.752,890.4
654.278,888.8
654.804,891.1
655.33,887.4
655.856,889.1
656.382,887.1
656.908,885.4
657.434,891.2
657.96,891.1
658.486,888.0
659.012,883.3
659.538,886.5
660.064,887.5
660.589,883.0
661.115,883.3
661.641,881.5
662.166,877.0
662.692,879.6
663.086,874.8