File: spectra/VLFR_08-PLA_bio_Raman_78ae3bdf.csv
nm,Intensity
526.508,829.9
527.055,830.1
527.602,830.5
528.149,829.5
528.695,831.2
529.241,829.8
529.787,831.0
530.334,829.4
530.879,830.2
531.425,831.1
531.971,839.1
532.516,832.4
533.062,829.8
533.607,829.9
534.152,893.3
534.697,885.5
535.242,883.9
535.786,879.9
536.331,881.4
536.876,882.3
537.42,879.5
537.964,879.6
538.508,877.3
539.052,880.2
539.596,880.4
540.14,878.8
540.683,882.8
541.227,882.1
541.77,882.6
542.313,883.6
542.856,882.5
543.399,884.5
543.942,890.4
544.485,886.6
545.027,887.3
545.57,886.4
546.112,886.4
546.654,891.4
547.196,888.0
547.738,888.6
548.28,890.7
548.822,891.8
549.363,890.3
549.905,893.6
550.446,898.8
550.988,894.2
551.529,895.9
552.07,898.2
552.611,900.3
553.152,897.4
553.692,900.8
554.233,901.6
554.773,896.7
555.314,900.4
555.854,899.8
556.394,897.3
556.934,900.0
557.474,899.2
558.014,919.2
558.553,905.1
559.093,904.5
559.632,905.8
560.172,904.0
560.711,904.9
561.25,901.2
561.789,903.4
562.328,904.3
562.867,904.8
563.406,911.7
563.944,907.1
564.483,903.8
565.021,916.3
565.559,911.8
566.098,914.8
566.636,909.7
567.174,906.5
567.711,908.7
568.249,909.6
568.787,912.7
569.324,915.4
569.862,910.4
570.399,911.1
570.936,912.4
571.474,913.3
572.011,915.1
572.548,913.7
573.084,918.7
573.621,918.4
574.158,913.6
574.694,918.8
575.231,917.1
575.767,913.6
576.303,912.8
576.84,928.3
577.376,921.5
577.912,919.9
578.447,917.6
578.983,917.9
579.519,916.6
580.054,917.7
580.59,917.9
581.125,917.6
581.661,919.6
582.196,916.3
582.731,921.1
583.266,918.8
583.801,919.8
584.336,919.3
584.87,922.4
585.405,918.1
585.94,923.4
586.474,923.2
587.008,931.4
587.543,932.1
588.077,919.6
588.611,922.1
589.145,921.0
589.679,922.0
590.213,916.6
590.747,920.4
591.28,918.1
591.814,921.2
592.347,920.9
592.881,919.2
593.414,917.5
593.947,921.6
594.48,918.4
595.014,920.4
595.547,918.6
596.079,915.1
596.612,917.2
597.145,920.4
597.678,917.0
598.21,917.9
598.743,917.1
599.275,923.8
599.807,917.3
600.34,919.6
600.872,918.3
601.404,918.8
601.936,914.5
602.468,915.9
603.0,917.5
603.532,919.9
604.063,915.1
604.595,915.2
605.126,912.1
605.658,911.6
606.189,910.9
606.721,916.6
607.252,911.8
607.783,914.6
608.314,914.9
608.845,914.9
609.376,914.3
609.907,915.1
610.438,910.9
610.968,910.4
611.499,911.0
612.03,911.8
612.56,915.2
613.091,910.8
613.621,913.2
614.151,913.6
614.681,917.4
615.212,911.5
615.742,913.8
616.272,909.1
616.802,910.7
617.332,910.9
617.861,908.1
618.391,910.2
618.921,914.3
619.45,913.9
619.98,910.2
620.509,909.8
621.039,908.5
621.568,907.4
622.097,910.4
622.627,911.0
623.156,906.7
623.685,911.1
624.214,911.3
624.743,909.2
625.272,907.5
625.801,906.6
626.33,909.6
626.858,906.8
627.387,906.6
627.916,907.7
628.444,920.6
628.973,915.1
629.501,917.6
630.029,915.3
630.558,922.6
631.086,981.9
631.614,949.3
632.142,923.4
632.67,921.0
633.198,935.2
633.726,924.2
634.254,913.9
634.782,903.0
635.31,904.2
635.838,902.6
636.365,901.0
636.893,900.1
637.421,899.2
637.948,901.1
638.476,897.8
639.003,899.0
639.531,899.1
640.058,898.9
640.585,895.7
641.113,899.5
641.64,897.4
642.167,896.8
642.694,894.8
643.221,898.2
643.748,894.3
644.275,892.3
644.802,892.6
645.329,891.0
645.856,892.8
646.382,892.0
646.909,891.1
647.436,896.9
647.962,891.1
648.489,891.0
649.016,889.0
649.542,890.0
650.069,887.1
650.595,887.2
651.121,888.8
651.648,892.9
652.174,887.5
652.7,888.6
653.227,886.0
653.753,888.4
654.279,886.5
654.805,882.5
655.331,886.9
655.857,885.6
656.383,883.8
656.909,883.5
657.435,883.3
657.961,886.3
658.487,883.4
659.013,883.0
659.538,882.3
660.064,882.2
660.59,882.3
661.116,881.7
661.641,882.2
662.167,878.0
662.692,878.8
663.087,876.4