File: spectra/VLFR_02-HDPE_bio_Raman_524f6fc1.csv
nm,Intensity
528.65,1844.25
529.155,1845.7
529.66,1844.85
530.165,1845.8
530.67,1845.85
531.175,1848.1
531.68,1892.4
532.185,4672.1
532.69,1848.3
533.194,1846.85
533.699,1983.75
534.204,2402.15
534.708,2395.35
535.213,2342.7
535.717,2196.35
536.222,2129.05
536.726,2124.4
537.231,2108.35
537.735,2102.15
538.239,2100.25
538.743,2088.5
539.247,2076.35
539.751,2066.4
540.255,2054.5
540.759,2057.2
541.263,2056.75
541.767,2062.15
542.271,2052.2
542.775,2056.3
543.279,2065.25
543.782,2066.65
544.286,2071.95
544.789,2056.95
545.293,2067.25
545.796,2076.95
546.3,2070.7
546.803,2079.3
547.306,2072.85
547.81,2088.55
548.313,2082.2
548.816,2077.2
549.319,2083.1
549.822,2073.2
550.325,2084.9
550.828,2099.35
551.331,2095.2
551.834,2092.3
552.337,2099.25
552.839,2102.35
553.342,2115.85
553.844,2124.85
554.347,2134.75
554.849,2134.8
555.352,2142.4
555.854,2154.0
556.357,2148.15
556.859,2181.8
557.361,2181.35
557.863,2199.15
558.365,2226.4
558.867,2208.65
559.369,2195.15
559.871,2192.15
560.373,2185.35
560.875,2193.0
561.377,2200.65
561.878,2219.15
562.38,2224.2
562.881,2259.3
563.383,2295.45
563.884,3251.65
564.386,2538.85
564.887,2424.9
565.388,2365.75
565.89,2862.3
566.391,3079.9
566.892,2318.5
567.393,2461.2
567.894,2275.15
568.395,2263.4
568.896,2258.4
569.396,2272.75
569.897,2272.75
570.398,2342.85
570.898,2403.4
571.399,3863.45
571.9,2696.55
572.4,2391.6
572.9,2294.1
573.401,2302.55
573.901,2414.55
574.401,2274.65
574.901,2297.45
575.401,3051.6
575.901,2931.1
576.401,3649.2
576.901,3163.8
577.401,2726.9
577.901,2391.25
578.4,2315.35
578.9,2303.25
579.399,2298.45
579.899,2303.65
580.398,2296.8
580.898,2300.85
581.397,2299.3
581.896,2307.6
582.395,2297.6
582.895,2282.8
583.394,2297.2
583.893,2297.1
584.391,2302.9
584.89,2299.3
585.389,2315.3
585.888,2295.35
586.386,2315.4
586.885,2319.6
587.384,2326.0
587.882,2344.4
588.38,2350.6
588.879,2367.05
589.377,2364.95
589.875,2378.45
590.373,2381.05
590.871,2397.75
591.369,2392.9
591.867,2401.2
592.365,2417.2
592.863,2415.9
593.361,2416.4
593.858,2426.25
594.356,2425.85
594.853,2422.15
595.351,2455.85
595.848,2440.7
596.345,2436.0
596.843,2455.4
597.34,2489.1
597.837,2486.85
598.334,2466.35
598.831,2500.8
599.328,2523.65
599.824,2516.95
600.321,2509.65
600.818,2516.5
601.314,2530.0
601.811,2555.1
602.307,2562.2
602.804,2518.35
603.3,2530.25
603.796,2494.4
604.293,2489.7
604.789,2479.95
605.285,2463.6
605.781,2448.4
606.277,2449.85
606.772,2437.95
607.268,2416.65
607.764,2407.15
608.259,2414.25
608.755,2405.3
609.25,2383.4
609.746,2378.65
610.241,2393.85
610.736,2413.05
611.231,2426.6
611.727,2382.25
612.222,2365.7
612.716,2370.65
613.211,2366.95
613.706,2365.4
614.201,2359.9
614.695,2381.5
615.19,2368.4
615.684,2378.65
616.179,2385.35
616.673,2426.8
617.168,2490.5
617.662,2486.75
618.156,2501.75
618.65,2464.7
619.144,2515.65
619.638,2577.5
620.131,2535.15
620.625,2549.25
621.119,2677.2
621.612,2869.65
622.106,3275.75
622.599,3129.6
623.093,2691.3
623.586,2550.7
624.079,2548.85
624.572,2535.95
625.065,2580.4
625.558,2676.1
626.051,2946.15
626.544,4526.6
627.037,12261.0
627.529,11361.5
628.022,8949.55
628.514,14625.3
629.007,8627.85
629.499,7141.95
629.991,5705.35
630.483,5411.0
630.976,3950.5
631.468,2891.9
631.959,2643.55
632.451,2575.45
632.943,2509.2
633.435,2456.55
633.926,2441.65
634.418,2383.2
634.909,2369.7
635.401,2353.05
635.892,2345.35
636.383,2336.45
636.874,2314.25
637.365,2295.2
637.856,2263.85
638.347,2274.25
638.838,2261.25
639.329,2254.2
639.819,2255.0
640.31,2243.75
640.8,2254.35
641.291,2231.35
641.781,2261.85
642.271,2257.7
642.761,2242.5
643.251,2238.05
643.741,2236.25
644.231,2246.05
644.721,2234.8
645.211,2232.95
645.7,2232.95
646.19,2227.4
646.679,2247.2
647.169,2232.95
647.658,2221.55
648.147,2228.8
648.636,2206.65
649.125,2224.0
649.614,2210.85
650.103,2196.6
650.592,2220.85
651.08,2212.95
651.569,2197.25
652.058,2202.6
652.546,2198.25
653.034,2187.75
653.523,2182.1
654.011,2198.65
654.499,2181.85
654.987,2176.15
655.475,2175.5
655.963,2191.2
656.45,2157.25
656.938,2156.25
657.425,2164.7
657.913,2143.85
658.4,2142.0
658.888,2154.45
659.375,2141.65
659.862,2136.95
660.349,2143.95
660.836,2123.5
661.079,2119.4