File: spectra/VLFR_06-PET_bio_Raman_95da8dbb.csv
nm,Intensity
528.637,1840.3
529.143,1839.0
529.648,1837.8
530.153,1839.8
530.659,1838.4
531.164,1844.7
531.669,1903.0
532.174,3937.7
532.679,1844.1
533.184,1849.9
533.689,3263.7
534.194,5954.4
534.699,4994.5
535.203,3973.4
535.708,3256.3
536.213,2772.6
536.717,2634.8
537.222,2558.6
537.726,2498.4
538.231,2525.2
538.735,2518.1
539.24,2581.0
539.744,2653.9
540.248,2612.2
540.752,2477.6
541.256,2437.6
541.761,2441.8
542.265,2451.9
542.769,2469.5
543.272,2450.0
543.776,2496.2
544.28,2502.9
544.784,2487.5
545.288,2512.1
545.791,2528.7
546.295,2547.0
546.798,2576.7
547.302,2581.4
547.805,2587.3
548.308,2617.1
548.812,2618.0
549.315,2601.9
549.818,2620.7
550.321,2734.5
550.824,3003.9
551.327,2715.7
551.83,2724.6
552.333,2780.3
552.836,3038.1
553.339,2771.2
553.842,2824.1
554.344,2826.7
554.847,2852.7
555.349,3050.5
555.852,3184.5
556.354,3219.2
556.857,3304.9
557.359,3905.7
557.861,3542.6
558.363,3387.8
558.866,3265.0
559.368,3090.3
559.87,3056.2
560.372,3063.4
560.873,3120.8
561.375,3185.2
561.877,3217.5
562.379,3272.7
562.88,3393.7
563.382,3322.0
563.883,3280.2
564.385,3378.0
564.886,3620.2
565.388,3857.3
565.889,4071.5
566.39,3593.0
566.891,3467.3
567.392,3634.1
567.893,3700.8
568.394,3501.7
568.895,3511.2
569.396,3566.7
569.897,3727.3
570.398,4072.0
570.898,4685.3
571.399,5069.6
571.899,4401.3
572.4,3953.4
572.9,3755.6
573.4,3739.3
573.901,3857.3
574.401,3800.7
574.901,3827.0
575.401,3992.6
575.901,3951.1
576.401,4126.0
576.901,4104.1
577.401,3943.0
577.9,3856.7
578.4,3921.3
578.9,3884.2
579.399,3940.6
579.899,4020.3
580.398,4002.7
580.897,4137.3
581.397,4287.8
581.896,7187.0
582.395,6227.7
582.894,4192.1
583.393,4074.4
583.892,4159.1
584.391,4250.7
584.889,4320.1
585.388,5049.0
585.887,7317.8
586.385,6130.7
586.884,4536.5
587.382,4332.2
587.881,4320.0
588.379,4327.8
588.877,4285.5
589.375,4224.5
589.874,4246.7
590.372,4213.4
590.87,4173.1
591.367,4277.4
591.865,4323.8
592.363,4289.7
592.861,4307.3
593.358,4309.5
593.856,4329.2
594.353,4339.3
594.851,4290.6
595.348,4363.7
595.845,4333.9
596.342,4387.5
596.84,4442.5
597.337,4416.8
597.833,4387.8
598.33,4445.8
598.827,4387.1
599.324,4426.1
599.821,4416.4
600.317,4503.1
600.814,4502.0
601.31,4434.6
601.807,4482.3
602.303,4430.5
602.799,4502.2
603.295,4478.0
603.791,4525.1
604.287,4436.0
604.783,4437.2
605.279,4443.8
605.775,4492.1
606.271,4439.1
606.766,4559.4
607.262,4498.1
607.757,4564.0
608.253,4502.9
608.748,4511.5
609.243,4593.5
609.738,4516.7
610.233,4574.3
610.729,4542.8
611.223,4523.7
611.718,4489.7
612.213,4533.4
612.708,4514.7
613.202,4521.6
613.697,4539.4
614.192,4575.4
614.686,4606.2
615.18,4566.7
615.675,4651.9
616.169,4538.5
616.663,4603.0
617.157,4643.9
617.651,4676.7
618.145,4661.7
618.638,4637.5
619.132,4720.6
619.626,4715.6
620.119,4614.2
620.613,4691.0
621.106,4700.9
621.599,4636.1
622.093,4747.0
622.586,4688.1
623.079,4662.5
623.572,4707.3
624.065,4826.5
624.558,4774.4
625.05,4908.1
625.543,4735.5
626.036,4810.8
626.528,4787.7
627.02,4749.0
627.513,4925.9
628.005,4882.3
628.497,5078.1
628.989,5063.8
629.481,5083.4
629.973,5072.7
630.465,5060.9
630.957,5269.9
631.449,5848.1
631.94,5901.7
632.432,5559.8
632.923,5399.0
633.414,5439.2
633.906,5432.2
634.397,5233.7
634.888,5256.7
635.379,5252.0
635.87,5586.4
636.361,6185.2
636.852,5813.1
637.342,5405.1
637.833,5385.9
638.323,5304.9
638.814,5297.9
639.304,5290.6
639.794,5273.0
640.285,5241.8
640.775,5302.3
641.265,5215.1
641.755,5365.2
642.244,5296.6
642.734,5191.4
643.224,5229.3
643.713,5298.0
644.203,5273.5
644.692,5219.2
645.181,5183.4
645.671,5269.7
646.16,5286.1
646.649,5166.5
647.138,5252.6
647.627,5278.6
648.115,5228.0
648.604,5129.9
649.093,5170.5
649.581,5114.0
650.07,5048.3
650.558,5037.8
651.046,5195.6
651.534,5062.5
652.023,5067.2
652.511,5004.5
652.998,4845.3
653.486,4935.6
653.974,4941.3
654.462,4816.0
654.949,4874.9
655.437,4890.9
655.924,4745.6
656.411,4724.4
656.898,4761.6
657.385,4814.5
657.872,4621.7
658.359,4694.2
658.846,4597.9
659.333,4535.7
659.82,4440.1
660.306,4481.7
660.793,4511.2
661.036,4440.6