File: spectra/VLFR_02-HDPE_bio_Raman_67585c36.csv
nm,Intensity
528.626,1865.0
529.132,1865.9
529.637,1866.2
530.143,1867.4
530.648,1866.8
531.153,1866.1
531.658,1894.3
532.164,3505.8
532.669,1868.3
533.174,1867.9
533.679,1912.4
534.184,2070.5
534.689,2095.5
535.194,2124.7
535.699,2135.1
536.203,2112.0
536.708,2090.5
537.213,2131.0
537.717,2104.4
538.222,2104.8
538.726,2095.6
539.231,2089.8
539.735,2080.1
540.239,2082.4
540.744,2103.3
541.248,2112.0
541.752,2106.6
542.256,2108.0
542.76,2114.7
543.264,2120.3
543.768,2146.6
544.272,2185.2
544.776,2131.9
545.28,2145.1
545.784,2161.9
546.287,2407.2
546.791,2286.7
547.294,2165.0
547.798,2159.9
548.301,2161.3
548.805,2164.8
549.308,2184.1
549.811,2195.2
550.315,2260.2
550.818,2183.3
551.321,2165.5
551.824,2200.0
552.327,2176.5
552.83,2164.8
553.333,2167.4
553.835,2178.6
554.338,2181.8
554.841,2185.4
555.343,2184.3
555.846,2179.8
556.349,2190.3
556.851,2203.5
557.353,2191.4
557.856,2221.5
558.358,2196.0
558.86,2217.2
559.362,2228.2
559.864,2223.7
560.366,2221.5
560.868,2240.6
561.37,2261.6
561.872,2422.1
562.374,4095.6
562.876,2306.9
563.377,2262.4
563.879,2317.8
564.38,2302.4
564.882,2299.2
565.383,2286.6
565.885,2350.2
566.386,2494.2
566.887,2315.7
567.388,2278.2
567.889,2299.5
568.391,2281.3
568.892,2284.3
569.392,2295.0
569.893,2295.7
570.394,2297.5
570.895,2292.9
571.395,2420.7
571.896,2348.5
572.397,2328.0
572.897,2326.8
573.397,2329.0
573.898,2306.2
574.398,2308.6
574.898,2315.9
575.398,2324.9
575.898,2375.3
576.398,2425.3
576.898,2416.2
577.398,2359.5
577.898,2333.6
578.398,2320.5
578.897,2323.6
579.397,2337.6
579.896,2388.4
580.396,2378.1
580.895,2360.9
581.395,2354.2
581.894,2358.3
582.393,2336.4
582.892,2354.7
583.391,2347.8
583.89,2358.8
584.389,2370.6
584.888,2356.4
585.387,2360.4
585.886,2367.7
586.384,2376.1
586.883,2367.7
587.381,2380.1
587.88,2394.1
588.378,2395.1
588.876,2384.6
589.375,2402.5
589.873,2401.5
590.371,2414.2
590.869,2442.5
591.367,2438.6
591.865,2439.4
592.363,2424.8
592.86,2459.9
593.358,2442.0
593.856,2444.5
594.353,2449.9
594.851,2443.5
595.348,2482.4
595.845,2476.5
596.342,2483.5
596.84,2460.6
597.337,2497.3
597.834,2484.3
598.331,2489.1
598.828,2487.8
599.324,2495.9
599.821,2514.0
600.318,2495.3
600.814,2496.5
601.311,2484.5
601.807,2505.4
602.304,2495.0
602.8,2490.7
603.296,2503.6
603.792,2514.5
604.288,2485.0
604.784,2504.2
605.28,2484.5
605.776,2487.2
606.272,2498.4
606.767,2491.8
607.263,2501.7
607.759,2474.1
608.254,2475.4
608.749,2497.8
609.245,2478.7
609.74,2483.2
610.235,2487.0
610.73,2494.3
611.225,2470.9
611.72,2483.8
612.215,2475.7
612.71,2499.7
613.204,2488.6
613.699,2480.8
614.194,2483.7
614.688,2485.5
615.182,2499.7
615.677,2477.2
616.171,2462.6
616.665,2462.0
617.159,2464.9
617.653,2479.9
618.147,2495.1
618.641,2474.9
619.135,2481.7
619.628,2499.1
620.122,2476.1
620.615,2485.4
621.109,2450.6
621.602,2513.7
622.095,2538.5
622.589,2505.7
623.082,2467.2
623.575,2469.0
624.068,2488.3
624.561,2449.7
625.053,2477.5
625.546,2465.2
626.039,2480.1
626.531,2557.9
627.024,3056.2
627.516,3016.2
628.008,2872.2
628.501,3249.9
628.993,2877.2
629.485,2793.8
629.977,2666.0
630.469,2660.9
630.96,2559.0
631.452,2485.0
631.944,2459.1
632.435,2461.6
632.927,2439.9
633.418,2440.1
633.91,2431.8
634.401,2429.3
634.892,2446.1
635.383,2401.2
635.874,2410.0
636.365,2420.5
636.856,2420.5
637.346,2420.6
637.837,2410.7
638.327,2425.8
638.818,2422.3
639.308,2404.4
639.799,2387.8
640.289,2421.8
640.779,2425.2
641.269,2406.5
641.759,2394.7
642.249,2401.8
642.738,2410.2
643.228,2423.0
643.718,2438.9
644.207,2420.7
644.697,2431.8
645.186,2400.6
645.675,2420.6
646.164,2424.5
646.653,2410.9
647.142,2427.5
647.631,2428.2
648.12,2427.1
648.609,2430.9
649.098,2428.1
649.586,2470.6
650.075,2470.1
650.563,2471.0
651.051,2433.4
651.539,2419.8
652.027,2399.8
652.515,2406.1
653.003,2418.7
653.491,2381.1
653.979,2415.3
654.467,2389.3
654.954,2369.7
655.442,2373.5
655.929,2351.8
656.416,2351.5
656.904,2346.2
657.391,2344.7
657.878,2300.7
658.365,2336.4
658.851,2323.2
659.338,2280.9
659.825,2293.1
660.311,2323.0
660.798,2299.9
661.041,2331.0