File: spectra/VLFR_01-LDPE_bio_Raman_090b7fb9.csv
nm,Intensity
528.635,1836.2
529.14,1835.6
529.645,1835.4
530.151,1835.0
530.656,1838.4
531.161,1837.1
531.666,1873.4
532.171,3706.8
532.676,1837.6
533.181,1838.4
533.686,2020.5
534.191,2409.4
534.696,2337.7
535.201,2268.0
535.705,2172.7
536.21,2124.2
536.715,2110.5
537.219,2109.9
537.724,2112.7
538.228,2078.3
538.733,2074.9
539.237,2047.1
539.741,2038.3
540.246,2022.3
540.75,2029.3
541.254,2021.6
541.758,2023.9
542.262,2028.1
542.766,2029.4
543.27,2041.5
543.774,2049.6
544.278,2040.5
544.781,2041.0
545.285,2036.5
545.789,2039.2
546.292,2045.3
546.796,2046.2
547.299,2036.0
547.803,2034.0
548.306,2023.9
548.809,2019.2
549.313,2008.2
549.816,2001.6
550.319,2009.4
550.822,2005.1
551.325,2002.8
551.828,2009.5
552.331,2010.8
552.834,2007.6
553.337,2039.5
553.839,2038.1
554.342,2060.0
554.845,2073.4
555.347,2071.5
555.85,2096.1
556.352,2109.7
556.854,2123.5
557.357,2146.6
557.859,2168.7
558.361,2188.2
558.863,2162.2
559.365,2134.1
559.867,2123.6
560.369,2114.5
560.871,2130.0
561.373,2134.2
561.875,2143.9
562.377,2166.0
562.878,2199.0
563.38,2259.5
563.881,2878.6
564.383,2504.0
564.884,2393.1
565.386,2330.1
565.887,2682.5
566.388,2605.0
566.889,2280.8
567.391,2360.6
567.892,2253.8
568.393,2258.2
568.893,2251.6
569.394,2293.6
569.895,2301.8
570.396,2346.3
570.897,2450.8
571.397,3439.8
571.898,2833.4
572.398,2560.5
572.899,2493.3
573.399,2504.9
573.899,2615.1
574.399,2534.0
574.9,2618.3
575.4,2998.4
575.9,3323.4
576.4,4081.4
576.899,3853.8
577.399,3450.8
577.899,3278.3
578.399,3372.4
578.898,3415.1
579.398,3570.5
579.897,3678.0
580.397,3816.9
580.896,3944.5
581.396,3884.4
581.895,4023.6
582.394,4062.2
582.893,4054.8
583.392,4074.5
583.891,4042.0
584.39,4015.9
584.889,3984.4
585.387,3900.3
585.886,3936.4
586.385,4010.9
586.883,4091.7
587.382,4038.1
587.88,3965.6
588.379,4039.6
588.877,4076.4
589.375,4065.8
589.873,4096.1
590.371,4123.2
590.869,4171.6
591.367,4199.7
591.865,4250.8
592.363,4180.9
592.86,4218.0
593.358,4250.7
593.856,4221.7
594.353,4302.0
594.851,4379.3
595.348,4308.4
595.845,4366.9
596.342,4447.0
596.84,4501.2
597.337,4600.0
597.834,4672.2
598.331,4710.7
598.827,4782.6
599.324,4858.3
599.821,4930.5
600.318,4942.5
600.814,4971.7
601.311,4927.4
601.807,4891.3
602.303,4849.2
602.8,4776.8
603.296,4743.0
603.792,4569.4
604.288,4451.8
604.784,4326.9
605.28,4215.2
605.776,4082.2
606.272,4087.1
606.767,3930.7
607.263,3910.6
607.758,3803.1
608.254,3701.0
608.749,3665.3
609.244,3595.1
609.74,3596.2
610.235,3510.9
610.73,3449.7
611.225,3365.6
611.72,3364.5
612.215,3268.6
612.709,3254.4
613.204,3195.4
613.699,3163.8
614.193,3145.1
614.688,3129.7
615.182,3111.1
615.676,3081.2
616.171,3058.0
616.665,3048.7
617.159,3050.8
617.653,3060.6
618.147,3035.8
618.641,3032.4
619.134,3007.6
619.628,3063.7
620.122,3037.2
620.615,3014.7
621.109,3130.3
621.602,3226.1
622.095,3371.7
622.588,3349.2
623.082,3112.8
623.575,3039.7
624.068,3020.6
624.56,3034.9
625.053,3050.2
625.546,3113.9
626.039,3269.3
626.531,4095.8
627.024,8699.5
627.516,8277.7
628.008,7219.8
628.501,10294.1
628.993,7586.1
629.485,6635.2
629.977,5753.0
630.469,5471.7
630.961,4336.5
631.452,3595.2
631.944,3349.4
632.436,3229.2
632.927,3178.4
633.418,3092.5
633.91,3039.8
634.401,3022.6
634.892,2999.3
635.383,2972.5
635.874,2965.7
636.365,2929.2
636.856,2895.2
637.347,2860.7
637.837,2877.5
638.328,2872.5
638.818,2812.7
639.309,2847.8
639.799,2827.9
640.289,2814.3
640.78,2788.2
641.27,2815.7
641.76,2797.9
642.249,2816.5
642.739,2826.4
643.229,2769.5
643.719,2823.5
644.208,2814.1
644.698,2792.8
645.187,2763.4
645.676,2793.4
646.165,2749.6
646.655,2803.2
647.144,2779.7
647.633,2730.0
648.121,2761.1
648.61,2738.6
649.099,2715.1
649.587,2712.9
650.076,2702.6
650.564,2675.9
651.053,2701.7
651.541,2737.9
652.029,2692.5
652.517,2699.7
653.005,2685.8
653.493,2674.1
653.981,2691.2
654.468,2676.5
654.956,2639.0
655.444,2666.0
655.931,2665.8
656.418,2639.2
656.906,2576.7
657.393,2575.7
657.88,2532.8
658.367,2511.6
658.854,2514.4
659.341,2463.8
659.827,2460.0
660.314,2408.3
660.8,2412.5
661.044,2413.4