File: spectra/VLFR_07-PET_nobio_Raman_3635a252.csv
cm-1,Intensity
109.24,8701.75
126.699,8181.8
144.108,7900.65
161.468,7680.25
178.779,7670.45
196.04,7601.75
213.253,7619.0
230.417,7553.5
247.532,7567.5
264.599,7502.35
281.618,7509.4
298.59,7420.05
315.513,7356.4
332.389,7242.75
349.218,7242.35
365.999,7192.3
382.734,7163.5
399.422,7018.6
416.064,6984.4
432.659,6963.25
449.208,6829.0
465.711,6777.8
482.168,6781.65
498.579,6689.65
514.946,6566.8
531.267,6545.8
547.542,6526.15
563.773,6506.5
579.96,6359.95
596.102,6466.4
612.199,6349.05
628.252,6496.8
644.261,6357.95
660.227,6220.05
676.149,6164.95
692.027,6204.85
707.862,6201.45
723.654,6081.85
739.403,6055.3
755.109,6005.35
770.773,6029.5
786.394,6048.15
801.973,6035.2
817.509,6046.6
833.004,6016.8
848.457,6111.65
863.868,6019.75
879.238,5942.05
894.567,5842.8
909.854,5735.2
925.1,5720.95
940.306,5684.2
955.471,5607.1
970.595,5666.25
985.679,5577.45
1000.72,5536.2
1015.73,5557.0
1030.69,5506.15
1045.61,5463.95
1060.5,5458.2
1075.34,5441.55
1090.15,5501.0
1104.92,5503.6
1119.64,5475.35
1134.33,5342.75
1148.98,5332.35
1163.6,5306.55
1178.17,5298.5
1192.7,5221.15
1207.2,5213.6
1221.66,5177.25
1236.08,5228.9
1250.46,5208.05
1264.81,5282.0
1279.12,5384.45
1293.39,5288.9
1307.62,5176.4
1321.82,5090.9
1335.98,5090.2
1350.11,5007.95
1364.19,5046.1
1378.24,4990.6
1392.26,4987.7
1406.24,4975.0
1420.18,4957.35
1434.08,4933.0
1447.96,4933.8
1461.79,4894.85
1475.59,4862.95
1489.35,4878.05
1503.08,4810.45
1516.78,4841.75
1530.44,4777.85
1544.06,4744.1
1557.65,4730.4
1571.2,4703.65
1584.72,4718.55
1598.21,4897.05
1611.66,4999.85
1625.08,4780.6
1638.46,4609.5
1651.81,4590.7
1665.13,4576.15
1678.41,4587.8
1691.66,4546.25
1704.88,4637.55
1718.06,4787.2
1731.21,4709.25
1744.32,4553.65
1757.41,4490.15
1770.46,4435.8
1783.48,4425.1
1796.46,4383.1
1809.42,4366.8
1822.34,4370.7
1835.23,4326.2
1848.08,4341.25
1860.91,4326.05
1873.7,4307.3
1886.46,4289.25
1899.19,4271.6
1911.89,4253.25
1924.56,4244.7
1937.19,4223.4
1949.8,4212.6
1962.37,4177.95
1974.91,4167.8
1987.42,4149.9
1999.9,4135.4
2012.36,4111.4
2024.78,4109.75
2037.16,4099.8
2049.52,4081.75
2061.85,4070.75
2074.15,4041.9
2086.42,4057.55
2098.66,4033.65
2110.87,4040.8
2123.05,4013.4
2135.2,4008.9
2147.32,3995.0
2159.41,3995.25
2171.47,3990.0
2183.51,3973.05
2195.51,3969.05
2207.49,3963.8
2219.43,3959.15
2231.35,3949.2
2243.24,3937.4
2255.1,3931.4
2266.93,3925.2
2278.73,3919.15
2290.51,3912.85
2302.26,3912.5
2313.97,3903.1
2325.67,3899.8
2337.33,3884.45
2348.96,3892.0
2360.57,3879.55
2372.15,3878.15
2383.7,3877.95
2395.23,3868.05
2406.73,3871.7
2418.2,3866.25
2429.64,3860.65
2441.06,3859.15
2452.45,3852.55
2463.81,3846.75
2475.15,3844.1
2486.46,3837.9
2497.74,3838.15
2509.0,3829.55
2520.23,3828.4
2531.43,3831.65
2542.61,3827.05
2553.76,3824.85
2564.88,3819.2
2575.98,3821.9
2587.06,3815.05
2598.1,3814.1
2609.13,3814.9
2620.12,3807.5
2631.09,3807.8
2642.04,3800.65
2652.96,3798.1
2663.85,3799.9
2674.72,3797.85
2685.57,3796.9
2696.39,3790.65
2707.18,3787.9
2717.95,3788.55
2728.69,3786.05
2739.41,3785.15
2750.11,3782.1
2760.78,3780.35
2771.43,3778.4
2782.05,3776.85
2792.65,3775.9
2803.22,3770.65
2813.77,3771.8
2824.3,3769.55
2834.8,3766.55
2845.27,3767.75
2855.73,3764.1
2866.16,3764.2
2876.56,3764.45
2886.95,3761.05
2897.3,3763.45
2907.64,3761.15
2917.95,3760.6
2928.24,3759.1
2938.51,3758.6
2948.75,3763.4
2958.97,3760.7
2969.17,3760.65
2979.34,3759.0
2989.49,3755.05
2999.62,3752.6
3009.72,3752.25
3019.81,3751.6
3029.87,3747.7
3039.9,3749.15
3049.92,3748.05
3059.91,3746.9
3069.88,3750.75
3079.83,3748.5
3089.76,3748.4
3099.66,3746.6
3109.54,3743.4
3119.4,3742.5
3129.24,3744.2
3139.06,3741.8
3148.85,3741.95
3158.62,3740.75
3168.38,3740.35
3178.11,3740.25
3187.81,3740.45
3197.5,3738.35
3207.17,3739.25
3216.81,3739.2
3226.44,3738.75
3236.04,3738.95
3245.62,3736.8
3255.18,3738.15
3264.72,3737.95
3274.24,3738.05
3283.73,3737.15
3293.21,3737.8
3302.67,3737.4
3312.1,3736.5
3321.52,3736.65
3330.91,3736.75
3340.29,3736.5
3349.64,3738.7
3358.97,3736.25
3368.29,3736.45
3375.26,3734.7