File: spectra/VLFR_07-PET_bio_Raman_39536b30.csv
nm,Intensity
791.377,12438.0
792.477,11379.7
793.576,10847.2
794.676,10492.8
795.775,10312.8
796.874,10115.5
797.973,10127.8
799.072,10138.5
800.171,9981.0
801.27,10052.8
802.368,9992.95
803.467,9729.15
804.565,9479.1
805.664,9519.45
806.762,9380.55
807.86,9315.9
808.958,9238.95
810.056,9094.95
811.153,8943.55
812.251,8990.3
813.349,8692.5
814.446,8594.3
815.543,8580.95
816.64,8527.8
817.737,8446.55
818.834,8333.15
819.931,8262.15
821.028,8320.7
822.125,8176.45
823.221,8024.8
824.317,8043.35
825.414,8001.75
826.51,8028.15
827.606,7982.25
828.702,7660.65
829.797,7672.85
830.893,7801.8
831.988,7524.65
833.084,7569.1
834.179,7451.55
835.274,7308.7
836.369,7384.75
837.464,7450.45
838.559,7400.35
839.654,7320.6
840.748,7493.0
841.843,7481.75
842.937,7288.2
844.031,7072.05
845.125,7008.05
846.219,6922.9
847.313,6803.75
848.407,6801.55
849.5,6676.8
850.593,6669.65
851.687,6666.8
852.78,6628.5
853.873,6551.1
854.966,6601.65
856.059,6460.45
857.151,6480.8
858.244,6483.75
859.336,6555.5
860.428,6627.85
861.52,6353.35
862.612,6276.05
863.704,6234.15
864.796,6211.35
865.888,6131.15
866.979,6147.8
868.07,6117.0
869.162,6097.9
870.253,6090.0
871.344,6229.15
872.434,6359.0
873.525,6388.05
874.615,6199.7
875.706,5987.35
876.796,5896.4
877.886,5915.85
878.976,5772.5
880.066,5786.95
881.156,5819.85
882.245,5718.6
883.335,5668.75
884.424,5703.6
885.513,5705.5
886.602,5643.5
887.691,5566.7
888.78,5492.85
889.868,5491.75
890.957,5489.25
892.045,5485.9
893.133,5417.8
894.221,5310.05
895.309,5327.1
896.397,5312.9
897.484,5435.6
898.571,5909.0
899.659,5599.65
900.746,5143.85
901.833,5167.1
902.92,5096.0
904.006,5057.65
905.093,5077.7
906.179,5185.65
907.266,5418.55
908.352,5394.05
909.438,5131.45
910.523,4961.45
911.609,4873.95
912.695,4809.05
913.78,4803.85
914.865,4795.45
915.95,4744.85
917.035,4729.1
918.12,4671.1
919.204,4689.9
920.289,4669.9
921.373,4625.65
922.457,4617.7
923.541,4554.85
924.625,4545.85
925.709,4544.7
926.792,4497.15
927.876,4472.25
928.959,4447.75
930.042,4421.15
931.125,4401.7
932.208,4373.8
933.29,4342.5
934.373,4330.25
935.455,4312.15
936.537,4293.15
937.619,4279.9
938.701,4261.35
939.782,4255.8
940.864,4252.45
941.945,4219.2
943.026,4209.75
944.107,4203.6
945.188,4171.75
946.269,4164.0
947.349,4149.15
948.43,4145.0
949.51,4114.6
950.59,4129.7
951.67,4110.55
952.75,4091.5
953.829,4083.1
954.909,4086.55
955.988,4056.15
957.067,4057.7
958.146,4055.15
959.224,4034.2
960.303,4032.35
961.381,4026.7
962.459,4030.35
963.537,4011.55
964.615,3999.25
965.693,4002.6
966.771,3995.6
967.848,3989.85
968.925,3989.0
970.002,3981.45
971.079,3966.0
972.156,3971.5
973.232,3956.65
974.309,3944.75
975.385,3944.05
976.461,3937.95
977.537,3938.15
978.612,3926.95
979.688,3924.15
980.763,3922.3
981.838,3915.85
982.913,3918.2
983.988,3908.25
985.063,3908.45
986.137,3901.7
987.211,3902.5
988.285,3897.95
989.359,3891.1
990.433,3886.15
991.506,3881.55
992.58,3879.95
993.653,3873.3
994.726,3870.8
995.799,3872.75
996.872,3866.05
997.944,3862.2
999.016,3858.25
1000.09,3856.55
1001.16,3849.55
1002.23,3849.95
1003.3,3846.4
1004.38,3842.25
1005.45,3844.6
1006.52,3835.7
1007.59,3836.4
1008.66,3833.7
1009.73,3830.3
1010.8,3835.15
1011.87,3834.9
1012.94,3834.6
1014.01,3833.1
1015.08,3830.95
1016.15,3824.8
1017.22,3823.5
1018.29,3818.9
1019.36,3817.9
1020.42,3819.1
1021.49,3818.75
1022.56,3818.85
1023.63,3815.65
1024.7,3813.95
1025.76,3810.3
1026.83,3802.9
1027.9,3804.5
1028.97,3800.6
1030.03,3797.4
1031.1,3796.65
1032.17,3797.05
1033.23,3795.65
1034.3,3798.0
1035.36,3798.8
1036.43,3796.9
1037.5,3793.3
1038.56,3792.05
1039.63,3789.9
1040.69,3790.95
1041.76,3786.8
1042.82,3788.85
1043.89,3788.75
1044.95,3786.2
1046.01,3784.05
1047.08,3785.9
1048.14,3785.35
1049.2,3783.9
1050.27,3783.5
1051.33,3783.65
1052.39,3783.45
1053.46,3784.1
1054.52,3782.55
1055.58,3784.75
1056.64,3780.9
1057.7,3782.0
1058.77,3780.1
1059.83,3781.15
1060.89,3782.05
1061.95,3779.65
1063.01,3782.0
1064.07,3780.8
1065.13,3779.5
1066.19,3778.4
1067.25,3781.1
1068.05,3779.85