File: spectra/VLFR_09-PET_bio_Raman_47ca3adc.csv
nm,Intensity
528.626,1872.7
529.132,1870.85
529.637,1869.7
530.143,1871.7
530.648,1873.2
531.153,1874.85
531.658,1925.75
532.164,4749.45
532.669,1877.35
533.174,1886.55
533.679,3373.65
534.184,8391.6
534.689,7616.55
535.194,6836.6
535.699,6390.3
536.203,5748.65
536.708,5624.2
537.213,5714.65
537.717,5571.25
538.222,5578.25
538.726,5559.05
539.231,5816.0
539.735,5952.9
540.239,6027.05
540.744,6036.85
541.248,5930.8
541.752,5932.7
542.256,6092.4
542.76,6160.35
543.264,6215.6
543.768,6272.9
544.272,6249.05
544.776,6344.65
545.28,6479.45
545.784,6577.6
546.287,6584.05
546.791,6728.05
547.294,6725.35
547.798,6869.15
548.301,6992.95
548.805,7052.6
549.308,7049.15
549.811,7083.65
550.315,7411.5
550.818,8119.1
551.321,7490.2
551.824,7559.05
552.327,7598.9
552.83,7965.05
553.333,7595.65
553.835,7748.15
554.338,7814.1
554.841,8139.15
555.343,8301.7
555.846,8364.25
556.349,8524.0
556.851,8668.7
557.353,9879.3
557.856,9989.25
558.358,8898.45
558.86,8872.1
559.362,8726.2
559.864,8640.65
560.366,8798.35
560.868,9069.0
561.37,9186.45
561.872,9625.95
562.374,9537.7
562.876,9341.4
563.377,9403.4
563.879,9330.15
564.38,9922.9
564.882,10873.0
565.383,10831.0
565.885,11130.3
566.386,10343.8
566.887,10091.5
567.388,10166.4
567.889,10880.3
568.391,10227.7
568.892,10283.8
569.392,10457.3
569.893,10666.1
570.394,11114.3
570.895,12734.8
571.395,14616.5
571.896,12561.3
572.397,11305.2
572.897,11069.3
573.397,10907.6
573.898,10998.2
574.398,11117.8
574.898,11255.3
575.398,11905.7
575.898,11497.9
576.398,11459.2
576.898,11783.9
577.398,11586.4
577.898,11379.1
578.398,11531.0
578.897,11327.1
579.397,11475.8
579.896,11616.7
580.396,11701.0
580.895,12235.5
581.395,12346.2
581.894,18907.5
582.393,18566.3
582.892,12301.2
583.391,12120.3
583.89,11894.0
584.389,12141.7
584.888,12218.8
585.387,13180.0
585.886,18234.4
586.384,16836.6
586.883,12893.3
587.381,12587.2
587.88,12499.8
588.378,12316.2
588.876,12275.2
589.375,12320.0
589.873,12318.4
590.371,12382.8
590.869,12354.2
591.367,12484.0
591.865,12585.8
592.363,12546.2
592.86,12759.9
593.358,12714.0
593.856,12333.4
594.353,12612.2
594.851,12727.4
595.348,12603.3
595.845,13061.2
596.342,12730.8
596.84,12896.1
597.337,13013.7
597.834,13000.7
598.331,13096.8
598.828,12941.3
599.324,13307.0
599.821,13180.2
600.318,13179.2
600.814,13323.8
601.311,13353.0
601.807,13653.6
602.304,13163.3
602.8,13736.3
603.296,13739.0
603.792,13915.5
604.288,13551.3
604.784,13484.5
605.28,13810.0
605.776,13598.5
606.272,13858.6
606.767,13767.3
607.263,14165.0
607.759,14285.1
608.254,14153.2
608.749,14399.6
609.245,14411.0
609.74,14464.0
610.235,14284.9
610.73,14599.0
611.225,14991.2
611.72,14935.0
612.215,14801.6
612.71,15190.8
613.204,15217.5
613.699,15213.8
614.194,15639.1
614.688,15628.5
615.182,15398.0
615.677,15805.7
616.171,15953.5
616.665,16333.5
617.159,16221.8
617.653,16135.5
618.147,16461.1
618.641,16450.2
619.135,16525.6
619.628,16759.4
620.122,16517.9
620.615,17117.0
621.109,16988.9
621.602,17295.5
622.095,16990.8
622.589,17395.6
623.082,17767.9
623.575,17579.4
624.068,17986.4
624.561,17765.0
625.053,17928.3
625.546,18369.0
626.039,18220.3
626.531,18400.4
627.024,18071.4
627.516,18048.8
628.008,18413.1
628.501,18327.8
628.993,19110.1
629.485,19258.2
629.977,19767.2
630.469,19564.7
630.96,19174.9
631.452,19671.3
631.944,20811.6
632.435,19959.8
632.927,19969.2
633.418,20120.6
633.91,20058.3
634.401,19673.3
634.892,20362.6
635.383,20046.4
635.874,20345.1
636.365,21591.5
636.856,20899.5
637.346,20538.1
637.837,20228.8
638.327,20327.0
638.818,19791.6
639.308,19463.5
639.799,19821.0
640.289,20325.4
640.779,19637.5
641.269,20098.3
641.759,20097.2
642.249,20126.4
642.738,20202.1
643.228,20386.2
643.718,20162.1
644.207,19794.3
644.697,19734.5
645.186,20124.2
645.675,20277.7
646.164,19726.9
646.653,20115.6
647.142,20024.8
647.631,19675.3
648.12,20461.8
648.609,19545.9
649.098,19575.5
649.586,19037.1
650.075,18962.7
650.563,18982.5
651.051,19085.7
651.539,19296.3
652.027,19012.3
652.515,18780.9
653.003,18461.2
653.491,18279.0
653.979,18800.4
654.467,18004.4
654.954,18071.8
655.442,17223.9
655.929,18312.3
656.416,17950.0
656.904,17450.1
657.391,17694.6
657.878,17019.7
658.365,16973.2
658.851,16591.2
659.338,16028.7
659.825,16228.7
660.311,16530.3
660.798,16363.7
661.041,16596.4