File: spectra/VLFR_06-PET_nobio_Raman_f0a84154.csv
nm,Intensity
526.547,833.5
527.094,833.5
527.641,833.4
528.188,832.4
528.734,833.4
529.281,832.6
529.827,832.0
530.373,834.9
530.92,833.3
531.466,833.2
532.011,843.1
532.557,833.0
533.103,834.3
533.648,852.0
534.193,2054.0
534.738,1695.0
535.283,1375.4
535.828,1189.2
536.373,1071.2
536.917,1028.1
537.462,1006.7
538.006,998.0
538.55,1010.8
539.094,1009.9
539.638,1028.5
540.182,1036.0
540.726,990.4
541.269,981.6
541.812,976.1
542.356,977.0
542.899,982.3
543.442,974.9
543.985,987.5
544.527,984.3
545.07,987.5
545.612,986.3
546.155,994.5
546.697,996.9
547.239,996.4
547.781,995.9
548.323,996.9
548.865,1004.2
549.406,1001.1
549.948,1010.6
550.489,1035.2
551.03,1022.1
551.572,1010.0
552.113,1021.2
552.654,1034.8
553.194,1037.7
553.735,1033.0
554.276,1031.5
554.816,1039.3
555.356,1055.3
555.896,1099.9
556.437,1121.1
556.977,1126.4
557.516,1306.6
558.056,1148.5
558.596,1141.2
559.135,1093.4
559.675,1078.5
560.214,1067.9
560.753,1076.4
561.292,1084.5
561.831,1094.2
562.37,1107.6
562.909,1127.1
563.448,1124.7
563.986,1114.6
564.525,1136.7
565.063,1190.7
565.601,1258.3
566.139,1245.6
566.677,1151.6
567.215,1133.6
567.753,1228.0
568.291,1155.6
568.828,1146.0
569.366,1161.2
569.903,1186.8
570.441,1246.2
570.978,1402.8
571.515,1503.6
572.052,1342.0
572.589,1227.1
573.126,1203.6
573.662,1210.3
574.199,1224.7
574.735,1223.4
575.272,1260.9
575.808,1229.7
576.344,1256.4
576.88,1275.0
577.416,1242.4
577.952,1235.1
578.488,1239.5
579.024,1244.4
579.559,1244.1
580.095,1257.1
580.63,1262.5
581.166,1284.2
581.701,1416.9
582.236,2684.5
582.771,1336.6
583.306,1296.7
583.841,1288.3
584.376,1311.4
584.911,1325.2
585.445,1461.5
585.98,2002.5
586.514,1667.5
587.048,1374.6
587.583,1339.7
588.117,1328.1
588.651,1318.5
589.185,1314.2
589.719,1319.5
590.253,1319.4
590.786,1324.2
591.32,1324.6
591.853,1327.6
592.387,1336.8
592.92,1324.2
593.454,1334.9
593.987,1327.0
594.52,1338.1
595.053,1350.2
595.586,1359.0
596.119,1355.6
596.651,1354.3
597.184,1361.5
597.717,1358.6
598.249,1364.6
598.782,1359.1
599.314,1364.2
599.846,1372.2
600.379,1369.7
600.911,1375.5
601.443,1372.6
601.975,1373.6
602.507,1382.2
603.038,1378.4
603.57,1383.0
604.102,1379.0
604.633,1384.3
605.165,1381.4
605.696,1372.3
606.228,1363.7
606.759,1365.6
607.29,1376.3
607.821,1381.7
608.352,1389.4
608.883,1382.4
609.414,1389.4
609.945,1385.9
610.476,1396.6
611.006,1394.7
611.537,1396.4
612.067,1389.0
612.598,1407.5
613.128,1421.4
613.659,1422.4
614.189,1435.2
614.719,1427.8
615.249,1424.1
615.779,1427.4
616.309,1428.9
616.839,1434.7
617.369,1433.9
617.899,1444.9
618.428,1468.7
618.958,1459.2
619.487,1434.4
620.017,1445.6
620.546,1446.8
621.076,1450.9
621.605,1458.8
622.134,1465.4
622.663,1468.7
623.193,1475.0
623.722,1486.3
624.251,1487.4
624.78,1491.5
625.308,1497.1
625.837,1491.9
626.366,1502.9
626.895,1497.0
627.423,1508.4
627.952,1511.7
628.48,1543.4
629.009,1559.3
629.537,1558.8
630.065,1563.2
630.594,1565.3
631.122,1636.6
631.65,1745.5
632.178,1726.0
632.706,1664.9
633.234,1643.0
633.762,1634.8
634.29,1615.5
634.818,1596.5
635.346,1617.8
635.873,1679.1
636.401,1804.4
636.929,1776.9
637.456,1664.8
637.984,1639.0
638.511,1633.6
639.039,1630.3
639.566,1646.8
640.093,1646.2
640.62,1661.4
641.148,1651.2
641.675,1653.5
642.202,1671.9
642.729,1671.5
643.256,1664.9
643.783,1650.4
644.31,1655.1
644.837,1647.5
645.364,1661.5
645.891,1656.4
646.417,1671.3
646.944,1682.1
647.471,1684.7
647.997,1674.5
648.524,1688.3
649.051,1676.8
649.577,1680.2
650.104,1680.8
650.63,1679.9
651.157,1659.6
651.683,1690.4
652.209,1675.4
652.736,1674.7
653.262,1682.9
653.788,1682.9
654.314,1691.0
654.84,1672.6
655.366,1675.5
655.893,1692.2
656.419,1679.9
656.945,1685.8
657.471,1674.4
657.997,1670.8
658.522,1686.1
659.048,1674.0
659.574,1680.9
660.1,1684.8
660.626,1671.4
661.152,1680.1
661.677,1657.4
662.203,1649.7
662.729,1662.0
663.123,1646.3