File: spectra/VLFR_06-PET_bio_Raman_feba14cd.csv
nm,Intensity
526.493,829.15
527.039,829.05
527.586,828.7
528.133,828.7
528.679,829.55
529.225,829.3
529.771,829.15
530.317,829.25
530.863,828.45
531.409,829.75
531.955,830.4
532.5,829.75
533.046,828.4
533.591,829.25
534.136,940.3
534.681,909.65
535.226,908.3
535.771,896.25
536.315,878.25
536.86,870.0
537.404,867.55
537.948,874.45
538.493,867.65
539.037,861.9
539.58,861.45
540.124,862.0
540.668,863.2
541.211,864.5
541.755,863.1
542.298,862.25
542.841,864.6
543.384,866.8
543.927,869.2
544.47,869.05
545.013,871.85
545.555,869.75
546.098,869.9
546.64,871.65
547.182,872.75
547.724,872.15
548.266,873.6
548.808,873.9
549.35,875.05
549.892,876.95
550.433,878.55
550.974,880.85
551.516,881.05
552.057,877.8
552.598,873.55
553.139,872.45
553.68,872.25
554.22,872.3
554.761,871.6
555.301,872.75
555.842,873.4
556.382,871.05
556.922,874.5
557.462,875.95
558.002,875.05
558.542,877.0
559.082,876.25
559.621,876.55
560.161,877.95
560.7,877.45
561.239,877.15
561.778,879.6
562.317,879.95
562.856,878.4
563.395,879.5
563.934,878.4
564.472,881.65
565.011,881.0
565.549,881.75
566.088,882.8
566.626,881.9
567.164,878.95
567.702,882.0
568.24,882.9
568.777,882.8
569.315,885.2
569.853,884.3
570.39,884.35
570.927,887.6
571.465,887.3
572.002,885.8
572.539,884.45
573.076,884.15
573.612,887.05
574.149,887.15
574.686,889.1
575.222,888.8
575.759,887.55
576.295,887.85
576.831,890.8
577.367,889.65
577.903,888.5
578.439,888.45
578.975,891.9
579.511,891.2
580.046,891.65
580.582,892.9
581.117,891.45
581.653,892.4
582.188,899.65
582.723,896.3
583.258,910.05
583.793,895.4
584.328,894.75
584.863,895.15
585.398,898.55
585.932,898.35
586.467,899.8
587.001,897.2
587.535,897.3
588.07,896.4
588.604,897.25
589.138,897.4
589.672,895.55
590.206,896.75
590.739,897.1
591.273,898.4
591.807,898.35
592.34,897.15
592.873,898.15
593.407,897.85
593.94,895.95
594.473,895.85
595.006,898.75
595.539,899.8
596.072,898.65
596.605,900.8
597.138,899.85
597.67,900.35
598.203,901.5
598.735,905.65
599.268,901.5
599.8,902.05
600.332,900.0
600.865,901.05
601.397,902.6
601.929,901.9
602.46,900.95
602.992,903.25
603.524,903.4
604.056,905.2
604.587,904.0
605.119,903.2
605.65,903.8
606.182,902.3
606.713,898.45
607.244,901.8
607.775,900.45
608.306,904.8
608.837,902.55
609.368,900.95
609.899,903.75
610.43,900.95
610.961,899.5
611.491,900.65
612.022,903.55
612.552,902.9
613.083,905.05
613.613,907.0
614.143,906.15
614.673,906.95
615.203,903.15
615.734,903.35
616.263,905.2
616.793,903.75
617.323,903.15
617.853,907.2
618.383,907.15
618.912,905.55
619.442,904.1
619.971,907.75
620.501,904.65
621.03,906.15
621.56,905.4
622.089,905.75
622.618,905.45
623.147,907.7
623.676,908.6
624.205,907.6
624.734,908.25
625.263,909.75
625.792,906.7
626.321,907.6
626.849,906.5
627.378,907.05
627.906,906.45
628.435,908.9
628.963,906.15
629.492,908.1
630.02,909.45
630.548,906.35
631.077,910.65
631.605,909.7
632.133,910.35
632.661,907.85
633.189,909.8
633.717,908.8
634.245,909.6
634.773,908.3
635.3,908.85
635.828,908.55
636.356,910.05
636.883,913.85
637.411,908.6
637.938,910.65
638.466,909.55
638.993,913.35
639.521,913.0
640.048,909.55
640.575,912.25
641.103,913.65
641.63,913.8
642.157,914.05
642.684,916.6
643.211,917.4
643.738,916.8
644.265,917.2
644.792,914.4
645.319,916.5
645.845,919.45
646.372,920.0
646.899,923.85
647.425,928.95
647.952,936.75
648.479,940.15
649.005,957.05
649.532,972.0
650.058,990.75
650.585,1001.05
651.111,1009.5
651.637,1003.85
652.164,980.15
652.69,961.1
653.216,944.0
653.742,934.75
654.268,932.7
654.794,925.45
655.32,919.8
655.846,917.15
656.372,914.8
656.898,910.75
657.424,911.05
657.95,907.8
658.476,905.5
659.002,905.25
659.528,902.35
660.053,900.65
660.579,899.4
661.105,900.1
661.63,896.35
662.156,896.7
662.681,897.65
663.076,895.45