File: spectra/VLFR_01-LDPE_bio_Raman_1a981731.csv
nm,Intensity
528.626,1866.5
529.132,1865.2
529.637,1865.4
530.143,1866.1
530.648,1866.7
531.153,1868.4
531.658,1899.7
532.164,3580.1
532.669,1866.3
533.174,1867.4
533.679,1956.6
534.184,2241.3
534.689,2230.7
535.194,2270.9
535.699,2284.2
536.203,2226.4
536.708,2207.6
537.213,2230.0
537.717,2218.5
538.222,2199.2
538.726,2184.4
539.231,2177.2
539.735,2174.3
540.239,2191.1
540.744,2176.1
541.248,2207.0
541.752,2179.9
542.256,2180.9
542.76,2192.8
543.264,2184.5
543.768,2233.8
544.272,2289.8
544.776,2203.9
545.28,2225.6
545.784,2252.1
546.287,2545.3
546.791,2371.8
547.294,2240.8
547.798,2225.8
548.301,2229.1
548.805,2235.6
549.308,2273.9
549.811,2276.4
550.315,2340.3
550.818,2250.3
551.321,2226.5
551.824,2252.9
552.327,2249.0
552.83,2231.0
553.333,2257.5
553.835,2270.9
554.338,2261.5
554.841,2271.8
555.343,2274.4
555.846,2283.3
556.349,2295.1
556.851,2299.2
557.353,2300.2
557.856,2324.6
558.358,2317.2
558.86,2313.7
559.362,2313.3
559.864,2300.8
560.366,2322.5
560.868,2352.9
561.37,2375.5
561.872,2548.3
562.374,4341.8
562.876,2427.8
563.377,2394.9
563.879,2591.2
564.38,2502.0
564.882,2484.1
565.383,2456.7
565.885,2608.8
566.386,2748.5
566.887,2534.1
567.388,2494.2
567.889,2478.3
568.391,2479.0
568.892,2515.7
569.392,2516.4
569.893,2573.6
570.394,2596.3
570.895,2655.0
571.395,2975.3
571.896,2847.6
572.397,2768.3
572.897,2778.7
573.397,2857.3
573.898,2887.8
574.398,2917.3
574.898,2969.0
575.398,3210.4
575.898,3338.3
576.398,3657.0
576.898,3626.9
577.398,3593.2
577.898,3636.4
578.398,3681.4
578.897,3856.9
579.397,3997.0
579.896,4136.0
580.396,4365.4
580.895,4441.4
581.395,4626.0
581.894,4719.0
582.393,4923.1
582.892,5078.7
583.391,5330.0
583.89,5402.5
584.389,5634.0
584.888,5639.1
585.387,5711.4
585.886,5858.0
586.384,6148.3
586.883,6288.2
587.381,6389.1
587.88,6754.3
588.378,6860.7
588.876,7068.3
589.375,7053.9
589.873,7411.8
590.371,7577.4
590.869,7895.3
591.367,7924.3
591.865,8393.3
592.363,8205.2
592.86,8384.8
593.358,8244.9
593.856,8287.0
594.353,8413.4
594.851,8380.8
595.348,8654.7
595.845,8578.4
596.342,8662.9
596.84,8891.3
597.337,8930.9
597.834,8762.8
598.331,8907.9
598.828,8974.5
599.324,9068.0
599.821,9120.8
600.318,9067.9
600.814,9112.8
601.311,9104.7
601.807,8986.9
602.304,9051.1
602.8,8788.1
603.296,8679.9
603.792,8530.5
604.288,8129.7
604.784,8090.2
605.28,7770.9
605.776,7621.3
606.272,7410.9
606.767,7293.8
607.263,7087.4
607.759,6826.5
608.254,6778.2
608.749,6561.7
609.245,6379.4
609.74,6316.6
610.235,6218.1
610.73,6107.2
611.225,6024.2
611.72,5928.8
612.215,5785.8
612.71,5683.3
613.204,5636.5
613.699,5600.6
614.194,5456.8
614.688,5463.6
615.182,5352.1
615.677,5281.9
616.171,5178.9
616.665,5151.4
617.159,5043.7
617.653,4979.1
618.147,5045.0
618.641,4919.0
619.135,4777.6
619.628,4844.9
620.122,4742.8
620.615,4675.1
621.109,4684.5
621.602,4707.3
622.095,4726.8
622.589,4676.3
623.082,4641.7
623.575,4553.1
624.068,4565.5
624.561,4543.1
625.053,4502.1
625.546,4512.9
626.039,4509.6
626.531,4704.3
627.024,6047.5
627.516,6056.3
628.008,5687.8
628.501,6502.9
628.993,6013.9
629.485,5679.0
629.977,5456.0
630.469,5318.4
630.96,4985.8
631.452,4772.8
631.944,4610.8
632.435,4726.2
632.927,4639.1
633.418,4783.0
633.91,4723.5
634.401,4676.1
634.892,4745.3
635.383,4677.6
635.874,4726.0
636.365,4778.2
636.856,4822.4
637.346,4776.4
637.837,4823.0
638.327,4816.8
638.818,4865.0
639.308,4853.5
639.799,4991.3
640.289,4903.2
640.779,4893.0
641.269,4948.5
641.759,4879.5
642.249,5010.3
642.738,5049.3
643.228,4947.9
643.718,5013.0
644.207,5031.5
644.697,4948.6
645.186,5050.5
645.675,4967.1
646.164,4951.9
646.653,4914.5
647.142,4946.4
647.631,4812.0
648.12,4858.9
648.609,4771.9
649.098,4755.9
649.586,4844.2
650.075,4790.9
650.563,4781.6
651.051,4752.2
651.539,4664.7
652.027,4619.5
652.515,4603.4
653.003,4599.9
653.491,4508.7
653.979,4526.8
654.467,4519.4
654.954,4417.2
655.442,4365.4
655.929,4315.9
656.416,4222.6
656.904,4141.7
657.391,4160.7
657.878,4073.1
658.365,4030.3
658.851,3887.9
659.338,3791.5
659.825,3854.0
660.311,3661.7
660.798,3690.4
661.041,3639.8