File: spectra/VLFR_07-PET_nobio_Raman_20af0bfa.csv
nm,Intensity
791.377,12169.6
792.477,10875.9
793.576,10545.9
794.676,9897.94
795.775,9770.68
796.874,9651.68
797.973,9764.3
799.072,9640.56
800.171,9617.74
801.27,9683.16
802.368,9689.26
803.467,9471.38
804.565,9408.64
805.664,9272.8
806.762,9211.74
807.86,9127.14
808.958,9099.56
810.056,9029.62
811.153,8935.08
812.251,8753.76
813.349,8742.82
814.446,8687.68
815.543,8587.96
816.64,8541.22
817.737,8391.86
818.834,8297.48
819.931,8316.14
821.028,8257.08
822.125,8136.54
823.221,7971.68
824.317,8042.7
825.414,7941.06
826.51,8070.4
827.606,7919.84
828.702,7794.68
829.797,7754.12
830.893,7848.94
831.988,7663.98
833.084,7571.6
834.179,7602.82
835.274,7440.04
836.369,7492.26
837.464,7493.84
838.559,7498.88
839.654,7467.6
840.748,7565.96
841.843,7749.46
842.937,7370.48
844.031,7284.22
845.125,7125.18
846.219,7005.52
847.313,6951.56
848.407,6915.42
849.5,6826.74
850.593,6851.28
851.687,6808.4
852.78,6790.76
853.873,6799.38
854.966,6743.22
856.059,6569.68
857.151,6586.1
858.244,6718.0
859.336,6720.18
860.428,6815.74
861.52,6563.26
862.612,6456.94
863.704,6416.52
864.796,6518.62
865.888,6322.48
866.979,6268.46
868.07,6266.74
869.162,6269.46
870.253,6268.14
871.344,6363.72
872.434,6519.92
873.525,6517.18
874.615,6417.14
875.706,6172.72
876.796,6089.76
877.886,6072.48
878.976,6007.48
880.066,5952.5
881.156,5917.42
882.245,5975.32
883.335,5863.18
884.424,5833.82
885.513,5920.44
886.602,5845.56
887.691,5720.9
888.78,5660.3
889.868,5677.56
890.957,5662.38
892.045,5658.16
893.133,5593.7
894.221,5573.98
895.309,5500.1
896.397,5484.58
897.484,5636.56
898.571,6186.94
899.659,5934.98
900.746,5403.56
901.833,5320.78
902.92,5300.38
904.006,5258.72
905.093,5257.9
906.179,5324.44
907.266,5574.36
908.352,5718.16
909.438,5478.74
910.523,5174.3
911.609,5046.0
912.695,4990.9
913.78,4978.4
914.865,4943.72
915.95,4922.56
917.035,4861.78
918.12,4850.48
919.204,4805.98
920.289,4811.76
921.373,4749.96
922.457,4730.94
923.541,4681.22
924.625,4674.32
925.709,4630.42
926.792,4612.38
927.876,4591.02
928.959,4544.54
930.042,4525.24
931.125,4505.62
932.208,4441.72
933.29,4465.46
934.373,4425.08
935.455,4388.36
936.537,4367.06
937.619,4351.68
938.701,4350.64
939.782,4312.34
940.864,4314.84
941.945,4282.8
943.026,4268.74
944.107,4250.88
945.188,4240.46
946.269,4214.14
947.349,4200.24
948.43,4202.86
949.51,4160.5
950.59,4159.1
951.67,4147.06
952.75,4125.8
953.829,4122.16
954.909,4111.0
955.988,4098.04
957.067,4085.52
958.146,4062.7
959.224,4054.64
960.303,4048.96
961.381,4030.54
962.459,4029.18
963.537,4018.98
964.615,4014.16
965.693,3999.52
966.771,3985.2
967.848,3986.02
968.925,3977.44
970.002,3967.44
971.079,3959.68
972.156,3950.22
973.232,3947.0
974.309,3942.04
975.385,3931.66
976.461,3922.64
977.537,3914.58
978.612,3902.26
979.688,3907.62
980.763,3895.68
981.838,3896.68
982.913,3889.06
983.988,3881.84
985.063,3879.1
986.137,3871.3
987.211,3864.64
988.285,3863.52
989.359,3857.88
990.433,3850.84
991.506,3842.04
992.58,3841.9
993.653,3839.94
994.726,3829.88
995.799,3828.48
996.872,3822.92
997.944,3818.48
999.016,3817.24
1000.09,3815.9
1001.16,3810.08
1002.23,3804.06
1003.3,3804.38
1004.38,3800.48
1005.45,3797.2
1006.52,3792.92
1007.59,3789.0
1008.66,3785.3
1009.73,3783.02
1010.8,3779.98
1011.87,3778.38
1012.94,3774.92
1014.01,3773.76
1015.08,3774.18
1016.15,3772.4
1017.22,3767.5
1018.29,3766.36
1019.36,3763.9
1020.42,3765.32
1021.49,3770.12
1022.56,3770.14
1023.63,3770.02
1024.7,3764.42
1025.76,3757.88
1026.83,3753.9
1027.9,3752.82
1028.97,3747.92
1030.03,3745.94
1031.1,3742.34
1032.17,3741.64
1033.23,3742.14
1034.3,3745.32
1035.36,3747.78
1036.43,3746.42
1037.5,3740.46
1038.56,3737.48
1039.63,3733.62
1040.69,3732.98
1041.76,3731.54
1042.82,3730.66
1043.89,3731.3
1044.95,3729.2
1046.01,3726.3
1047.08,3727.24
1048.14,3727.82
1049.2,3725.7
1050.27,3725.22
1051.33,3724.86
1052.39,3724.48
1053.46,3724.24
1054.52,3724.24
1055.58,3723.8
1056.64,3723.7
1057.7,3722.98
1058.77,3722.38
1059.83,3723.12
1060.89,3723.2
1061.95,3723.26
1063.01,3722.42
1064.07,3721.74
1065.13,3722.4
1066.19,3721.04
1067.25,3720.76
1068.05,3720.0