File: spectra/VLFR_01-LDPE_nobio_Raman_8b051ab0.csv
cm-1,Intensity
-123.878,1851.55
-105.821,1853.45
-87.8007,1852.8
-69.8161,1852.35
-51.8675,1852.45
-33.9547,1853.55
-16.0776,1877.25
1.76388,3060.35
19.5698,1853.6
37.3403,1853.45
55.0755,1921.05
72.7754,2113.0
90.4402,2114.15
108.07,2105.6
125.665,2103.15
143.225,2092.45
160.75,2083.7
178.241,2086.45
195.697,2107.15
213.119,2117.8
230.506,2097.65
247.859,2093.45
265.178,2107.65
282.463,2110.2
299.713,2102.05
316.93,2089.7
334.113,2087.85
351.263,2083.35
368.379,2092.8
385.461,2088.05
402.51,2097.6
419.526,2093.35
436.508,2080.0
453.458,2087.15
470.374,2086.0
487.257,2100.8
504.107,2090.9
520.925,2093.0
537.71,2096.15
554.462,2096.15
571.182,2101.3
587.87,2100.35
604.525,2104.7
621.148,2091.7
637.739,2098.6
654.297,2106.6
670.824,2112.4
687.319,2108.9
703.782,2100.4
720.213,2115.85
736.613,2123.6
752.981,2110.2
769.317,2120.25
785.623,2117.25
801.897,2122.75
818.139,2120.75
834.351,2119.8
850.532,2130.6
866.681,2132.2
882.8,2133.45
898.888,2132.4
914.945,2144.0
930.972,2132.85
946.968,2139.4
962.934,2144.75
978.869,2141.8
994.774,2150.0
1010.65,2160.15
1026.49,2158.85
1042.31,2182.75
1058.09,2257.3
1073.85,2219.25
1089.57,2213.65
1105.27,2196.85
1120.93,2243.7
1136.57,2227.55
1152.18,2201.3
1167.75,2206.4
1183.3,2207.8
1198.82,2194.5
1214.31,2212.7
1229.77,2226.05
1245.2,2224.05
1260.6,2222.9
1275.97,2246.05
1291.32,2396.8
1306.63,2314.25
1321.92,2280.1
1337.18,2249.4
1352.41,2259.75
1367.61,2261.0
1382.78,2232.8
1397.93,2236.4
1413.05,2280.75
1428.14,2338.25
1443.2,2441.85
1458.23,2380.15
1473.23,2303.8
1488.21,2254.35
1503.16,2247.8
1518.08,2242.9
1532.97,2254.15
1547.84,2251.7
1562.68,2263.3
1577.49,2270.9
1592.27,2265.65
1607.03,2250.5
1621.76,2253.0
1636.46,2242.7
1651.14,2246.2
1665.78,2251.0
1680.41,2251.55
1695.0,2250.8
1709.57,2246.7
1724.11,2241.0
1738.62,2246.6
1753.11,2250.2
1767.57,2269.95
1782.01,2269.3
1796.41,2274.55
1810.8,2242.4
1825.15,2262.4
1839.48,2259.3
1853.79,2275.6
1868.06,2281.3
1882.31,2279.0
1896.54,2281.7
1910.74,2293.9
1924.91,2289.75
1939.06,2306.8
1953.19,2291.15
1967.28,2299.5
1981.35,2300.3
1995.4,2303.95
2009.42,2298.8
2023.42,2319.15
2037.39,2314.95
2051.33,2314.25
2065.25,2326.35
2079.15,2327.6
2093.01,2324.7
2106.86,2342.95
2120.68,2343.0
2134.47,2332.05
2148.24,2346.6
2161.99,2336.3
2175.71,2328.6
2189.41,2328.8
2203.08,2337.55
2216.73,2319.35
2230.35,2326.6
2243.95,2311.1
2257.52,2314.5
2271.07,2309.65
2284.6,2305.4
2298.1,2311.3
2311.58,2288.45
2325.03,2286.3
2338.46,2282.6
2351.87,2290.55
2365.25,2298.6
2378.61,2280.2
2391.94,2279.75
2405.26,2271.2
2418.54,2273.1
2431.81,2274.8
2445.05,2276.5
2458.27,2274.4
2471.46,2263.35
2484.63,2266.4
2497.78,2251.95
2510.9,2261.75
2524.0,2261.65
2537.08,2256.4
2550.14,2262.4
2563.17,2263.45
2576.18,2252.45
2589.17,2268.5
2602.13,2276.7
2615.07,2274.6
2627.99,2270.15
2640.89,2273.35
2653.76,2287.1
2666.61,2275.65
2679.44,2283.85
2692.25,2280.1
2705.03,2313.95
2717.79,2348.2
2730.53,2335.55
2743.25,2281.55
2755.94,2281.35
2768.61,2268.9
2781.27,2264.55
2793.89,2270.7
2806.5,2280.95
2819.09,2316.35
2831.65,2462.7
2844.19,3322.35
2856.71,3393.2
2869.21,3059.8
2881.69,3578.4
2894.14,3160.4
2906.58,2966.35
2918.99,2850.05
2931.38,2779.5
2943.75,2519.25
2956.1,2343.0
2968.42,2297.65
2980.73,2282.1
2993.01,2261.4
3005.28,2246.5
3017.52,2235.35
3029.74,2223.75
3041.94,2223.85
3054.12,2213.25
3066.28,2205.85
3078.42,2228.85
3090.54,2212.15
3102.63,2210.65
3114.71,2207.9
3126.77,2216.8
3138.8,2202.05
3150.82,2197.05
3162.81,2202.8
3174.78,2191.55
3186.74,2197.5
3198.67,2197.45
3210.58,2205.2
3222.47,2196.9
3234.35,2194.7
3246.2,2189.1
3258.03,2193.45
3269.84,2187.2
3281.64,2183.0
3293.41,2187.05
3305.16,2182.7
3316.89,2184.05
3328.61,2186.6
3340.3,2177.75
3351.97,2161.15
3363.63,2185.15
3375.26,2170.5
3386.88,2165.0
3398.47,2155.65
3410.05,2155.25
3421.6,2174.4
3433.14,2174.0
3444.66,2152.2
3456.15,2165.2
3467.63,2153.8
3479.09,2156.25
3490.53,2149.3
3501.96,2154.9
3513.36,2144.7
3524.74,2136.4
3536.11,2129.35
3547.45,2131.8
3558.78,2121.2
3570.09,2117.05
3581.37,2122.75
3592.64,2117.3
3603.9,2107.45
3615.13,2112.65
3626.34,2101.8
3637.54,2089.75
3648.72,2098.6
3659.87,2097.45
3665.45,2094.0