File: spectra/VLFR_07-PET_nobio_Raman_992c91b9.csv
nm,Intensity
791.377,11227.4
792.477,10124.1
793.576,9572.08
794.676,9190.0
795.775,9007.3
796.874,8908.58
797.973,8912.94
799.072,8791.76
800.171,8785.46
801.27,8840.86
802.368,8752.26
803.467,8576.16
804.565,8335.8
805.664,8328.28
806.762,8254.9
807.86,8170.8
808.958,8031.54
810.056,8077.82
811.153,7960.56
812.251,7847.58
813.349,7800.6
814.446,7705.88
815.543,7613.9
816.64,7492.1
817.737,7462.92
818.834,7455.24
819.931,7397.28
821.028,7281.46
822.125,7255.16
823.221,7163.9
824.317,7140.24
825.414,7306.02
826.51,7140.52
827.606,6998.58
828.702,6973.98
829.797,6909.92
830.893,7087.48
831.988,6862.28
833.084,6784.94
834.179,6789.84
835.274,6708.3
836.369,6711.56
837.464,6836.36
838.559,6835.76
839.654,6722.52
840.748,6910.78
841.843,6982.86
842.937,6696.42
844.031,6611.5
845.125,6442.82
846.219,6344.38
847.313,6314.2
848.407,6259.6
849.5,6219.28
850.593,6148.02
851.687,6180.18
852.78,6205.3
853.873,6124.68
854.966,6110.16
856.059,6013.68
857.151,6002.9
858.244,6083.26
859.336,6205.5
860.428,6142.34
861.52,6064.06
862.612,5892.96
863.704,5882.62
864.796,5896.68
865.888,5798.74
866.979,5732.68
868.07,5706.0
869.162,5718.92
870.253,5745.38
871.344,5924.3
872.434,6058.16
873.525,6112.36
874.615,5837.94
875.706,5629.74
876.796,5605.22
877.886,5538.52
878.976,5520.42
880.066,5531.98
881.156,5493.06
882.245,5494.36
883.335,5493.58
884.424,5399.66
885.513,5476.14
886.602,5375.7
887.691,5310.3
888.78,5300.42
889.868,5285.76
890.957,5216.96
892.045,5266.62
893.133,5200.22
894.221,5184.22
895.309,5168.7
896.397,5119.88
897.484,5355.38
898.571,5968.4
899.659,5482.16
900.746,5032.14
901.833,5007.06
902.92,4924.66
904.006,4952.54
905.093,4955.26
906.179,5054.98
907.266,5440.08
908.352,5429.82
909.438,5113.58
910.523,4854.1
911.609,4775.98
912.695,4743.46
913.78,4687.24
914.865,4676.6
915.95,4636.48
917.035,4633.3
918.12,4601.2
919.204,4598.16
920.289,4540.38
921.373,4517.46
922.457,4508.06
923.541,4488.48
924.625,4474.6
925.709,4437.58
926.792,4421.24
927.876,4410.56
928.959,4356.5
930.042,4361.82
931.125,4344.38
932.208,4308.76
933.29,4311.26
934.373,4281.16
935.455,4278.98
936.537,4249.76
937.619,4215.1
938.701,4225.06
939.782,4205.1
940.864,4186.36
941.945,4185.0
943.026,4163.58
944.107,4137.48
945.188,4135.7
946.269,4124.26
947.349,4100.86
948.43,4091.54
949.51,4087.14
950.59,4084.46
951.67,4061.66
952.75,4061.34
953.829,4038.98
954.909,4019.08
955.988,4028.96
957.067,4013.8
958.146,4008.9
959.224,3994.16
960.303,3993.66
961.381,3980.4
962.459,3975.82
963.537,3962.1
964.615,3967.24
965.693,3954.14
966.771,3942.34
967.848,3943.96
968.925,3936.82
970.002,3929.04
971.079,3921.74
972.156,3916.88
973.232,3905.96
974.309,3906.78
975.385,3903.78
976.461,3884.2
977.537,3882.96
978.612,3882.52
979.688,3874.9
980.763,3870.4
981.838,3869.7
982.913,3864.02
983.988,3858.18
985.063,3854.32
986.137,3856.4
987.211,3851.98
988.285,3846.2
989.359,3841.12
990.433,3834.28
991.506,3833.42
992.58,3828.7
993.653,3822.32
994.726,3821.1
995.799,3817.58
996.872,3815.12
997.944,3809.7
999.016,3811.84
1000.09,3805.28
1001.16,3806.16
1002.23,3801.06
1003.3,3797.88
1004.38,3798.94
1005.45,3795.86
1006.52,3792.3
1007.59,3786.68
1008.66,3786.28
1009.73,3785.32
1010.8,3781.68
1011.87,3778.2
1012.94,3777.96
1014.01,3779.7
1015.08,3776.12
1016.15,3775.6
1017.22,3775.28
1018.29,3772.34
1019.36,3771.22
1020.42,3773.48
1021.49,3775.8
1022.56,3778.26
1023.63,3780.6
1024.7,3774.18
1025.76,3768.76
1026.83,3762.52
1027.9,3760.88
1028.97,3756.88
1030.03,3754.66
1031.1,3754.02
1032.17,3752.82
1033.23,3754.3
1034.3,3758.28
1035.36,3759.76
1036.43,3757.04
1037.5,3752.8
1038.56,3747.22
1039.63,3746.44
1040.69,3743.94
1041.76,3743.96
1042.82,3743.22
1043.89,3742.26
1044.95,3740.9
1046.01,3739.76
1047.08,3740.92
1048.14,3740.06
1049.2,3739.4
1050.27,3738.94
1051.33,3739.16
1052.39,3738.9
1053.46,3737.72
1054.52,3738.78
1055.58,3738.04
1056.64,3737.54
1057.7,3736.54
1058.77,3736.82
1059.83,3736.92
1060.89,3736.9
1061.95,3735.94
1063.01,3736.9
1064.07,3736.7
1065.13,3735.58
1066.19,3735.72
1067.25,3736.08
1068.05,3734.68