File: spectra/VLFR_02-HDPE_bio_Raman_ca9d868c.csv
nm,Intensity
526.549,832.65
527.096,831.9
527.643,832.2
528.19,831.6
528.737,831.65
529.283,831.55
529.83,832.2
530.376,831.3
530.922,831.95
531.468,830.9
532.014,840.45
532.559,832.45
533.105,832.45
533.65,835.35
534.196,1200.4
534.741,1214.8
535.286,1202.1
535.83,1221.1
536.375,1234.55
536.92,1225.4
537.464,1229.65
538.008,1240.5
538.553,1250.25
539.097,1249.3
539.641,1257.95
540.184,1269.05
540.728,1276.0
541.271,1279.75
541.815,1287.9
542.358,1297.2
542.901,1307.6
543.444,1313.25
543.987,1323.15
544.53,1335.2
545.072,1337.95
545.615,1344.9
546.157,1354.4
546.699,1364.0
547.242,1367.35
547.784,1374.0
548.325,1379.15
548.867,1383.8
549.409,1399.45
549.95,1408.9
550.492,1404.0
551.033,1408.9
551.574,1425.05
552.115,1432.9
552.656,1429.85
553.197,1436.25
553.737,1446.15
554.278,1451.3
554.818,1455.5
555.358,1454.05
555.899,1458.95
556.439,1463.85
556.979,1468.45
557.518,1471.15
558.058,1470.3
558.598,1475.85
559.137,1468.6
559.677,1492.1
560.216,1500.2
560.755,1499.5
561.294,1499.9
561.833,1496.55
562.372,1503.3
562.91,1522.2
563.449,1522.85
563.987,1535.7
564.526,1539.5
565.064,1550.95
565.602,1557.35
566.14,1552.65
566.678,1549.2
567.216,1546.15
567.754,1551.4
568.291,1560.5
568.829,1579.85
569.366,1594.3
569.904,1592.2
570.441,1596.75
570.978,1591.85
571.515,1591.15
572.052,1599.25
572.589,1611.95
573.125,1633.6
573.662,1624.1
574.199,1629.05
574.735,1634.35
575.271,1637.6
575.807,1634.35
576.344,1646.65
576.88,1644.85
577.415,1654.45
577.951,1654.55
578.487,1657.7
579.023,1675.5
579.558,1664.75
580.094,1667.35
580.629,1658.95
581.164,1673.0
581.699,1690.85
582.234,1678.4
582.769,1679.85
583.304,1672.7
583.839,1675.75
584.374,1680.75
584.908,1668.0
585.443,1675.35
585.977,1683.55
586.511,1690.35
587.046,1690.65
587.58,1692.85
588.114,1690.2
588.648,1688.7
589.182,1686.4
589.716,1681.3
590.249,1677.85
590.783,1683.3
591.316,1691.0
591.85,1679.2
592.383,1683.1
592.917,1674.55
593.45,1682.8
593.983,1683.85
594.516,1683.2
595.049,1688.55
595.582,1690.2
596.115,1688.5
596.647,1684.9
597.18,1685.55
597.712,1688.75
598.245,1693.0
598.777,1695.85
599.31,1701.8
599.842,1692.35
600.374,1697.55
600.906,1683.6
601.438,1680.8
601.97,1677.35
602.502,1677.2
603.034,1680.45
603.565,1678.55
604.097,1679.7
604.628,1664.3
605.16,1662.5
605.691,1653.55
606.223,1641.85
606.754,1659.25
607.285,1653.2
607.816,1660.05
608.347,1652.75
608.878,1657.4
609.409,1656.75
609.94,1652.05
610.47,1645.9
611.001,1650.7
611.532,1648.05
612.062,1659.65
612.593,1670.6
613.123,1668.3
613.653,1678.65
614.184,1674.3
614.714,1677.05
615.244,1667.9
615.774,1669.0
616.304,1659.55
616.834,1661.8
617.364,1665.8
617.894,1662.85
618.423,1662.15
618.953,1667.4
619.482,1657.85
620.012,1654.95
620.541,1649.45
621.071,1653.1
621.6,1641.7
622.13,1644.15
622.659,1652.0
623.188,1657.85
623.717,1649.45
624.246,1654.9
624.775,1650.25
625.304,1655.05
625.833,1651.0
626.362,1656.3
626.89,1650.3
627.419,1649.95
627.948,1651.35
628.476,1649.8
629.005,1649.65
629.533,1648.65
630.061,1651.05
630.59,1650.45
631.118,1644.85
631.646,1641.6
632.175,1624.9
632.703,1632.15
633.231,1620.7
633.759,1612.6
634.287,1605.15
634.815,1603.65
635.342,1604.2
635.87,1602.6
636.398,1600.0
636.926,1601.0
637.453,1594.85
637.981,1586.8
638.509,1590.15
639.036,1584.55
639.563,1581.95
640.091,1583.75
640.618,1581.75
641.146,1574.55
641.673,1582.95
642.2,1575.3
642.727,1566.7
643.254,1560.8
643.781,1551.9
644.309,1551.8
644.836,1551.3
645.362,1549.8
645.889,1548.45
646.416,1540.3
646.943,1543.7
647.47,1536.55
647.997,1539.5
648.523,1540.0
649.05,1531.4
649.577,1519.9
650.103,1525.1
650.63,1514.95
651.156,1514.35
651.683,1512.25
652.209,1516.0
652.735,1509.75
653.262,1511.15
653.788,1509.2
654.314,1510.9
654.841,1509.4
655.367,1509.75
655.893,1508.2
656.419,1502.4
656.945,1507.7
657.471,1500.35
657.997,1494.8
658.523,1493.15
659.049,1487.0
659.575,1493.2
660.101,1494.85
660.627,1490.25
661.153,1480.3
661.679,1460.05
662.205,1468.2
662.731,1463.25
663.125,1454.5