File: spectra/VLFR_02-HDPE_nobio_Raman_93d70f59.csv
nm,Intensity
526.5,827.5
527.047,828.1
527.594,828.9
528.14,829.7
528.687,829.2
529.233,830.5
529.779,830.1
530.325,828.2
530.871,829.4
531.417,828.8
531.962,838.5
532.508,831.2
533.053,828.6
533.599,829.6
534.144,997.0
534.689,994.6
535.234,978.3
535.778,978.4
536.323,970.9
536.867,964.8
537.412,959.9
537.956,964.6
538.5,966.0
539.044,966.0
539.588,968.7
540.132,961.6
540.675,968.6
541.219,969.4
541.762,974.5
542.305,972.6
542.848,981.9
543.391,981.4
543.934,984.8
544.477,981.8
545.02,982.3
545.562,994.6
546.105,993.2
546.647,999.2
547.189,1006.2
547.731,1002.7
548.273,1000.2
548.815,1007.0
549.356,1005.9
549.898,1008.2
550.439,1013.0
550.981,1011.8
551.522,1020.3
552.063,1018.7
552.604,1018.3
553.145,1023.3
553.686,1026.5
554.226,1031.3
554.767,1031.2
555.307,1028.7
555.848,1024.2
556.388,1034.3
556.928,1033.9
557.468,1033.0
558.008,1030.9
558.547,1035.5
559.087,1037.0
559.626,1046.8
560.166,1054.6
560.705,1050.6
561.244,1046.2
561.783,1055.0
562.322,1059.0
562.861,1059.0
563.4,1059.0
563.939,1069.0
564.477,1061.6
565.015,1077.0
565.554,1073.3
566.092,1081.9
566.63,1076.8
567.168,1077.0
567.706,1086.9
568.244,1082.4
568.781,1091.1
569.319,1090.4
569.857,1093.3
570.394,1101.7
570.931,1098.5
571.468,1100.8
572.005,1109.0
572.542,1112.3
573.079,1112.7
573.616,1120.8
574.153,1120.6
574.689,1119.5
575.226,1120.8
575.762,1123.6
576.298,1137.4
576.834,1133.5
577.371,1130.8
577.907,1123.0
578.442,1128.4
578.978,1128.9
579.514,1130.8
580.049,1137.0
580.585,1126.3
581.12,1133.4
581.656,1139.3
582.191,1145.8
582.726,1147.8
583.261,1149.8
583.796,1147.6
584.331,1144.3
584.865,1145.2
585.4,1146.4
585.935,1148.4
586.469,1148.8
587.004,1157.2
587.538,1168.5
588.072,1157.7
588.606,1153.6
589.14,1157.8
589.674,1159.7
590.208,1163.3
590.742,1171.1
591.275,1176.9
591.809,1174.3
592.342,1176.8
592.876,1175.1
593.409,1172.7
593.942,1185.5
594.476,1181.9
595.009,1184.4
595.542,1191.6
596.075,1195.4
596.607,1198.4
597.14,1204.7
597.673,1217.0
598.205,1225.6
598.738,1225.2
599.27,1227.3
599.803,1236.7
600.335,1233.2
600.867,1235.6
601.399,1236.5
601.931,1243.0
602.463,1247.6
602.995,1258.4
603.527,1264.3
604.058,1257.6
604.59,1263.7
605.122,1257.3
605.653,1257.8
606.184,1258.6
606.716,1264.7
607.247,1267.1
607.778,1269.9
608.309,1272.6
608.84,1285.9
609.371,1288.9
609.902,1294.1
610.433,1280.5
610.964,1282.9
611.494,1291.5
612.025,1297.5
612.556,1308.1
613.086,1310.7
613.616,1323.0
614.147,1320.8
614.677,1313.5
615.207,1308.0
615.737,1313.8
616.267,1320.2
616.797,1314.8
617.327,1322.2
617.857,1316.6
618.387,1322.4
618.917,1314.4
619.446,1311.5
619.976,1306.8
620.505,1311.0
621.035,1316.3
621.564,1306.5
622.093,1307.7
622.623,1308.1
623.152,1321.9
623.681,1313.8
624.21,1320.6
624.739,1314.3
625.268,1319.4
625.797,1321.2
626.326,1311.0
626.855,1331.3
627.383,1348.2
627.912,1342.6
628.441,1362.5
628.969,1352.1
629.498,1348.5
630.026,1345.4
630.554,1352.0
631.083,1339.5
631.611,1329.3
632.139,1320.8
632.667,1304.2
633.195,1300.5
633.724,1293.3
634.252,1296.2
634.779,1294.2
635.307,1290.2
635.835,1291.0
636.363,1290.9
636.891,1288.2
637.418,1286.6
637.946,1284.4
638.474,1283.6
639.001,1268.1
639.529,1280.3
640.056,1273.4
640.583,1276.0
641.111,1275.2
641.638,1276.6
642.165,1274.8
642.692,1270.4
643.22,1266.6
643.747,1263.7
644.274,1263.0
644.801,1262.5
645.328,1255.7
645.854,1255.8
646.381,1246.1
646.908,1251.8
647.435,1246.7
647.962,1257.7
648.488,1248.1
649.015,1252.9
649.542,1241.7
650.068,1242.4
650.595,1243.3
651.121,1239.7
651.648,1238.6
652.174,1239.2
652.7,1245.4
653.227,1239.9
653.753,1250.4
654.279,1239.3
654.805,1245.2
655.331,1236.7
655.858,1241.3
656.384,1239.9
656.91,1252.3
657.436,1249.3
657.962,1244.9
658.488,1246.7
659.013,1243.1
659.539,1257.5
660.065,1249.0
660.591,1238.8
661.117,1239.5
661.642,1238.1
662.168,1244.0
662.694,1232.4
663.088,1238.9