File: spectra/VLFR_08-PLA_bio_Raman_5db7adae.csv
nm,Intensity
526.547,830.95
527.095,831.9
527.642,831.75
528.189,830.25
528.736,830.25
529.283,830.75
529.829,830.85
530.376,831.75
530.922,831.55
531.468,831.2
532.014,844.05
532.56,832.0
533.106,831.35
533.651,833.4
534.196,944.85
534.742,926.8
535.287,908.6
535.832,903.9
536.376,900.4
536.921,901.6
537.465,897.3
538.01,894.75
538.554,891.75
539.098,892.4
539.642,890.2
540.186,890.3
540.729,894.2
541.273,896.05
541.816,893.25
542.36,892.35
542.903,896.85
543.446,903.8
543.988,908.35
544.531,905.3
545.074,899.3
545.616,898.4
546.158,897.0
546.701,895.75
547.243,898.3
547.785,897.4
548.326,900.25
548.868,901.7
549.41,901.1
549.951,903.9
550.492,904.2
551.034,909.8
551.575,909.85
552.116,907.0
552.656,908.7
553.197,908.4
553.738,909.45
554.278,911.45
554.819,908.95
555.359,908.5
555.899,904.35
556.439,907.6
556.979,911.6
557.519,920.55
558.058,969.35
558.598,921.55
559.137,918.95
559.677,919.5
560.216,916.3
560.755,915.5
561.294,916.95
561.833,927.5
562.371,975.25
562.91,931.1
563.449,939.5
563.987,929.55
564.525,925.2
565.064,937.55
565.602,936.65
566.14,950.3
566.678,938.1
567.216,928.6
567.753,931.65
568.291,935.35
568.828,933.45
569.366,934.15
569.903,933.5
570.44,933.65
570.977,934.85
571.514,940.55
572.051,940.15
572.588,938.25
573.125,942.3
573.661,942.55
574.198,942.55
574.734,947.3
575.271,939.9
575.807,937.95
576.343,949.1
576.879,973.4
577.415,950.0
577.951,940.85
578.486,941.3
579.022,943.0
579.557,946.1
580.093,941.2
580.628,940.75
581.164,943.1
581.699,946.95
582.234,946.4
582.769,947.4
583.304,948.25
583.838,948.75
584.373,945.9
584.908,949.45
585.442,946.7
585.977,949.0
586.511,958.2
587.045,974.65
587.58,976.3
588.114,958.0
588.648,952.2
589.182,947.75
589.715,948.8
590.249,951.75
590.783,950.45
591.316,952.8
591.85,953.85
592.383,949.2
592.917,952.55
593.45,950.75
593.983,950.5
594.516,951.2
595.049,952.5
595.582,952.95
596.115,952.45
596.648,952.35
597.18,953.6
597.713,953.45
598.245,955.15
598.778,956.65
599.31,955.0
599.842,953.75
600.375,955.2
600.907,952.7
601.439,953.15
601.971,953.4
602.503,951.9
603.034,952.4
603.566,957.3
604.098,954.55
604.629,956.25
605.161,949.5
605.692,947.3
606.224,951.55
606.755,949.8
607.286,951.45
607.817,952.6
608.348,950.65
608.879,952.95
609.41,951.6
609.941,953.3
610.472,949.2
611.002,951.1
611.533,951.5
612.063,950.85
612.594,951.9
613.124,952.9
613.655,954.65
614.185,954.25
614.715,953.75
615.245,953.15
615.775,954.4
616.305,952.45
616.835,952.0
617.365,953.8
617.895,950.25
618.425,952.5
618.954,950.75
619.484,948.2
620.013,949.7
620.543,947.85
621.072,947.45
621.602,950.45
622.131,952.95
622.66,951.9
623.189,957.55
623.718,953.55
624.247,950.8
624.776,951.5
625.305,950.0
625.834,949.7
626.363,949.0
626.891,949.65
627.42,947.1
627.949,954.25
628.477,971.5
629.006,964.6
629.534,961.75
630.062,964.0
630.591,983.65
631.119,1090.95
631.647,1012.55
632.175,982.45
632.703,973.5
633.231,1003.7
633.759,988.75
634.287,965.65
634.815,946.2
635.343,942.5
635.871,937.65
636.398,942.45
636.926,939.8
637.454,937.4
637.981,936.1
638.509,937.25
639.036,938.15
639.564,934.4
640.091,935.9
640.618,936.4
641.146,934.7
641.673,930.65
642.2,936.05
642.727,930.25
643.254,931.8
643.781,926.55
644.308,927.8
644.835,925.8
645.362,925.65
645.889,926.9
646.416,924.25
646.942,924.3
647.469,924.6
647.996,925.4
648.522,922.05
649.049,922.6
649.576,922.55
650.102,921.35
650.629,919.9
651.155,919.3
651.682,917.8
652.208,917.4
652.734,917.65
653.261,916.65
653.787,919.4
654.313,919.1
654.839,917.7
655.365,914.8
655.892,917.7
656.418,915.45
656.944,914.8
657.47,914.0
657.996,911.3
658.522,912.65
659.048,914.55
659.574,913.2
660.099,912.05
660.625,909.7
661.151,910.8
661.677,907.6
662.203,906.25
662.728,908.65
663.123,906.85