File: spectra/VLFR_02-HDPE_nobio_Raman_8e8300fd.csv
nm,Intensity
526.486,831.5
527.033,829.7
527.579,828.8
528.126,830.2
528.672,831.4
529.219,830.6
529.765,829.3
530.311,830.7
530.857,829.5
531.403,831.2
531.948,833.0
532.494,830.7
533.039,831.2
533.585,829.5
534.13,888.2
534.675,882.1
535.22,878.4
535.764,859.0
536.309,852.6
536.854,852.3
537.398,852.0
537.942,851.3
538.486,848.1
539.03,848.6
539.574,844.2
540.118,842.8
540.662,844.2
541.205,842.6
541.749,843.4
542.292,841.6
542.835,842.5
543.378,843.3
543.921,842.0
544.464,842.7
545.006,843.6
545.549,841.8
546.091,842.7
546.634,843.3
547.176,841.8
547.718,843.1
548.26,843.4
548.802,843.3
549.343,842.5
549.885,842.0
550.426,845.1
550.968,842.8
551.509,842.6
552.05,842.8
552.591,844.0
553.132,842.7
553.673,846.3
554.214,845.5
554.754,846.5
555.295,847.1
555.835,847.5
556.375,848.1
556.915,850.1
557.455,854.7
557.995,855.3
558.535,857.4
559.075,854.4
559.614,853.8
560.154,856.6
560.693,851.6
561.232,852.2
561.772,854.5
562.311,856.3
562.85,861.5
563.388,861.8
563.927,910.7
564.466,878.3
565.004,876.8
565.543,870.9
566.081,938.9
566.619,877.0
567.157,869.9
567.695,875.1
568.233,868.6
568.771,868.4
569.309,866.8
569.846,868.1
570.384,873.6
570.921,880.5
571.458,961.1
571.995,897.9
572.532,882.1
573.069,876.7
573.606,879.7
574.143,892.5
574.68,883.9
575.216,889.4
575.753,934.5
576.289,1018.7
576.825,968.0
577.361,956.2
577.897,915.1
578.433,914.4
578.969,917.5
579.505,926.5
580.041,929.2
580.576,935.9
581.112,942.4
581.647,946.1
582.183,956.3
582.718,960.5
583.253,964.2
583.788,976.9
584.323,973.0
584.858,981.0
585.392,985.8
585.927,991.9
586.462,996.1
586.996,1010.9
587.53,1014.8
588.065,1017.4
588.599,1027.6
589.133,1032.3
589.667,1040.4
590.201,1046.8
590.735,1048.8
591.268,1056.1
591.802,1061.5
592.335,1064.5
592.869,1066.3
593.402,1060.7
593.936,1065.2
594.469,1071.1
595.002,1073.1
595.535,1073.4
596.068,1077.8
596.601,1085.7
597.133,1082.3
597.666,1092.0
598.199,1101.7
598.731,1110.8
599.264,1114.9
599.796,1112.7
600.328,1124.6
600.86,1119.9
601.393,1123.1
601.925,1120.1
602.457,1121.5
602.988,1119.3
603.52,1113.5
604.052,1106.2
604.583,1094.5
605.115,1085.6
605.646,1072.8
606.178,1060.7
606.709,1052.4
607.24,1040.4
607.771,1039.1
608.302,1031.9
608.833,1026.1
609.364,1020.0
609.895,1014.2
610.426,1010.5
610.957,1002.3
611.487,999.7
612.018,998.7
612.548,996.6
613.078,996.0
613.609,988.0
614.139,982.2
614.669,980.3
615.199,974.2
615.729,977.1
616.259,974.1
616.789,973.3
617.319,975.6
617.849,974.7
618.378,967.8
618.908,966.9
619.437,967.9
619.967,970.3
620.496,967.5
621.025,974.4
621.555,972.9
622.084,998.1
622.613,997.1
623.142,970.7
623.671,963.2
624.2,961.5
624.729,963.1
625.258,960.7
625.786,969.2
626.315,995.1
626.844,1229.2
627.372,1726.8
627.901,1381.7
628.429,1590.4
628.957,1449.5
629.486,1313.1
630.014,1194.2
630.542,1174.7
631.07,1054.9
631.598,985.5
632.126,967.2
632.654,960.4
633.182,960.3
633.71,952.1
634.237,954.6
634.765,953.0
635.293,952.2
635.82,954.8
636.348,952.5
636.875,946.7
637.403,954.8
637.93,947.2
638.458,952.9
638.985,953.2
639.512,954.7
640.039,949.5
640.566,956.1
641.093,948.4
641.62,957.6
642.147,955.1
642.674,957.5
643.201,955.6
643.728,956.8
644.255,953.0
644.781,958.3
645.308,951.5
645.835,951.8
646.361,954.3
646.888,953.6
647.414,950.9
647.941,951.4
648.467,950.8
648.993,951.4
649.52,951.1
650.046,946.2
650.572,950.8
651.098,945.6
651.625,949.5
652.151,948.7
652.677,945.5
653.203,947.7
653.729,947.9
654.255,948.5
654.78,945.2
655.306,944.2
655.832,943.2
656.358,942.0
656.884,936.2
657.409,944.2
657.935,938.0
658.461,933.9
658.986,932.2
659.512,934.2
660.037,930.2
660.563,926.2
661.088,926.4
661.614,918.4
662.139,914.5
662.664,914.6
663.058,908.6