File: spectra/VLFR_02-HDPE_bio_Raman_753a8a9a.csv
nm,Intensity
526.494,833.7
527.041,833.7
527.588,834.0
528.135,835.4
528.682,834.6
529.229,834.0
529.775,834.7
530.321,832.1
530.868,834.0
531.414,834.5
531.96,843.9
532.506,834.9
533.051,834.2
533.597,836.2
534.142,917.2
534.687,914.8
535.232,913.5
535.777,880.8
536.322,873.5
536.867,872.6
537.411,866.6
537.956,868.3
538.5,863.6
539.044,863.0
539.588,860.5
540.132,859.3
540.676,859.0
541.22,857.1
541.763,859.3
542.306,857.7
542.85,858.6
543.393,859.1
543.936,861.6
544.479,858.6
545.021,862.5
545.564,859.5
546.106,858.1
546.649,861.0
547.191,859.3
547.733,861.8
548.275,861.0
548.817,860.4
549.359,862.9
549.9,861.0
550.442,861.4
550.983,861.1
551.524,860.4
552.066,861.0
552.607,864.1
553.148,862.6
553.688,863.9
554.229,865.9
554.77,866.3
555.31,864.3
555.85,864.9
556.39,868.0
556.931,866.6
557.471,870.4
558.01,870.2
558.55,868.8
559.09,869.4
559.629,867.8
560.169,867.4
560.708,866.3
561.247,868.6
561.786,871.3
562.325,873.1
562.864,873.7
563.403,874.6
563.941,955.9
564.48,890.4
565.018,881.5
565.557,877.2
566.095,927.0
566.633,878.2
567.171,878.8
567.709,885.6
568.247,873.5
568.784,871.6
569.322,874.1
569.859,872.8
570.397,879.3
570.934,884.3
571.471,1005.7
572.008,895.7
572.545,879.7
573.082,878.2
573.619,878.0
574.155,884.2
574.692,877.0
575.228,879.0
575.765,913.1
576.301,1023.2
576.837,952.6
577.373,930.7
577.909,885.9
578.445,879.8
578.981,880.0
579.516,881.9
580.052,879.7
580.587,879.0
581.123,878.2
581.658,878.0
582.193,880.4
582.728,884.5
583.263,883.8
583.798,885.2
584.333,884.8
584.868,885.7
585.402,890.7
585.937,889.6
586.471,891.7
587.005,892.3
587.54,895.2
588.074,896.3
588.608,896.2
589.142,897.1
589.676,898.6
590.21,901.5
590.743,901.2
591.277,904.4
591.81,902.9
592.344,904.1
592.877,902.6
593.411,903.2
593.944,907.0
594.477,905.4
595.01,909.5
595.543,908.6
596.076,910.6
596.608,909.4
597.141,914.7
597.674,915.7
598.206,916.7
598.739,917.1
599.271,918.2
599.803,919.2
600.335,916.9
600.868,921.1
601.4,918.7
601.931,924.8
602.463,921.4
602.995,918.0
603.527,921.3
604.058,917.2
604.59,916.7
605.121,917.5
605.653,916.2
606.184,913.6
606.715,910.5
607.246,909.0
607.778,905.7
608.309,907.1
608.839,911.1
609.37,911.1
609.901,908.0
610.432,905.9
610.962,908.6
611.493,907.0
612.023,904.8
612.554,908.8
613.084,908.3
613.614,905.6
614.145,903.6
614.675,903.3
615.205,905.6
615.735,904.7
616.265,905.9
616.795,912.0
617.324,919.9
617.854,919.2
618.384,919.4
618.913,914.9
619.443,924.6
619.972,924.9
620.502,918.2
621.031,927.6
621.56,946.2
622.089,990.0
622.618,984.7
623.147,933.0
623.676,924.2
624.205,922.5
624.734,919.4
625.263,923.8
625.792,935.2
626.32,986.6
626.849,1430.5
627.377,2079.0
627.906,1600.8
628.434,2060.9
628.963,1501.9
629.491,1356.9
630.019,1217.1
630.547,1184.0
631.076,1025.6
631.604,943.5
632.132,918.8
632.66,918.0
633.188,911.8
633.715,907.9
634.243,909.8
634.771,901.9
635.299,903.3
635.826,904.4
636.354,899.9
636.881,899.8
637.409,899.0
637.936,894.4
638.464,890.8
638.991,896.2
639.518,892.1
640.045,893.3
640.573,897.4
641.1,894.1
641.627,897.9
642.154,897.3
642.681,894.1
643.208,891.8
643.735,894.6
644.261,894.7
644.788,895.2
645.315,897.0
645.842,895.4
646.368,895.7
646.895,894.6
647.421,894.6
647.948,896.8
648.474,896.3
649.001,901.4
649.527,897.2
650.054,899.3
650.58,899.5
651.106,897.8
651.633,898.9
652.159,896.6
652.685,896.6
653.211,894.4
653.737,897.8
654.263,896.2
654.789,896.5
655.315,892.3
655.841,890.2
656.367,891.0
656.893,894.8
657.419,892.7
657.945,887.9
658.47,892.6
658.996,890.3
659.522,890.4
660.047,893.8
660.573,887.4
661.099,885.5
661.624,887.9
662.15,883.2
662.675,885.0
663.07,884.4