File: spectra/VLFR_01-LDPE_nobio_Raman_4d1bc6e1.csv
nm,Intensity
526.5,831.1
527.047,829.4
527.594,830.1
528.14,830.3
528.687,830.3
529.233,830.3
529.779,829.4
530.325,828.8
530.871,830.7
531.417,830.5
531.962,836.9
532.508,829.2
533.053,830.3
533.599,830.0
534.144,870.6
534.689,860.7
535.234,855.2
535.778,852.4
536.323,848.0
536.867,846.1
537.412,845.9
537.956,845.6
538.5,844.7
539.044,844.6
539.588,844.1
540.132,841.9
540.675,841.5
541.219,839.6
541.762,841.4
542.305,841.1
542.848,839.7
543.391,841.4
543.934,838.4
544.477,838.6
545.02,838.9
545.562,840.0
546.105,839.0
546.647,837.3
547.189,840.0
547.731,839.9
548.273,839.1
548.815,837.9
549.356,838.7
549.898,838.3
550.439,836.3
550.981,838.8
551.522,839.5
552.063,840.4
552.604,838.2
553.145,838.0
553.686,839.9
554.226,839.7
554.767,840.1
555.307,839.8
555.848,842.9
556.388,844.5
556.928,846.1
557.468,845.9
558.008,849.0
558.547,848.1
559.087,848.8
559.626,846.0
560.166,846.2
560.705,847.7
561.244,847.9
561.783,847.0
562.322,849.4
562.861,852.2
563.4,853.2
563.939,881.6
564.477,866.6
565.015,862.3
565.554,862.1
566.092,902.1
566.63,868.1
567.168,861.4
567.706,863.8
568.244,860.7
568.781,863.7
569.319,866.5
569.857,868.5
570.394,868.2
570.931,872.9
571.468,917.4
572.005,896.7
572.542,887.2
573.079,880.3
573.616,886.5
574.153,894.3
574.689,892.5
575.226,897.0
575.762,929.2
576.298,955.9
576.834,951.6
577.371,939.6
577.907,936.3
578.442,938.7
578.978,948.2
579.514,962.0
580.049,964.7
580.585,975.0
581.12,983.5
581.656,993.7
582.191,1004.2
582.726,1004.6
583.261,1017.6
583.796,1022.4
584.331,1032.8
584.865,1029.5
585.4,1040.4
585.935,1048.1
586.469,1054.5
587.004,1070.1
587.538,1081.4
588.072,1093.5
588.606,1097.9
589.14,1104.8
589.674,1124.0
590.208,1139.0
590.742,1153.7
591.275,1163.7
591.809,1163.3
592.342,1167.7
592.876,1171.0
593.409,1173.2
593.942,1173.3
594.476,1183.3
595.009,1177.9
595.542,1182.2
596.075,1181.0
596.607,1186.8
597.14,1190.2
597.673,1188.8
598.205,1203.1
598.738,1210.0
599.27,1212.3
599.803,1204.0
600.335,1207.1
600.867,1202.1
601.399,1199.5
601.931,1200.7
602.463,1199.3
602.995,1181.5
603.527,1174.2
604.058,1163.3
604.59,1151.8
605.122,1135.8
605.653,1118.9
606.184,1108.5
606.716,1091.9
607.247,1085.7
607.778,1078.7
608.309,1075.7
608.84,1067.4
609.371,1058.3
609.902,1052.8
610.433,1047.0
610.964,1040.3
611.494,1035.2
612.025,1032.4
612.556,1031.7
613.086,1026.4
613.616,1030.4
614.147,1018.8
614.677,1010.7
615.207,1007.0
615.737,1007.9
616.267,1003.6
616.797,1001.6
617.327,999.6
617.857,998.3
618.387,990.5
618.917,990.5
619.446,988.8
619.976,988.3
620.505,978.2
621.035,987.2
621.564,987.3
622.093,992.0
622.623,990.5
623.152,983.3
623.681,977.3
624.21,975.6
624.739,981.8
625.268,980.5
625.797,979.4
626.326,990.7
626.855,1057.5
627.383,1226.1
627.912,1132.7
628.441,1192.4
628.969,1175.4
629.498,1133.5
630.026,1093.4
630.554,1083.3
631.083,1033.7
631.611,1006.2
632.139,996.8
632.667,996.2
633.195,994.4
633.724,991.8
634.252,992.9
634.779,996.5
635.307,995.1
635.835,991.6
636.363,998.8
636.891,995.9
637.418,999.9
637.946,1005.0
638.474,1002.4
639.001,999.6
639.529,1006.7
640.056,1009.5
640.583,1005.7
641.111,1011.7
641.638,1008.5
642.165,1014.0
642.692,1017.9
643.22,1015.7
643.747,1026.3
644.274,1013.1
644.801,1017.7
645.328,1018.1
645.854,1021.5
646.381,1019.3
646.908,1017.2
647.435,1019.5
647.962,1015.0
648.488,1014.1
649.015,1011.8
649.542,1006.7
650.068,1002.1
650.595,1006.3
651.121,1006.7
651.648,1006.7
652.174,1001.1
652.7,1001.9
653.227,1006.8
653.753,999.5
654.279,996.8
654.805,997.9
655.331,998.4
655.858,991.9
656.384,988.4
656.91,985.1
657.436,982.5
657.962,982.8
658.488,984.8
659.013,973.3
659.539,972.9
660.065,963.0
660.591,960.4
661.117,954.2
661.642,949.1
662.168,944.4
662.694,941.7
663.088,936.2