File: spectra/VLFR_02-HDPE_nobio_Raman_deeed74f.csv
nm,Intensity
528.65,1835.95
529.155,1836.05
529.66,1836.15
530.165,1836.15
530.67,1836.8
531.175,1836.05
531.68,1844.9
532.185,2408.55
532.69,1836.2
533.194,1837.35
533.699,1917.95
534.204,2116.1
534.708,2119.45
535.213,2109.85
535.717,2026.05
536.222,1996.8
536.726,1987.45
537.231,1990.0
537.735,1989.95
538.239,1985.2
538.743,1972.75
539.247,1969.25
539.751,1961.35
540.255,1958.7
540.759,1955.55
541.263,1958.45
541.767,1962.8
542.271,1964.9
542.775,1966.25
543.279,1969.0
543.782,1968.0
544.286,1957.35
544.789,1961.3
545.293,1964.6
545.796,1971.3
546.3,1961.95
546.803,1967.45
547.306,1965.5
547.81,1961.8
548.313,1975.15
548.816,1965.9
549.319,1969.8
549.822,1971.7
550.325,1970.95
550.828,1968.1
551.331,1979.7
551.834,1983.05
552.337,1980.55
552.839,1974.95
553.342,1989.65
553.844,1987.75
554.347,1988.1
554.849,2003.7
555.352,1996.65
555.854,2007.15
556.357,2006.9
556.859,2010.8
557.361,2014.85
557.863,2020.85
558.365,2031.9
558.867,2013.1
559.369,2020.1
559.871,2023.5
560.373,2018.3
560.875,2018.75
561.377,2024.25
561.878,2031.9
562.38,2035.3
562.881,2046.45
563.383,2064.35
563.884,2500.15
564.386,2162.75
564.887,2123.75
565.388,2093.5
565.89,2319.55
566.391,2328.25
566.892,2077.05
567.393,2149.45
567.894,2069.9
568.395,2054.35
568.896,2059.65
569.396,2064.8
569.897,2073.15
570.398,2091.85
570.898,2130.2
571.399,2774.5
571.9,2266.35
572.4,2167.35
572.9,2121.8
573.401,2134.6
573.901,2192.95
574.401,2142.3
574.901,2178.2
575.401,2531.95
575.901,2473.95
576.401,2780.55
576.901,2617.75
577.401,2447.35
577.901,2314.8
578.4,2320.4
578.9,2352.35
579.399,2385.75
579.899,2415.4
580.398,2455.4
580.898,2489.3
581.397,2517.95
581.896,2577.1
582.395,2619.8
582.895,2662.85
583.394,2702.8
583.893,2755.35
584.391,2802.35
584.89,2790.45
585.389,2832.15
585.888,2894.85
586.386,2933.5
586.885,2967.75
587.384,3039.65
587.882,3096.75
588.38,3116.75
588.879,3185.6
589.377,3255.4
589.875,3261.95
590.373,3330.2
590.871,3371.5
591.369,3420.6
591.867,3502.05
592.365,3484.0
592.863,3526.9
593.361,3550.75
593.858,3600.35
594.356,3594.8
594.853,3605.9
595.351,3639.05
595.848,3690.65
596.345,3691.2
596.843,3724.25
597.34,3734.35
597.837,3749.45
598.334,3751.05
598.831,3797.2
599.328,3820.05
599.824,3845.95
600.321,3824.5
600.818,3851.95
601.314,3823.6
601.811,3826.4
602.307,3828.05
602.804,3796.85
603.3,3716.1
603.796,3700.8
604.293,3645.7
604.789,3600.75
605.285,3552.1
605.781,3505.25
606.277,3477.5
606.772,3401.0
607.268,3393.15
607.764,3284.3
608.259,3272.2
608.755,3191.55
609.25,3178.95
609.746,3122.25
610.241,3096.4
610.736,3120.3
611.231,3057.8
611.727,3016.7
612.222,2974.2
612.716,2946.4
613.211,2932.65
613.706,2912.3
614.201,2868.35
614.695,2879.85
615.19,2815.15
615.684,2808.6
616.179,2809.65
616.673,2810.8
617.168,2800.1
617.662,2760.45
618.156,2773.05
618.65,2741.05
619.144,2745.4
619.638,2733.45
620.131,2736.3
620.625,2695.7
621.119,2727.65
621.612,2780.15
622.106,2909.7
622.599,2816.05
623.093,2666.0
623.586,2664.25
624.079,2626.25
624.572,2612.65
625.065,2624.75
625.558,2630.25
626.051,2721.45
626.544,3300.75
627.037,5895.9
627.529,5376.55
628.022,4785.5
628.514,6506.3
629.007,4535.45
629.499,4091.4
629.991,3690.8
630.483,3570.65
630.976,3050.2
631.468,2722.3
631.959,2620.25
632.451,2596.6
632.943,2598.6
633.435,2601.0
633.926,2601.15
634.418,2570.75
634.909,2577.05
635.401,2547.9
635.892,2561.15
636.383,2576.3
636.874,2552.8
637.365,2558.2
637.856,2560.25
638.347,2565.8
638.838,2563.3
639.329,2573.9
639.819,2579.35
640.31,2608.3
640.8,2556.85
641.291,2591.05
641.781,2584.5
642.271,2614.25
642.761,2617.65
643.251,2581.7
643.741,2611.9
644.231,2617.4
644.721,2598.0
645.211,2600.65
645.7,2614.15
646.19,2586.6
646.679,2619.75
647.169,2571.05
647.658,2568.45
648.147,2571.15
648.636,2551.35
649.125,2513.6
649.614,2550.45
650.103,2540.2
650.592,2550.25
651.08,2514.65
651.569,2486.95
652.058,2513.6
652.546,2509.1
653.034,2473.2
653.523,2474.05
654.011,2455.95
654.499,2448.3
654.987,2452.0
655.475,2426.35
655.963,2429.8
656.45,2407.2
656.938,2402.45
657.425,2381.15
657.913,2360.7
658.4,2335.55
658.888,2325.4
659.375,2318.35
659.862,2303.0
660.349,2311.1
660.836,2260.2
661.079,2260.95