File: spectra/VLFR_07-PET_nobio_Raman_cf448416.csv
nm,Intensity
791.377,12557.1
792.477,11253.8
793.576,10635.0
794.676,10201.3
795.775,10132.9
796.874,10056.2
797.973,10024.8
799.072,9944.62
800.171,9874.78
801.27,9797.64
802.368,9865.36
803.467,9618.3
804.565,9540.16
805.664,9440.96
806.762,9353.62
807.86,9169.92
808.958,9292.18
810.056,9104.22
811.153,9059.52
812.251,9001.46
813.349,8960.0
814.446,8738.36
815.543,8766.48
816.64,8650.5
817.737,8580.38
818.834,8558.04
819.931,8460.58
821.028,8456.98
822.125,8318.1
823.221,8204.92
824.317,8163.96
825.414,8227.58
826.51,8276.02
827.606,7997.16
828.702,7953.64
829.797,7794.3
830.893,7893.12
831.988,7730.86
833.084,7676.46
834.179,7561.36
835.274,7494.08
836.369,7475.32
837.464,7693.86
838.559,7548.16
839.654,7465.66
840.748,7520.74
841.843,7734.66
842.937,7352.24
844.031,7348.26
845.125,7167.18
846.219,6938.74
847.313,6971.44
848.407,6944.52
849.5,6914.98
850.593,6808.18
851.687,6899.4
852.78,6840.78
853.873,6845.22
854.966,6759.22
856.059,6643.02
857.151,6691.7
858.244,6734.86
859.336,6845.58
860.428,6867.22
861.52,6654.8
862.612,6455.8
863.704,6482.54
864.796,6554.84
865.888,6388.7
866.979,6371.6
868.07,6288.84
869.162,6385.56
870.253,6306.86
871.344,6483.44
872.434,6635.12
873.525,6633.68
874.615,6429.54
875.706,6230.72
876.796,6159.98
877.886,6117.18
878.976,5979.98
880.066,5992.86
881.156,5985.56
882.245,5976.76
883.335,5924.52
884.424,5960.56
885.513,5874.76
886.602,5823.94
887.691,5765.16
888.78,5740.98
889.868,5670.16
890.957,5630.08
892.045,5645.2
893.133,5574.92
894.221,5571.22
895.309,5498.72
896.397,5445.76
897.484,5597.46
898.571,6214.8
899.659,5936.08
900.746,5405.7
901.833,5307.52
902.92,5303.86
904.006,5245.62
905.093,5239.72
906.179,5296.62
907.266,5590.12
908.352,5699.66
909.438,5421.92
910.523,5167.56
911.609,5043.1
912.695,4983.3
913.78,4943.1
914.865,4955.22
915.95,4894.08
917.035,4843.2
918.12,4838.84
919.204,4809.58
920.289,4779.14
921.373,4759.22
922.457,4750.24
923.541,4689.12
924.625,4653.6
925.709,4626.24
926.792,4627.64
927.876,4588.26
928.959,4561.2
930.042,4529.26
931.125,4506.28
932.208,4475.74
933.29,4472.68
934.373,4440.2
935.455,4405.2
936.537,4389.98
937.619,4355.62
938.701,4371.6
939.782,4347.3
940.864,4323.62
941.945,4302.76
943.026,4281.1
944.107,4278.76
945.188,4250.74
946.269,4220.08
947.349,4212.44
948.43,4200.58
949.51,4195.34
950.59,4167.2
951.67,4159.3
952.75,4147.48
953.829,4128.04
954.909,4122.22
955.988,4103.8
957.067,4095.22
958.146,4088.04
959.224,4075.46
960.303,4057.82
961.381,4051.34
962.459,4051.74
963.537,4029.96
964.615,4016.84
965.693,4007.06
966.771,3992.18
967.848,4002.4
968.925,3985.84
970.002,3985.14
971.079,3970.24
972.156,3959.14
973.232,3956.86
974.309,3943.5
975.385,3934.32
976.461,3931.1
977.537,3919.12
978.612,3920.1
979.688,3906.12
980.763,3904.64
981.838,3891.9
982.913,3888.78
983.988,3888.94
985.063,3878.26
986.137,3874.58
987.211,3870.82
988.285,3865.54
989.359,3859.38
990.433,3852.2
991.506,3851.14
992.58,3842.24
993.653,3841.02
994.726,3830.66
995.799,3827.78
996.872,3826.36
997.944,3820.7
999.016,3818.88
1000.09,3819.34
1001.16,3811.2
1002.23,3805.78
1003.3,3802.88
1004.38,3800.16
1005.45,3794.44
1006.52,3793.68
1007.59,3789.16
1008.66,3787.76
1009.73,3782.2
1010.8,3777.92
1011.87,3777.18
1012.94,3776.66
1014.01,3775.76
1015.08,3772.72
1016.15,3770.24
1017.22,3768.04
1018.29,3766.82
1019.36,3764.5
1020.42,3763.04
1021.49,3768.0
1022.56,3769.3
1023.63,3769.72
1024.7,3764.44
1025.76,3759.12
1026.83,3754.02
1027.9,3752.38
1028.97,3749.0
1030.03,3746.18
1031.1,3744.08
1032.17,3742.44
1033.23,3742.84
1034.3,3747.12
1035.36,3747.68
1036.43,3745.94
1037.5,3741.64
1038.56,3736.34
1039.63,3734.2
1040.69,3733.1
1041.76,3730.78
1042.82,3731.1
1043.89,3730.34
1044.95,3728.24
1046.01,3727.1
1047.08,3727.46
1048.14,3726.36
1049.2,3726.4
1050.27,3726.2
1051.33,3725.84
1052.39,3725.44
1053.46,3724.46
1054.52,3724.16
1055.58,3724.44
1056.64,3723.36
1057.7,3723.34
1058.77,3723.5
1059.83,3723.16
1060.89,3722.96
1061.95,3723.06
1063.01,3722.4
1064.07,3722.3
1065.13,3722.2
1066.19,3720.88
1067.25,3721.02
1068.05,3720.9