File: spectra/VLFR_08-PLA_bio_Raman_a4d97f0f.csv
nm,Intensity
526.495,829.65
527.042,829.42
527.589,829.09
528.136,828.79
528.682,829.07
529.229,829.06
529.775,828.87
530.321,828.84
530.867,828.78
531.413,829.62
531.959,838.19
532.505,830.4
533.051,828.91
533.596,830.09
534.141,973.05
534.687,972.37
535.232,959.7
535.777,954.83
536.321,946.31
536.866,942.24
537.41,939.65
537.955,940.52
538.499,940.62
539.043,940.22
539.587,944.32
540.131,947.44
540.675,952.83
541.219,955.73
541.762,955.2
542.305,959.14
542.849,961.47
543.392,955.32
543.935,961.71
544.478,965.03
545.02,970.74
545.563,964.9
546.106,1012.57
546.648,976.26
547.19,974.13
547.732,971.76
548.274,965.93
548.816,967.75
549.358,971.33
549.9,969.96
550.441,969.69
550.983,967.9
551.524,966.72
552.065,966.62
552.606,966.69
553.147,968.82
553.688,970.04
554.229,971.01
554.769,971.95
555.31,970.43
555.85,968.41
556.391,973.08
556.931,984.01
557.471,997.95
558.011,1011.06
558.551,979.58
559.09,982.51
559.63,991.44
560.169,1005.94
560.709,981.77
561.248,980.85
561.787,983.29
562.326,994.61
562.865,998.88
563.404,1008.15
563.943,1014.8
564.481,1021.66
565.02,1020.46
565.558,1027.29
566.096,1030.48
566.634,1017.92
567.172,1012.32
567.71,995.35
568.248,996.15
568.786,998.95
569.324,1002.06
569.861,1008.34
570.399,1014.36
570.936,1009.98
571.473,1006.03
572.01,1010.54
572.547,1022.4
573.084,1032.55
573.621,1030.01
574.158,1030.71
574.694,1030.62
575.231,1028.64
575.767,1020.25
576.303,1014.61
576.84,1032.13
577.376,1021.02
577.912,1008.43
578.448,1005.99
578.984,1010.78
579.519,1009.17
580.055,1005.09
580.59,1005.8
581.126,1006.66
581.661,1009.44
582.196,1009.76
582.731,1009.22
583.267,1012.09
583.801,1007.72
584.336,1006.86
584.871,1008.05
585.406,1006.99
585.94,1008.27
586.475,1009.57
587.009,1011.22
587.543,1010.84
588.078,1009.23
588.612,1008.23
589.146,1007.94
589.68,1007.33
590.214,1008.24
590.747,1008.92
591.281,1009.69
591.815,1010.19
592.348,1009.28
592.881,1008.48
593.415,1007.52
593.948,1009.01
594.481,1010.23
595.014,1010.76
595.547,1011.22
596.08,1013.28
596.613,1013.57
597.146,1013.43
597.678,1013.94
598.211,1016.17
598.743,1016.52
599.276,1016.52
599.808,1014.59
600.34,1013.49
600.872,1014.45
601.404,1014.24
601.936,1014.04
602.468,1014.42
603.0,1016.18
603.532,1015.76
604.064,1015.84
604.595,1015.69
605.127,1014.59
605.658,1010.77
606.189,1012.29
606.721,1010.05
607.252,1011.93
607.783,1012.07
608.314,1013.65
608.845,1015.57
609.376,1014.33
609.907,1014.51
610.438,1014.37
610.968,1012.85
611.499,1014.51
612.029,1015.25
612.56,1017.54
613.09,1020.47
613.621,1021.68
614.151,1020.71
614.681,1021.8
615.211,1020.57
615.741,1019.03
616.271,1019.63
616.801,1020.88
617.331,1022.36
617.861,1023.64
618.39,1022.71
618.92,1023.84
619.45,1023.83
619.979,1023.98
620.509,1025.53
621.038,1024.94
621.567,1026.79
622.096,1028.83
622.626,1029.36
623.155,1033.29
623.684,1032.92
624.213,1032.46
624.742,1033.78
625.271,1033.42
625.799,1035.37
626.328,1036.63
626.857,1041.45
627.386,1049.78
627.914,1062.08
628.443,1092.51
628.971,1137.8
629.5,1165.85
630.028,1168.56
630.556,1164.25
631.084,1161.41
631.613,1132.92
632.141,1106.78
632.669,1088.99
633.197,1068.37
633.725,1047.25
634.253,1035.1
634.781,1026.86
635.308,1024.46
635.836,1023.83
636.364,1022.28
636.891,1023.17
637.419,1022.38
637.947,1023.86
638.474,1024.23
639.002,1024.01
639.529,1025.66
640.056,1026.0
640.584,1027.25
641.111,1027.51
641.638,1028.42
642.165,1029.85
642.692,1030.58
643.219,1027.48
643.746,1028.29
644.273,1027.16
644.8,1027.9
645.327,1027.57
645.854,1026.79
646.381,1029.01
646.908,1030.47
647.434,1029.7
647.961,1030.04
648.488,1030.14
649.014,1028.74
649.541,1027.56
650.067,1026.55
650.594,1025.2
651.12,1022.5
651.646,1023.24
652.173,1023.81
652.699,1022.21
653.225,1019.9
653.752,1017.56
654.278,1016.98
654.804,1012.41
655.33,1011.74
655.856,1010.02
656.382,1008.09
656.908,1006.12
657.434,1005.26
657.96,1001.64
658.486,1003.9
659.012,999.87
659.538,998.66
660.064,998.31
660.589,998.68
661.115,995.63
661.641,994.88
662.166,992.29
662.692,993.9
663.086,991.78