File: spectra/VLFR_08-PLA_nobio_Raman_20944d8e.csv
nm,Intensity
526.508,831.1
527.055,830.1
527.602,831.0
528.149,830.4
528.695,829.2
529.241,829.2
529.787,830.2
530.334,830.5
530.879,829.6
531.425,830.3
531.971,833.8
532.516,830.9
533.062,830.4
533.607,832.0
534.152,1068.6
534.697,1031.6
535.242,995.0
535.786,971.4
536.331,968.5
536.876,971.1
537.42,958.6
537.964,959.5
538.508,951.8
539.052,950.8
539.596,944.8
540.14,941.2
540.683,959.7
541.227,964.9
541.77,951.5
542.313,947.7
542.856,947.7
543.399,970.5
543.942,983.8
544.485,959.7
545.027,951.9
545.57,948.7
546.112,953.7
546.654,947.9
547.196,952.2
547.738,953.2
548.28,952.3
548.822,958.6
549.363,959.6
549.905,958.3
550.446,961.8
550.988,960.8
551.529,968.6
552.07,969.0
552.611,971.9
553.152,973.3
553.692,970.8
554.233,975.1
554.773,972.2
555.314,966.6
555.854,964.1
556.394,969.5
556.934,969.2
557.474,985.0
558.014,1098.0
558.553,1002.2
559.093,978.0
559.632,979.1
560.172,978.0
560.711,973.6
561.25,974.2
561.789,973.2
562.328,972.9
562.867,988.9
563.406,1021.6
563.944,1000.3
564.483,990.9
565.021,1010.5
565.559,1011.2
566.098,1037.7
566.636,1010.9
567.174,987.3
567.711,992.4
568.249,991.3
568.787,998.0
569.324,999.8
569.862,996.5
570.399,1001.0
570.936,999.5
571.474,1013.0
572.011,1015.5
572.548,1008.7
573.084,1010.1
573.621,1018.7
574.158,1016.8
574.694,1029.0
575.231,1000.8
575.767,1007.4
576.303,1026.7
576.84,1083.2
577.376,1032.8
577.912,1013.8
578.447,1010.5
578.983,1007.1
579.519,1003.8
580.054,1006.9
580.59,1002.7
581.125,1006.1
581.661,1006.9
582.196,1006.2
582.731,1008.6
583.266,1018.2
583.801,1006.2
584.336,1012.8
584.87,1011.6
585.405,1011.7
585.94,1017.1
586.474,1026.5
587.008,1062.1
587.543,1087.0
588.077,1036.7
588.611,1011.0
589.145,1014.5
589.679,1015.0
590.213,1011.9
590.747,1013.1
591.28,1018.8
591.814,1013.6
592.347,1016.6
592.881,1011.7
593.414,1010.8
593.947,1013.0
594.48,1012.3
595.014,1013.3
595.547,1010.0
596.079,1010.2
596.612,1013.8
597.145,1016.4
597.678,1008.8
598.21,1012.7
598.743,1014.9
599.275,1013.6
599.807,1013.2
600.34,1011.5
600.872,1009.8
601.404,1013.5
601.936,1015.1
602.468,1009.9
603.0,1011.0
603.532,1008.7
604.063,1009.6
604.595,1005.7
605.126,1003.7
605.658,1000.8
606.189,996.9
606.721,996.1
607.252,1004.2
607.783,1006.0
608.314,1006.4
608.845,1004.4
609.376,999.0
609.907,1003.5
610.438,1001.8
610.968,1001.8
611.499,1002.8
612.03,1003.6
612.56,1009.6
613.091,1011.9
613.621,1005.0
614.151,1006.6
614.681,1006.7
615.212,1004.3
615.742,1006.7
616.272,1007.1
616.802,1009.5
617.332,1006.6
617.861,1003.5
618.391,1010.6
618.921,1005.3
619.45,1007.5
619.98,1003.7
620.509,1000.0
621.039,1001.6
621.568,1001.4
622.097,1005.8
622.627,1016.1
623.156,1017.4
623.685,1014.7
624.214,1009.7
624.743,1004.3
625.272,1005.1
625.801,1002.4
626.33,1007.0
626.858,1007.5
627.387,1001.9
627.916,1016.0
628.444,1087.2
628.973,1073.0
629.501,1064.6
630.029,1074.2
630.558,1134.4
631.086,1544.5
631.614,1271.2
632.142,1144.0
632.67,1114.5
633.198,1218.7
633.726,1174.8
634.254,1071.1
634.782,1016.6
635.31,1000.3
635.838,996.0
636.365,996.6
636.893,990.7
637.421,986.6
637.948,990.3
638.476,991.9
639.003,984.9
639.531,985.5
640.058,982.9
640.585,987.4
641.113,984.8
641.64,983.2
642.167,983.5
642.694,987.0
643.221,979.1
643.748,974.1
644.275,976.6
644.802,973.8
645.329,969.9
645.856,973.3
646.382,971.2
646.909,970.5
647.436,976.0
647.962,971.3
648.489,966.9
649.016,968.1
649.542,969.5
650.069,966.6
650.595,962.1
651.121,966.1
651.648,961.7
652.174,960.6
652.7,959.3
653.227,961.6
653.753,966.6
654.279,961.6
654.805,956.2
655.331,959.8
655.857,955.2
656.383,956.3
656.909,960.5
657.435,961.2
657.961,956.9
658.487,958.3
659.013,954.8
659.538,953.5
660.064,954.7
660.59,953.4
661.116,953.2
661.641,953.3
662.167,949.8
662.692,949.6
663.087,951.9