File: spectra/VLFR_02-HDPE_bio_Raman_254d49ff.csv
nm,Intensity
528.65,1855.85
529.155,1855.45
529.66,1855.65
530.165,1857.2
530.67,1856.15
531.175,1858.85
531.68,1902.9
532.185,3443.25
532.69,1857.8
533.194,1857.45
533.699,1901.65
534.204,2040.65
534.708,2031.1
535.213,2052.15
535.717,2042.8
536.222,2041.55
536.726,2016.95
537.231,2046.25
537.735,2022.65
538.239,2033.05
538.743,2017.2
539.247,2012.6
539.751,2007.8
540.255,2002.85
540.759,2004.5
541.263,2013.95
541.767,2018.35
542.271,1995.45
542.775,2014.3
543.279,2020.5
543.782,2059.35
544.286,2133.6
544.789,2028.0
545.293,2025.85
545.796,2035.15
546.3,2101.35
546.803,2053.55
547.306,2035.15
547.81,2033.15
548.313,2032.85
548.816,2040.15
549.319,2047.6
549.822,2066.25
550.325,2093.0
550.828,2047.4
551.331,2052.6
551.834,2054.25
552.337,2046.35
552.839,2034.8
553.342,2053.15
553.844,2053.7
554.347,2049.25
554.849,2054.75
555.352,2056.5
555.854,2058.7
556.357,2057.5
556.859,2070.1
557.361,2066.8
557.863,2068.65
558.365,2074.0
558.867,2073.45
559.369,2078.55
559.871,2077.3
560.373,2077.95
560.875,2089.15
561.377,2098.2
561.878,2191.45
562.38,3184.2
562.881,2123.15
563.383,2109.55
563.884,2234.75
564.386,2149.1
564.887,2141.4
565.388,2120.65
565.89,2216.45
566.391,2282.55
566.892,2152.55
567.393,2164.0
567.894,2128.7
568.395,2128.3
568.896,2133.25
569.396,2146.55
569.897,2146.9
570.398,2163.25
570.898,2176.6
571.399,2418.0
571.9,2254.35
572.4,2207.3
572.9,2201.45
573.401,2207.3
573.901,2232.05
574.401,2233.7
574.901,2237.1
575.401,2349.75
575.901,2373.8
576.401,2562.1
576.901,2477.2
577.401,2409.9
577.901,2382.5
578.4,2388.3
578.9,2443.25
579.399,2479.6
579.899,2502.6
580.398,2541.95
580.898,2562.65
581.397,2622.1
581.896,2659.25
582.395,2718.95
582.895,2735.95
583.394,2780.15
583.893,2807.75
584.391,2871.9
584.89,2853.25
585.389,2925.05
585.888,2945.05
586.386,3024.8
586.885,3057.7
587.384,3112.8
587.882,3202.25
588.38,3224.0
588.879,3243.85
589.377,3296.2
589.875,3367.75
590.373,3443.35
590.871,3478.05
591.369,3569.0
591.867,3638.45
592.365,3655.15
592.863,3701.25
593.361,3745.75
593.858,3765.45
594.356,3806.35
594.853,3851.45
595.351,3969.7
595.848,3962.85
596.345,4020.6
596.843,4034.3
597.34,4176.5
597.837,4194.9
598.334,4247.75
598.831,4263.0
599.328,4414.0
599.824,4458.7
600.321,4498.75
600.818,4501.15
601.314,4498.6
601.811,4544.85
602.307,4488.85
602.804,4446.95
603.3,4494.9
603.796,4463.1
604.293,4397.35
604.789,4257.1
605.285,4178.05
605.781,4170.25
606.277,4119.0
606.772,4027.15
607.268,3921.4
607.764,3870.45
608.259,3823.65
608.755,3750.4
609.25,3693.75
609.746,3634.1
610.241,3635.45
610.736,3543.15
611.231,3537.9
611.727,3495.55
612.222,3425.45
612.716,3391.45
613.211,3342.2
613.706,3293.15
614.201,3341.15
614.695,3286.65
615.19,3269.15
615.684,3239.8
616.179,3202.7
616.673,3143.15
617.168,3192.5
617.662,3114.65
618.156,3107.05
618.65,3130.9
619.144,3117.2
619.638,3110.7
620.131,3075.75
620.625,3071.7
621.119,3063.55
621.612,3096.95
622.106,3092.55
622.599,3091.55
623.093,2989.5
623.586,2982.5
624.079,2964.0
624.572,3022.25
625.065,2953.0
625.558,2970.45
626.051,3022.75
626.544,3279.9
627.037,4650.45
627.529,4500.05
628.022,4009.6
628.514,5185.55
629.007,4216.15
629.499,3914.1
629.991,3611.6
630.483,3513.95
630.976,3257.55
631.468,3082.4
631.959,3003.3
632.451,2979.55
632.943,3021.8
633.435,2994.6
633.926,2993.45
634.418,3001.2
634.909,2970.5
635.401,2998.75
635.892,3006.85
636.383,2980.05
636.874,2978.85
637.365,3034.65
637.856,3019.25
638.347,3022.8
638.838,3035.1
639.329,3043.15
639.819,3062.85
640.31,3075.15
640.8,3065.9
641.291,3116.45
641.781,3087.25
642.271,3080.5
642.761,3130.15
643.251,3058.55
643.741,3123.55
644.231,3128.9
644.721,3098.35
645.211,3123.6
645.7,3103.0
646.19,3104.2
646.679,3137.0
647.169,3164.05
647.658,3106.1
648.147,3115.15
648.636,3161.25
649.125,3192.3
649.614,3280.2
650.103,3316.6
650.592,3255.15
651.08,3167.25
651.569,3076.25
652.058,3069.05
652.546,3040.8
653.034,3080.1
653.523,3047.9
654.011,3000.15
654.499,3016.55
654.987,2963.1
655.475,2999.05
655.963,2930.6
656.45,2934.45
656.938,2905.25
657.425,2908.4
657.913,2874.45
658.4,2831.2
658.888,2833.7
659.375,2770.55
659.862,2768.85
660.349,2701.35
660.836,2705.45
661.079,2668.85