File: spectra/VLFR_01-LDPE_nobio_Raman_bfb540b0.csv
nm,Intensity
526.5,829.4
527.047,828.3
527.594,828.1
528.14,827.9
528.687,829.4
529.233,828.3
529.779,828.2
530.325,828.2
530.871,829.4
531.417,828.7
531.962,830.1
532.508,828.7
533.053,828.5
533.599,830.4
534.144,891.4
534.689,876.1
535.234,866.6
535.778,855.8
536.323,852.4
536.867,848.8
537.412,848.6
537.956,849.9
538.5,846.7
539.044,847.0
539.588,845.3
540.132,842.0
540.675,841.2
541.219,840.0
541.762,839.8
542.305,839.3
542.848,840.6
543.391,838.5
543.934,838.8
544.477,838.3
545.02,838.2
545.562,837.2
546.105,837.2
546.647,839.1
547.189,838.0
547.731,837.7
548.273,836.1
548.815,836.0
549.356,836.7
549.898,837.1
550.439,837.4
550.981,836.0
551.522,834.8
552.063,837.2
552.604,839.3
553.145,837.9
553.686,838.3
554.226,839.3
554.767,839.6
555.307,839.0
555.848,841.0
556.388,841.1
556.928,844.5
557.468,843.2
558.008,846.5
558.547,845.4
559.087,844.1
559.626,845.0
560.166,842.3
560.705,841.0
561.244,842.3
561.783,843.5
562.322,842.5
562.861,846.7
563.4,849.2
563.939,888.5
564.477,862.1
565.015,857.3
565.554,850.2
566.092,887.4
566.63,853.1
567.168,850.4
567.706,850.7
568.244,845.7
568.781,848.8
569.319,846.3
569.857,850.1
570.394,850.2
570.931,858.0
571.468,923.7
572.005,879.9
572.542,862.3
573.079,856.3
573.616,856.4
574.153,861.6
574.689,856.5
575.226,860.0
575.762,886.6
576.298,972.2
576.834,930.1
577.371,904.5
577.907,874.8
578.442,873.4
578.978,876.4
579.514,876.6
580.049,880.1
580.585,880.4
581.12,887.6
581.656,889.8
582.191,890.0
582.726,893.5
583.261,896.7
583.796,894.1
584.331,904.1
584.865,905.9
585.4,909.3
585.935,911.7
586.469,919.3
587.004,920.1
587.538,923.4
588.072,924.4
588.606,931.3
589.14,930.0
589.674,935.1
590.208,943.7
590.742,947.7
591.275,949.9
591.809,952.8
592.342,959.3
592.876,961.7
593.409,965.3
593.942,961.9
594.476,979.1
595.009,982.8
595.542,986.0
596.075,992.3
596.607,999.6
597.14,1013.8
597.673,1020.9
598.205,1028.1
598.738,1036.2
599.27,1046.4
599.803,1053.6
600.335,1057.3
600.867,1054.4
601.399,1054.6
601.931,1059.5
602.463,1059.8
602.995,1043.4
603.527,1044.6
604.058,1034.7
604.59,1022.6
605.122,1013.8
605.653,1003.3
606.184,994.4
606.716,987.7
607.247,974.2
607.778,978.1
608.309,970.9
608.84,960.6
609.371,955.3
609.902,952.2
610.433,949.8
610.964,951.3
611.494,941.8
612.025,939.7
612.556,939.3
613.086,937.5
613.616,940.3
614.147,932.6
614.677,933.8
615.207,930.0
615.737,929.4
616.267,923.5
616.797,927.8
617.327,925.1
617.857,924.8
618.387,922.5
618.917,922.4
619.446,923.0
619.976,923.2
620.505,924.6
621.035,924.4
621.564,931.6
622.093,960.2
622.623,954.9
623.152,930.2
623.681,921.7
624.21,919.1
624.739,919.8
625.268,920.4
625.797,931.3
626.326,953.8
626.855,1176.1
627.383,1611.6
627.912,1332.2
628.441,1514.6
628.969,1377.2
629.498,1276.8
630.026,1174.0
630.554,1155.5
631.083,1023.8
631.611,957.2
632.139,935.0
632.667,918.8
633.195,912.2
633.724,910.6
634.252,909.6
634.779,908.8
635.307,906.3
635.835,910.9
636.363,910.6
636.891,907.7
637.418,905.3
637.946,909.7
638.474,909.2
639.001,907.5
639.529,907.7
640.056,913.0
640.583,911.5
641.111,913.0
641.638,906.5
642.165,910.4
642.692,916.6
643.22,917.0
643.747,916.8
644.274,912.5
644.801,918.6
645.328,917.8
645.854,920.3
646.381,917.7
646.908,919.3
647.435,922.8
647.962,922.0
648.488,926.0
649.015,923.9
649.542,925.9
650.068,927.2
650.595,930.1
651.121,928.1
651.648,930.9
652.174,929.9
652.7,931.9
653.227,936.0
653.753,934.4
654.279,933.4
654.805,935.4
655.331,938.8
655.858,935.7
656.384,933.7
656.91,935.5
657.436,929.2
657.962,928.9
658.488,929.1
659.013,924.6
659.539,923.3
660.065,916.5
660.591,915.3
661.117,913.6
661.642,908.0
662.168,905.4
662.694,901.1
663.088,899.6