File: spectra/VLFR_02-HDPE_bio_Raman_1330eac9.csv
nm,Intensity
528.65,1838.7
529.155,1838.65
529.66,1839.75
530.165,1840.45
530.67,1839.95
531.175,1843.35
531.68,1878.5
532.185,5000.0
532.69,1842.05
533.194,1841.15
533.699,1950.6
534.204,2316.75
534.708,2318.15
535.213,2290.75
535.717,2135.95
536.222,2089.4
536.726,2077.8
537.231,2079.0
537.735,2086.7
538.239,2065.8
538.743,2059.5
539.247,2030.9
539.751,2029.1
540.255,2020.65
540.759,2027.35
541.263,2019.3
541.767,2026.8
542.271,2030.25
542.775,2037.55
543.279,2030.4
543.782,2028.4
544.286,2033.15
544.789,2041.9
545.293,2033.65
545.796,2039.95
546.3,2049.1
546.803,2048.15
547.306,2058.4
547.81,2048.55
548.313,2055.0
548.816,2057.8
549.319,2054.8
549.822,2053.0
550.325,2055.95
550.828,2062.7
551.331,2069.3
551.834,2078.95
552.337,2071.15
552.839,2083.1
553.342,2097.15
553.844,2094.15
554.347,2103.7
554.849,2111.3
555.352,2118.8
555.854,2119.2
556.357,2126.6
556.859,2139.8
557.361,2146.5
557.863,2177.8
558.365,2187.4
558.867,2175.8
559.369,2177.7
559.871,2159.0
560.373,2161.3
560.875,2163.15
561.377,2172.8
561.878,2175.05
562.38,2187.65
562.881,2217.35
563.383,2251.75
563.884,3010.2
564.386,2456.45
564.887,2371.35
565.388,2297.4
565.89,2654.4
566.391,2807.75
566.892,2278.8
567.393,2410.9
567.894,2236.55
568.395,2231.2
568.896,2228.35
569.396,2251.35
569.897,2248.15
570.398,2297.6
570.898,2354.05
571.399,3540.6
571.9,2632.4
572.4,2365.75
572.9,2260.75
573.401,2272.2
573.901,2359.65
574.401,2264.55
574.901,2260.8
575.401,2754.15
575.901,2866.25
576.401,3646.65
576.901,3157.45
577.401,2704.25
577.901,2368.8
578.4,2297.0
578.9,2290.05
579.399,2293.2
579.899,2308.2
580.398,2300.25
580.898,2307.75
581.397,2287.6
581.896,2309.7
582.395,2300.7
582.895,2307.5
583.394,2307.8
583.893,2313.35
584.391,2311.75
584.89,2318.65
585.389,2328.3
585.888,2344.25
586.386,2356.0
586.885,2363.35
587.384,2399.45
587.882,2402.95
588.38,2427.7
588.879,2447.1
589.377,2434.5
589.875,2464.6
590.373,2465.1
590.871,2520.15
591.369,2502.4
591.867,2525.95
592.365,2513.15
592.863,2541.25
593.361,2551.75
593.858,2554.3
594.356,2556.0
594.853,2556.15
595.351,2542.55
595.848,2535.4
596.345,2571.4
596.843,2558.65
597.34,2542.8
597.837,2516.35
598.334,2515.85
598.831,2531.5
599.328,2536.0
599.824,2526.4
600.321,2510.2
600.818,2504.85
601.314,2515.15
601.811,2528.55
602.307,2532.45
602.804,2498.0
603.3,2502.15
603.796,2493.3
604.293,2471.2
604.789,2469.5
605.285,2452.6
605.781,2441.4
606.277,2440.75
606.772,2415.7
607.268,2424.1
607.764,2407.0
608.259,2406.75
608.755,2413.3
609.25,2399.0
609.746,2402.6
610.241,2407.9
610.736,2408.05
611.231,2423.55
611.727,2410.35
612.222,2394.25
612.716,2383.85
613.211,2379.85
613.706,2377.85
614.201,2389.25
614.695,2387.8
615.19,2379.3
615.684,2389.2
616.179,2398.85
616.673,2435.9
617.168,2503.5
617.662,2519.05
618.156,2512.25
618.65,2498.4
619.144,2505.4
619.638,2558.35
620.131,2546.0
620.625,2559.9
621.119,2679.4
621.612,2880.15
622.106,3270.35
622.599,3107.0
623.093,2702.75
623.586,2588.45
624.079,2525.05
624.572,2556.55
625.065,2570.0
625.558,2671.7
626.051,2918.4
626.544,4475.3
627.037,12468.8
627.529,11420.8
628.022,9277.05
628.514,14690.6
629.007,8392.7
629.499,6906.55
629.991,5695.05
630.483,5273.45
630.976,3891.45
631.468,2891.1
631.959,2643.2
632.451,2582.2
632.943,2534.15
633.435,2511.9
633.926,2452.45
634.418,2415.3
634.909,2390.5
635.401,2362.85
635.892,2367.1
636.383,2375.2
636.874,2350.1
637.365,2316.5
637.856,2306.55
638.347,2289.05
638.838,2306.4
639.329,2297.65
639.819,2284.15
640.31,2290.5
640.8,2286.2
641.291,2285.35
641.781,2301.6
642.271,2289.7
642.761,2287.8
643.251,2276.15
643.741,2305.3
644.231,2287.95
644.721,2291.1
645.211,2281.1
645.7,2288.95
646.19,2282.55
646.679,2289.7
647.169,2283.6
647.658,2275.7
648.147,2273.35
648.636,2263.6
649.125,2244.6
649.614,2243.8
650.103,2230.95
650.592,2227.85
651.08,2216.3
651.569,2220.05
652.058,2215.95
652.546,2194.55
653.034,2190.1
653.523,2180.05
654.011,2186.35
654.499,2171.15
654.987,2156.4
655.475,2162.2
655.963,2151.85
656.45,2128.45
656.938,2147.95
657.425,2142.85
657.913,2131.2
658.4,2128.35
658.888,2119.15
659.375,2099.5
659.862,2128.6
660.349,2115.05
660.836,2101.5
661.079,2100.35