File: spectra/VLFR_06-PET_nobio_Raman_e83e465c.csv
nm,Intensity
526.547,832.3
527.094,831.7
527.641,833.7
528.188,831.9
528.734,832.9
529.281,832.8
529.827,833.6
530.373,833.6
530.92,832.5
531.466,834.5
532.011,839.2
532.557,834.0
533.103,831.9
533.648,848.3
534.193,1750.9
534.738,1477.4
535.283,1239.7
535.828,1112.3
536.373,1014.9
536.917,991.1
537.462,982.4
538.006,1006.2
538.55,990.9
539.094,979.8
539.638,993.6
540.182,988.6
540.726,964.9
541.269,958.9
541.812,951.2
542.356,962.1
542.899,957.5
543.442,957.8
543.985,965.5
544.527,960.8
545.07,968.8
545.612,1052.3
546.155,982.4
546.697,981.0
547.239,980.0
547.781,981.8
548.323,979.0
548.865,979.4
549.406,985.3
549.948,985.0
550.489,1007.2
551.03,999.4
551.572,998.9
552.113,1004.5
552.654,1019.9
553.194,1010.3
553.735,1012.7
554.276,1012.0
554.816,1018.6
555.356,1033.0
555.896,1061.6
556.437,1075.0
556.977,1082.0
557.516,1196.1
558.056,1102.6
558.596,1095.5
559.135,1057.0
559.675,1050.8
560.214,1050.6
560.753,1062.5
561.292,1063.8
561.831,1069.2
562.37,1079.5
562.909,1089.5
563.448,1098.8
563.986,1089.8
564.525,1100.3
565.063,1138.9
565.601,1180.7
566.139,1182.5
566.677,1119.4
567.215,1109.4
567.753,1175.7
568.291,1119.3
568.828,1117.8
569.366,1133.4
569.903,1151.2
570.441,1191.4
570.978,1285.6
571.515,1348.6
572.052,1239.3
572.589,1173.9
573.126,1158.8
573.662,1162.6
574.199,1182.3
574.735,1171.7
575.272,1203.5
575.808,1187.2
576.344,1208.4
576.88,1218.4
577.416,1191.9
577.952,1182.1
578.488,1194.0
579.024,1198.7
579.559,1199.0
580.095,1206.5
580.63,1216.3
581.166,1230.1
581.701,1309.2
582.236,2154.7
582.771,1264.7
583.306,1240.4
583.841,1237.5
584.376,1248.1
584.911,1261.6
585.445,1358.9
585.98,1739.8
586.514,1503.0
587.048,1301.0
587.583,1278.8
588.117,1258.5
588.651,1265.5
589.185,1265.8
589.719,1261.9
590.253,1268.3
590.786,1271.6
591.32,1277.1
591.853,1282.3
592.387,1274.3
592.92,1281.6
593.454,1282.0
593.987,1279.4
594.52,1279.3
595.053,1289.7
595.586,1289.6
596.119,1288.7
596.651,1297.0
597.184,1283.6
597.717,1294.6
598.249,1294.2
598.782,1299.2
599.314,1305.5
599.846,1305.1
600.379,1296.6
600.911,1293.3
601.443,1301.9
601.975,1291.3
602.507,1298.8
603.038,1298.6
603.57,1304.5
604.102,1306.2
604.633,1295.4
605.165,1298.4
605.696,1288.8
606.228,1277.0
606.759,1285.3
607.29,1302.2
607.821,1294.6
608.352,1300.4
608.883,1295.9
609.414,1302.5
609.945,1299.1
610.476,1299.2
611.006,1296.8
611.537,1297.4
612.067,1298.6
612.598,1315.9
613.128,1327.4
613.659,1317.2
614.189,1325.9
614.719,1322.0
615.249,1321.4
615.779,1329.6
616.309,1325.0
616.839,1330.7
617.369,1337.8
617.899,1348.8
618.428,1350.0
618.958,1336.5
619.487,1351.4
620.017,1343.2
620.546,1347.6
621.076,1344.1
621.605,1344.3
622.134,1348.9
622.663,1354.7
623.193,1362.8
623.722,1371.1
624.251,1366.4
624.78,1385.9
625.308,1378.0
625.837,1385.2
626.366,1373.2
626.895,1385.3
627.423,1381.7
627.952,1396.7
628.48,1411.8
629.009,1428.3
629.537,1437.9
630.065,1419.2
630.594,1436.4
631.122,1487.7
631.65,1594.2
632.178,1577.0
632.706,1509.8
633.234,1501.2
633.762,1479.9
634.29,1461.4
634.818,1466.1
635.346,1476.7
635.873,1513.7
636.401,1637.6
636.929,1604.4
637.456,1518.9
637.984,1481.2
638.511,1488.9
639.039,1477.2
639.566,1495.2
640.093,1489.3
640.62,1494.5
641.148,1496.6
641.675,1507.5
642.202,1516.9
642.729,1518.7
643.256,1502.2
643.783,1504.3
644.31,1500.5
644.837,1501.4
645.364,1499.3
645.891,1504.3
646.417,1517.0
646.944,1517.3
647.471,1518.5
647.997,1533.0
648.524,1525.5
649.051,1515.8
649.577,1523.0
650.104,1529.3
650.63,1524.8
651.157,1524.3
651.683,1522.6
652.209,1526.6
652.736,1525.3
653.262,1521.9
653.788,1529.5
654.314,1534.9
654.84,1537.1
655.366,1522.4
655.893,1532.4
656.419,1541.3
656.945,1533.2
657.471,1539.2
657.997,1542.0
658.522,1542.0
659.048,1535.6
659.574,1527.8
660.1,1529.1
660.626,1532.9
661.152,1542.5
661.677,1521.8
662.203,1529.9
662.729,1529.9
663.123,1520.1