File: spectra/VLFR_06-PET_bio_Raman_5ae87d83.csv
nm,Intensity
528.65,1847.45
529.155,1848.95
529.66,1847.8
530.165,1847.3
530.67,1847.5
531.175,1850.85
531.68,1875.8
532.185,3118.3
532.69,1850.8
533.194,1856.6
533.699,3049.6
534.204,5389.15
534.708,4473.5
535.213,3754.45
535.717,3166.35
536.222,2777.25
536.726,2680.35
537.231,2590.1
537.735,2589.5
538.239,2626.35
538.743,2651.7
539.247,2671.2
539.751,2775.7
540.255,2658.55
540.759,2586.05
541.263,2541.9
541.767,2525.25
542.271,2545.15
542.775,2591.0
543.279,2571.95
543.782,2608.95
544.286,2578.85
544.789,2591.65
545.293,2619.4
545.796,2598.3
546.3,2610.9
546.803,2606.35
547.306,2658.3
547.81,2669.5
548.313,2672.55
548.816,2658.85
549.319,2683.25
549.822,2653.3
550.325,2749.65
550.828,3028.6
551.331,2728.7
551.834,2723.35
552.337,2713.75
552.839,2992.7
553.342,2773.7
553.844,2761.45
554.347,2762.05
554.849,2799.5
555.352,2900.25
555.854,3024.0
556.357,3110.9
556.859,3127.95
557.361,3643.5
557.863,3341.2
558.365,3197.3
558.867,3091.5
559.369,2920.75
559.871,2893.0
560.373,2914.9
560.875,2943.25
561.377,2944.3
561.878,3007.3
562.38,3053.9
562.881,3129.75
563.383,3144.4
563.884,3048.3
564.386,3124.55
564.887,3313.3
565.388,3615.15
565.89,3797.8
566.391,3337.85
566.892,3193.5
567.393,3338.15
567.894,3410.75
568.395,3224.45
568.896,3237.65
569.396,3304.35
569.897,3438.8
570.398,3764.3
570.898,4322.15
571.399,4850.0
571.9,4090.1
572.4,3652.45
572.9,3500.8
573.401,3509.7
573.901,3582.5
574.401,3588.95
574.901,3593.5
575.401,3747.75
575.901,3625.75
576.401,3815.95
576.901,3815.85
577.401,3611.45
577.901,3563.35
578.4,3589.25
578.9,3666.3
579.399,3669.0
579.899,3737.8
580.398,3752.35
580.898,3780.8
581.397,4008.0
581.896,6495.75
582.395,5957.8
582.895,3907.25
583.394,3877.8
583.893,3807.85
584.391,3908.5
584.89,3939.35
585.389,4650.6
585.888,6669.7
586.386,5479.2
586.885,4170.3
587.384,3926.35
587.882,3916.95
588.38,3909.3
588.879,3925.35
589.377,3891.3
589.875,3882.3
590.373,3886.25
590.871,3917.7
591.369,3888.4
591.867,3895.4
592.365,3964.15
592.863,3913.55
593.361,3908.6
593.858,3919.55
594.356,3959.75
594.853,3942.0
595.351,3987.3
595.848,4015.4
596.345,3965.25
596.843,3998.05
597.34,3984.2
597.837,3989.7
598.334,3949.8
598.831,3986.2
599.328,4070.3
599.824,3990.05
600.321,4008.35
600.818,4097.7
601.314,4060.7
601.811,4063.95
602.307,4020.6
602.804,4040.55
603.3,4090.65
603.796,4071.25
604.293,4074.65
604.789,4079.55
605.285,4054.7
605.781,4129.9
606.277,4059.55
606.772,4076.4
607.268,4126.7
607.764,4114.65
608.259,4101.25
608.755,4126.55
609.25,4126.55
609.746,4135.2
610.241,4135.5
610.736,4176.15
611.231,4201.2
611.727,4166.9
612.222,4178.3
612.716,4166.5
613.211,4173.55
613.706,4116.0
614.201,4195.35
614.695,4215.85
615.19,4264.6
615.684,4187.3
616.179,4307.05
616.673,4250.2
617.168,4293.2
617.662,4249.2
618.156,4363.25
618.65,4325.6
619.144,4347.8
619.638,4258.3
620.131,4263.0
620.625,4310.65
621.119,4273.55
621.612,4397.1
622.106,4341.1
622.599,4406.35
623.093,4389.8
623.586,4438.6
624.079,4379.5
624.572,4422.8
625.065,4518.4
625.558,4493.1
626.051,4449.6
626.544,4458.65
627.037,4412.35
627.529,4487.5
628.022,4571.55
628.514,4662.8
629.007,4791.9
629.499,4742.3
629.991,4622.8
630.483,4723.1
630.976,5036.95
631.468,5726.2
631.959,5619.25
632.451,5349.5
632.943,5167.9
633.435,5116.2
633.926,5029.75
634.418,4952.15
634.909,4875.9
635.401,4947.4
635.892,5362.9
636.383,5926.25
636.874,5625.15
637.365,5158.95
637.856,4862.8
638.347,4980.2
638.838,4970.75
639.329,4870.45
639.819,4886.9
640.31,4870.55
640.8,4863.25
641.291,4872.0
641.781,4901.85
642.271,4950.45
642.761,4952.25
643.251,4770.75
643.741,4923.7
644.231,4915.25
644.721,4858.35
645.211,4921.55
645.7,4918.4
646.19,4951.8
646.679,4945.05
647.169,4815.4
647.658,4974.4
648.147,4858.35
648.636,4715.85
649.125,4772.2
649.614,4727.2
650.103,4927.2
650.592,4801.8
651.08,4765.15
651.569,4762.8
652.058,4871.0
652.546,4763.55
653.034,4612.85
653.523,4674.05
654.011,4665.1
654.499,4635.4
654.987,4649.75
655.475,4539.7
655.963,4649.75
656.45,4598.4
656.938,4540.1
657.425,4574.95
657.913,4452.5
658.4,4435.95
658.888,4442.5
659.375,4382.35
659.862,4444.3
660.349,4354.15
660.836,4243.2
661.079,4305.75