File: spectra/VLFR_07-PET_nobio_Raman_41c1bd57.csv
nm,Intensity
791.75,13319.3
792.846,12330.3
793.942,11888.7
795.037,11678.3
796.133,11568.8
797.228,11513.0
798.324,11700.3
799.419,11513.3
800.514,11379.2
801.61,11373.2
802.705,11261.8
803.8,10932.8
804.894,10866.8
805.989,10751.4
807.084,10667.2
808.178,10491.8
809.273,10498.6
810.367,10277.8
811.461,10445.5
812.556,10156.3
813.65,10291.4
814.744,10073.8
815.837,10005.9
816.931,10059.1
818.025,9931.15
819.118,9738.75
820.212,9703.8
821.305,9644.0
822.398,9525.8
823.491,9490.55
824.585,9383.65
825.677,9595.35
826.77,9214.15
827.863,9096.85
828.956,9019.45
830.048,8972.95
831.14,8853.0
832.233,8714.0
833.325,8652.5
834.417,8537.3
835.509,8409.05
836.601,8634.3
837.692,8481.15
838.784,8444.9
839.876,8463.8
840.967,8663.65
842.058,8334.1
843.149,8199.55
844.24,7971.7
845.331,7788.35
846.422,7743.55
847.513,7718.6
848.604,7649.4
849.694,7633.5
850.784,7505.35
851.875,7601.65
852.965,7534.7
854.055,7388.0
855.145,7444.7
856.235,7342.6
857.324,7454.9
858.414,7398.75
859.503,7660.85
860.593,7361.0
861.682,7257.55
862.771,7103.1
863.86,7189.4
864.949,7126.45
866.038,6993.95
867.126,6960.65
868.215,6920.05
869.303,6981.5
870.391,7053.0
871.479,7155.0
872.567,7421.15
873.655,7137.05
874.743,6781.2
875.831,6852.8
876.918,6659.45
878.006,6573.35
879.093,6603.4
880.18,6466.9
881.267,6511.7
882.354,6509.75
883.441,6420.55
884.527,6515.75
885.614,6337.5
886.7,6313.35
887.786,6193.9
888.872,6115.25
889.958,6052.05
891.044,6143.15
892.13,6043.85
893.216,5989.25
894.301,5961.65
895.386,5910.8
896.472,5978.15
897.557,6526.15
898.642,6619.8
899.726,5927.9
900.811,5709.95
901.896,5631.75
902.98,5596.2
904.064,5553.65
905.148,5571.3
906.232,5925.8
907.316,6173.9
908.4,5797.5
909.484,5536.95
910.567,5401.15
911.65,5301.65
912.734,5247.6
913.817,5223.25
914.9,5200.45
915.982,5104.35
917.065,5124.0
918.147,5049.65
919.23,5034.1
920.312,5003.3
921.394,4950.9
922.476,4918.5
923.558,4913.25
924.639,4856.9
925.721,4814.05
926.802,4806.45
927.884,4750.0
928.965,4737.6
930.046,4721.0
931.126,4675.15
932.207,4653.4
933.288,4625.45
934.368,4576.65
935.448,4576.75
936.528,4520.2
937.608,4513.95
938.688,4507.2
939.767,4461.55
940.847,4447.55
941.926,4421.85
943.005,4410.8
944.084,4382.65
945.163,4331.75
946.242,4347.55
947.321,4303.55
948.399,4284.8
949.477,4286.5
950.556,4273.05
951.634,4246.4
952.711,4228.35
953.789,4208.15
954.867,4181.9
955.944,4173.85
957.021,4166.85
958.098,4154.0
959.175,4123.75
960.252,4116.5
961.328,4109.25
962.405,4099.4
963.481,4080.25
964.557,4067.25
965.633,4041.75
966.709,4045.25
967.785,4039.75
968.86,4021.25
969.936,3998.35
971.011,4002.5
972.086,3986.0
973.161,3973.3
974.235,3957.05
975.31,3962.5
976.384,3944.05
977.459,3932.15
978.533,3921.75
979.607,3923.75
980.68,3912.95
981.754,3907.2
982.827,3889.4
983.901,3889.4
984.974,3887.15
986.047,3874.65
987.119,3861.45
988.192,3860.7
989.264,3856.35
990.337,3844.9
991.409,3850.75
992.481,3831.65
993.553,3828.2
994.624,3825.2
995.696,3818.95
996.767,3817.45
997.838,3809.55
998.909,3804.85
999.98,3792.0
1001.05,3799.3
1002.12,3791.95
1003.19,3784.65
1004.26,3785.35
1005.33,3779.65
1006.4,3772.65
1007.47,3774.0
1008.54,3767.15
1009.61,3765.65
1010.68,3758.05
1011.75,3761.5
1012.82,3756.9
1013.88,3755.6
1014.95,3755.05
1016.02,3747.95
1017.09,3745.4
1018.16,3745.35
1019.22,3742.15
1020.29,3746.8
1021.36,3751.8
1022.43,3752.3
1023.49,3744.15
1024.56,3740.1
1025.63,3734.05
1026.69,3729.15
1027.76,3727.7
1028.83,3722.8
1029.89,3720.3
1030.96,3719.2
1032.02,3718.85
1033.09,3721.8
1034.15,3723.8
1035.22,3722.7
1036.28,3717.3
1037.35,3714.35
1038.41,3708.8
1039.48,3709.65
1040.54,3708.8
1041.6,3705.95
1042.67,3704.8
1043.73,3704.1
1044.79,3704.2
1045.86,3701.9
1046.92,3701.15
1047.98,3700.45
1049.05,3699.75
1050.11,3700.25
1051.17,3701.1
1052.23,3699.8
1053.29,3699.55
1054.36,3697.8
1055.42,3698.0
1056.48,3698.9
1057.54,3699.2
1058.6,3697.7
1059.66,3696.6
1060.72,3695.0
1061.78,3695.8
1062.84,3696.55
1063.9,3696.25
1064.96,3695.65
1066.02,3695.3
1067.08,3694.05
1067.88,3695.05