File: spectra/VLFR_07-PET_bio_Raman_ce93eaab.csv
nm,Intensity
791.75,7944.65
792.846,7841.65
793.942,7766.7
795.037,7757.25
796.133,7601.2
797.228,7704.05
798.324,7563.75
799.419,7527.45
800.514,7554.0
801.61,7558.0
802.705,7467.55
803.8,7439.65
804.894,7396.35
805.989,7361.95
807.084,7364.9
808.178,7282.75
809.273,7234.75
810.367,7166.3
811.461,7206.25
812.556,7204.3
813.65,7017.8
814.744,7029.4
815.837,6951.7
816.931,6938.35
818.025,6818.35
819.118,6864.65
820.212,6885.7
821.305,6717.35
822.398,6633.45
823.491,6644.95
824.585,6614.7
825.677,6626.5
826.77,6614.15
827.863,6499.25
828.956,6434.95
830.048,6383.0
831.14,6349.0
832.233,6312.1
833.325,6271.3
834.417,6249.4
835.509,6197.05
836.601,6155.1
837.692,6251.65
838.784,6157.1
839.876,6171.75
840.967,6120.6
842.058,6191.35
843.149,6024.2
844.24,6020.3
845.331,5954.95
846.422,5971.95
847.513,5918.05
848.604,5891.15
849.694,5833.3
850.784,5884.05
851.875,6043.2
852.965,6015.7
854.055,5822.85
855.145,5753.6
856.235,5766.25
857.324,5760.05
858.414,5729.85
859.503,5766.0
860.593,5752.7
861.682,5662.5
862.771,5670.7
863.86,5674.95
864.949,5633.5
866.038,5543.85
867.126,5551.25
868.215,5489.15
869.303,5572.5
870.391,5567.4
871.479,5547.35
872.567,5628.15
873.655,5580.1
874.743,5486.65
875.831,5439.8
876.918,5410.7
878.006,5376.85
879.093,5413.25
880.18,5368.65
881.267,5287.9
882.354,5353.7
883.441,5286.4
884.527,5268.3
885.614,5261.9
886.7,5244.75
887.786,5185.95
888.872,5172.75
889.958,5146.95
891.044,5112.25
892.13,5107.9
893.216,5059.2
894.301,5007.0
895.386,4980.65
896.472,4986.9
897.557,5055.6
898.642,5126.05
899.726,5019.05
900.811,4852.6
901.896,4824.75
902.98,4851.55
904.064,4845.5
905.148,4798.2
906.232,4853.15
907.316,4907.65
908.4,4888.5
909.484,4743.35
910.567,4704.85
911.65,4670.3
912.734,4599.0
913.817,4610.15
914.9,4558.5
915.982,4587.0
917.065,4530.35
918.147,4529.55
919.23,4511.2
920.312,4510.85
921.394,4475.6
922.476,4453.2
923.558,4435.3
924.639,4425.5
925.721,4368.3
926.802,4389.7
927.884,4356.1
928.965,4313.4
930.046,4309.65
931.126,4290.6
932.207,4256.0
933.288,4222.85
934.368,4244.05
935.448,4239.85
936.528,4192.75
937.608,4184.95
938.688,4182.0
939.767,4159.8
940.847,4167.1
941.926,4147.3
943.005,4129.55
944.084,4120.2
945.163,4097.15
946.242,4102.0
947.321,4095.35
948.399,4070.05
949.477,4062.85
950.556,4059.75
951.634,4050.3
952.711,4031.55
953.789,4027.6
954.867,4022.8
955.944,4014.3
957.021,4001.2
958.098,3993.85
959.175,3995.3
960.252,3984.45
961.328,3971.85
962.405,3976.3
963.481,3954.15
964.557,3958.5
965.633,3947.45
966.709,3945.45
967.785,3941.3
968.86,3932.9
969.936,3933.45
971.011,3924.1
972.086,3914.6
973.161,3907.05
974.235,3903.75
975.31,3892.1
976.384,3899.65
977.459,3888.95
978.533,3883.05
979.607,3880.3
980.68,3875.2
981.754,3880.6
982.827,3863.25
983.901,3866.7
984.974,3862.8
986.047,3856.5
987.119,3852.7
988.192,3851.05
989.264,3847.1
990.337,3848.0
991.409,3843.7
992.481,3834.4
993.553,3831.75
994.624,3829.7
995.696,3828.05
996.767,3823.2
997.838,3823.55
998.909,3819.95
999.98,3814.95
1001.05,3809.85
1002.12,3810.4
1003.19,3806.9
1004.26,3804.05
1005.33,3802.7
1006.4,3799.6
1007.47,3796.3
1008.54,3793.6
1009.61,3791.9
1010.68,3788.2
1011.75,3785.35
1012.82,3787.2
1013.88,3785.15
1014.95,3783.95
1016.02,3780.15
1017.09,3779.45
1018.16,3775.95
1019.22,3777.3
1020.29,3776.3
1021.36,3775.05
1022.43,3776.8
1023.49,3774.35
1024.56,3771.3
1025.63,3768.25
1026.69,3764.35
1027.76,3763.9
1028.83,3761.25
1029.89,3760.6
1030.96,3758.7
1032.02,3758.75
1033.09,3759.95
1034.15,3761.25
1035.22,3758.8
1036.28,3757.3
1037.35,3753.5
1038.41,3754.65
1039.48,3752.0
1040.54,3750.45
1041.6,3749.9
1042.67,3748.3
1043.73,3749.6
1044.79,3750.15
1045.86,3747.4
1046.92,3747.7
1047.98,3745.4
1049.05,3745.65
1050.11,3746.95
1051.17,3745.8
1052.23,3746.2
1053.29,3743.7
1054.36,3744.65
1055.42,3745.1
1056.48,3743.5
1057.54,3743.1
1058.6,3744.0
1059.66,3744.8
1060.72,3742.0
1061.78,3743.1
1062.84,3742.7
1063.9,3743.5
1064.96,3741.9
1066.02,3741.4
1067.08,3741.75
1067.88,3742.25