File: spectra/VLFR_01-LDPE_nobio_Raman_8da42f06.csv
cm-1,Intensity
-123.878,1853.8
-105.821,1850.55
-87.8007,1852.75
-69.8161,1853.5
-51.8675,1853.1
-33.9547,1852.95
-16.0776,1871.85
1.76388,2929.35
19.5698,1853.05
37.3403,1852.75
55.0755,1984.35
72.7754,2281.4
90.4402,2267.05
108.07,2236.9
125.665,2202.75
143.225,2172.55
160.75,2163.75
178.241,2156.9
195.697,2175.25
213.119,2155.25
230.506,2143.55
247.859,2139.85
265.178,2129.65
282.463,2120.1
299.713,2121.0
316.93,2125.55
334.113,2119.2
351.263,2120.65
368.379,2122.4
385.461,2104.55
402.51,2112.3
419.526,2108.35
436.508,2109.3
453.458,2109.8
470.374,2111.0
487.257,2101.95
504.107,2105.05
520.925,2110.35
537.71,2101.65
554.462,2110.7
571.182,2093.3
587.87,2096.15
604.525,2097.25
621.148,2095.75
637.739,2095.05
654.297,2102.1
670.824,2107.85
687.319,2104.8
703.782,2091.45
720.213,2115.5
736.613,2119.5
752.981,2118.9
769.317,2124.1
785.623,2113.35
801.897,2139.0
818.139,2139.25
834.351,2147.55
850.532,2162.6
866.681,2180.4
882.8,2188.55
898.888,2181.7
914.945,2169.3
930.972,2164.95
946.968,2157.85
962.934,2159.55
978.869,2165.85
994.774,2183.4
1010.65,2197.7
1026.49,2219.85
1042.31,2244.1
1058.09,2536.4
1073.85,2343.35
1089.57,2316.85
1105.27,2270.3
1120.93,2462.5
1136.57,2439.15
1152.18,2261.05
1167.75,2271.8
1183.3,2234.85
1198.82,2218.3
1214.31,2217.55
1229.77,2227.25
1245.2,2228.45
1260.6,2245.65
1275.97,2283.8
1291.32,2828.1
1306.63,2487.8
1321.92,2316.95
1337.18,2266.75
1352.41,2262.3
1367.61,2295.8
1382.78,2237.9
1397.93,2247.8
1413.05,2409.35
1428.14,2597.45
1443.2,2918.9
1458.23,2694.95
1473.23,2445.85
1488.21,2292.0
1503.16,2246.75
1518.08,2252.5
1532.97,2254.85
1547.84,2241.35
1562.68,2248.2
1577.49,2251.0
1592.27,2249.1
1607.03,2253.35
1621.76,2257.85
1636.46,2256.55
1651.14,2258.3
1665.78,2269.0
1680.41,2272.55
1695.0,2272.8
1709.57,2261.7
1724.11,2271.6
1738.62,2281.55
1753.11,2276.1
1767.57,2295.95
1782.01,2291.65
1796.41,2311.35
1810.8,2283.15
1825.15,2281.8
1839.48,2298.7
1853.79,2323.55
1868.06,2327.85
1882.31,2338.4
1896.54,2345.15
1910.74,2367.9
1924.91,2390.75
1939.06,2421.0
1953.19,2425.9
1967.28,2454.45
1981.35,2461.35
1995.4,2510.45
2009.42,2554.05
2023.42,2598.75
2037.39,2620.65
2051.33,2678.2
2065.25,2716.8
2079.15,2743.05
2093.01,2782.05
2106.86,2834.65
2120.68,2874.65
2134.47,2851.45
2148.24,2873.8
2161.99,2883.3
2175.71,2887.7
2189.41,2878.45
2203.08,2871.8
2216.73,2816.5
2230.35,2844.2
2243.95,2794.05
2257.52,2772.85
2271.07,2738.35
2284.6,2712.0
2298.1,2689.45
2311.58,2650.6
2325.03,2629.35
2338.46,2607.2
2351.87,2584.7
2365.25,2573.05
2378.61,2526.7
2391.94,2543.2
2405.26,2504.05
2418.54,2515.9
2431.81,2515.65
2445.05,2495.75
2458.27,2478.6
2471.46,2456.95
2484.63,2450.5
2497.78,2424.35
2510.9,2431.4
2524.0,2412.1
2537.08,2405.85
2550.14,2400.5
2563.17,2404.4
2576.18,2403.75
2589.17,2402.95
2602.13,2408.25
2615.07,2402.4
2627.99,2384.2
2640.89,2390.05
2653.76,2419.25
2666.61,2400.85
2679.44,2398.8
2692.25,2434.45
2705.03,2514.0
2717.79,2588.1
2730.53,2539.75
2743.25,2426.4
2755.94,2374.3
2768.61,2362.85
2781.27,2359.2
2793.89,2364.35
2806.5,2402.55
2819.09,2474.0
2831.65,2932.45
2844.19,5411.1
2856.71,5206.75
2869.21,4436.6
2881.69,6072.9
2894.14,4718.1
2906.58,4182.9
2918.99,3681.0
2931.38,3517.85
2943.75,2939.55
2956.1,2534.0
2968.42,2412.55
2980.73,2322.9
2993.01,2268.5
3005.28,2255.85
3017.52,2258.4
3029.74,2234.0
3041.94,2230.1
3054.12,2210.05
3066.28,2180.9
3078.42,2205.05
3090.54,2190.1
3102.63,2185.2
3114.71,2171.85
3126.77,2171.9
3138.8,2174.1
3150.82,2164.2
3162.81,2160.95
3174.78,2159.9
3186.74,2151.85
3198.67,2159.25
3210.58,2157.95
3222.47,2161.05
3234.35,2156.35
3246.2,2161.05
3258.03,2166.1
3269.84,2156.55
3281.64,2152.75
3293.41,2170.0
3305.16,2164.75
3316.89,2162.5
3328.61,2154.15
3340.3,2157.35
3351.97,2163.85
3363.63,2167.35
3375.26,2165.1
3386.88,2181.1
3398.47,2167.85
3410.05,2177.55
3421.6,2190.25
3433.14,2202.9
3444.66,2188.5
3456.15,2198.65
3467.63,2198.2
3479.09,2204.7
3490.53,2183.1
3501.96,2201.95
3513.36,2200.8
3524.74,2182.35
3536.11,2184.9
3547.45,2179.0
3558.78,2158.5
3570.09,2166.7
3581.37,2173.55
3592.64,2164.3
3603.9,2150.75
3615.13,2149.0
3626.34,2118.8
3637.54,2122.25
3648.72,2121.75
3659.87,2117.85
3665.45,2099.2