File: spectra/VLFR_07-PET_bio_Raman_ca50244d.csv
nm,Intensity
791.377,8035.34
792.477,7706.6
793.576,7366.56
794.676,7307.44
795.775,7132.02
796.874,7187.34
797.973,7165.36
799.072,7130.4
800.171,7096.84
801.27,7117.56
802.368,7106.3
803.467,7058.62
804.565,6975.22
805.664,6894.2
806.762,6907.7
807.86,6827.12
808.958,6757.26
810.056,6720.4
811.153,6694.06
812.251,6655.44
813.349,6608.96
814.446,6530.76
815.543,6439.52
816.64,6392.86
817.737,6392.84
818.834,6335.26
819.931,6284.72
821.028,6236.78
822.125,6195.94
823.221,6156.92
824.317,6074.26
825.414,6092.72
826.51,6069.16
827.606,5975.24
828.702,5933.98
829.797,5938.92
830.893,5935.3
831.988,5817.66
833.084,5829.64
834.179,5788.98
835.274,5765.92
836.369,5703.04
837.464,5747.84
838.559,5731.46
839.654,5690.06
840.748,5675.42
841.843,5769.06
842.937,5629.44
844.031,5639.86
845.125,5563.46
846.219,5452.88
847.313,5462.5
848.407,5416.54
849.5,5397.36
850.593,5374.98
851.687,5400.44
852.78,5407.2
853.873,5349.58
854.966,5293.02
856.059,5276.4
857.151,5232.9
858.244,5243.82
859.336,5288.6
860.428,5319.04
861.52,5242.42
862.612,5163.18
863.704,5149.48
864.796,5150.42
865.888,5114.18
866.979,5075.9
868.07,5086.38
869.162,5069.48
870.253,5062.7
871.344,5100.44
872.434,5149.36
873.525,5163.84
874.615,5073.36
875.706,5016.76
876.796,4993.9
877.886,4969.36
878.976,4941.34
880.066,4944.76
881.156,4910.94
882.245,4908.02
883.335,4925.06
884.424,4902.1
885.513,4878.72
886.602,4867.06
887.691,4828.34
888.78,4810.94
889.868,4784.14
890.957,4780.7
892.045,4766.88
893.133,4761.08
894.221,4722.5
895.309,4704.92
896.397,4712.16
897.484,4736.62
898.571,4979.44
899.659,4821.78
900.746,4625.56
901.833,4611.74
902.92,4599.9
904.006,4581.06
905.093,4583.42
906.179,4599.54
907.266,4689.42
908.352,4748.18
909.438,4609.1
910.523,4513.02
911.609,4471.02
912.695,4431.34
913.78,4424.58
914.865,4403.86
915.95,4380.02
917.035,4380.1
918.12,4363.24
919.204,4360.66
920.289,4329.0
921.373,4299.58
922.457,4304.42
923.541,4275.64
924.625,4277.16
925.709,4264.32
926.792,4234.84
927.876,4230.0
928.959,4202.66
930.042,4194.6
931.125,4175.74
932.208,4177.26
933.29,4157.84
934.373,4146.86
935.455,4127.16
936.537,4119.72
937.619,4105.9
938.701,4093.7
939.782,4086.4
940.864,4080.58
941.945,4071.12
943.026,4053.22
944.107,4043.06
945.188,4034.5
946.269,4034.82
947.349,4018.58
948.43,4019.86
949.51,4001.34
950.59,3999.84
951.67,3993.98
952.75,3979.04
953.829,3973.66
954.909,3969.98
955.988,3965.04
957.067,3960.68
958.146,3946.84
959.224,3945.52
960.303,3938.6
961.381,3932.72
962.459,3926.5
963.537,3929.62
964.615,3918.16
965.693,3912.64
966.771,3906.34
967.848,3906.78
968.925,3898.22
970.002,3895.2
971.079,3892.94
972.156,3891.18
973.232,3884.48
974.309,3884.52
975.385,3878.38
976.461,3874.18
977.537,3873.3
978.612,3867.36
979.688,3865.24
980.763,3862.98
981.838,3863.3
982.913,3858.78
983.988,3853.76
985.063,3853.26
986.137,3850.08
987.211,3847.56
988.285,3844.7
989.359,3844.38
990.433,3843.32
991.506,3838.44
992.58,3835.48
993.653,3835.5
994.726,3830.38
995.799,3831.46
996.872,3827.46
997.944,3826.84
999.016,3824.62
1000.09,3822.5
1001.16,3820.64
1002.23,3821.72
1003.3,3817.9
1004.38,3815.04
1005.45,3813.44
1006.52,3811.66
1007.59,3811.64
1008.66,3808.64
1009.73,3806.54
1010.8,3808.96
1011.87,3807.06
1012.94,3805.06
1014.01,3805.1
1015.08,3803.92
1016.15,3804.0
1017.22,3801.8
1018.29,3800.48
1019.36,3800.44
1020.42,3800.26
1021.49,3801.0
1022.56,3801.2
1023.63,3799.24
1024.7,3797.76
1025.76,3798.1
1026.83,3796.52
1027.9,3794.26
1028.97,3791.92
1030.03,3789.8
1031.1,3789.74
1032.17,3790.04
1033.23,3790.48
1034.3,3789.72
1035.36,3790.58
1036.43,3791.02
1037.5,3789.24
1038.56,3787.0
1039.63,3787.88
1040.69,3786.84
1041.76,3785.58
1042.82,3786.02
1043.89,3784.1
1044.95,3783.66
1046.01,3783.6
1047.08,3784.4
1048.14,3783.12
1049.2,3783.54
1050.27,3782.72
1051.33,3782.32
1052.39,3782.34
1053.46,3782.44
1054.52,3781.74
1055.58,3782.58
1056.64,3781.98
1057.7,3781.22
1058.77,3781.2
1059.83,3781.84
1060.89,3782.1
1061.95,3781.36
1063.01,3781.28
1064.07,3781.22
1065.13,3782.08
1066.19,3780.52
1067.25,3781.48
1068.05,3780.14