File: spectra/VLFR_08-PLA_bio_Raman_a251a57e.csv
nm,Intensity
528.626,1861.8
529.132,1862.9
529.637,1862.8
530.143,1863.2
530.648,1862.6
531.153,1866.7
531.658,1935.4
532.164,4759.1
532.669,1867.1
533.174,1867.1
533.679,2168.5
534.184,2990.5
534.689,2812.1
535.194,2665.3
535.699,2570.1
536.203,2491.2
536.708,2542.2
537.213,2483.7
537.717,2486.3
538.222,2436.9
538.726,2413.6
539.231,2391.5
539.735,2334.0
540.239,2384.9
540.744,2456.6
541.248,2460.2
541.752,2396.3
542.256,2384.7
542.76,2407.1
543.264,2533.1
543.768,2623.0
544.272,2516.5
544.776,2402.4
545.28,2390.1
545.784,2350.6
546.287,2351.8
546.791,2377.1
547.294,2393.9
547.798,2387.6
548.301,2396.5
548.805,2388.3
549.308,2425.9
549.811,2407.5
550.315,2413.5
550.818,2454.4
551.321,2463.5
551.824,2502.0
552.327,2504.4
552.83,2501.2
553.333,2450.9
553.835,2566.5
554.338,2518.6
554.841,2499.1
555.343,2474.2
555.846,2451.9
556.349,2443.1
556.851,2456.1
557.353,2576.2
557.856,3189.7
558.358,2964.2
558.86,2609.7
559.362,2564.2
559.864,2541.5
560.366,2514.2
560.868,2548.3
561.37,2492.7
561.872,2516.3
562.374,2533.2
562.876,2612.9
563.377,2834.3
563.879,2665.6
564.38,2576.9
564.882,2745.8
565.383,2741.9
565.885,2835.4
566.386,2833.1
566.887,2601.9
567.388,2565.5
567.889,2667.4
568.391,2610.4
568.892,2624.0
569.392,2592.6
569.893,2595.3
570.394,2603.9
570.895,2617.7
571.395,2740.1
571.896,2777.4
572.397,2754.9
572.897,2723.9
573.397,2736.8
573.898,2716.5
574.398,2768.1
574.898,2669.3
575.398,2631.5
575.898,2681.1
576.398,2919.0
576.898,3229.9
577.398,2745.5
577.898,2643.1
578.398,2617.7
578.897,2625.0
579.397,2616.5
579.896,2613.5
580.396,2619.8
580.895,2624.4
581.395,2641.5
581.894,2671.2
582.393,2615.2
582.892,2649.5
583.391,2665.4
583.89,2681.4
584.389,2665.9
584.888,2648.7
585.387,2614.1
585.886,2660.9
586.384,2734.9
586.883,2988.4
587.381,3122.5
587.88,2931.1
588.378,2691.2
588.876,2609.7
589.375,2606.6
589.873,2630.2
590.371,2631.9
590.869,2636.2
591.367,2623.4
591.865,2623.1
592.363,2651.8
592.86,2639.3
593.358,2651.1
593.856,2617.1
594.353,2653.2
594.851,2632.0
595.348,2646.3
595.845,2665.5
596.342,2628.9
596.84,2647.2
597.337,2678.4
597.834,2647.3
598.331,2651.7
598.828,2671.5
599.324,2678.0
599.821,2648.4
600.318,2665.4
600.814,2675.5
601.311,2667.1
601.807,2666.2
602.304,2652.7
602.8,2661.6
603.296,2662.8
603.792,2676.1
604.288,2653.6
604.784,2703.6
605.28,2659.0
605.776,2686.0
606.272,2667.1
606.767,2643.9
607.263,2700.0
607.759,2680.9
608.254,2691.9
608.749,2681.3
609.245,2706.6
609.74,2701.4
610.235,2664.4
610.73,2690.8
611.225,2690.9
611.72,2703.1
612.215,2669.4
612.71,2688.6
613.204,2676.3
613.699,2678.2
614.194,2676.5
614.688,2697.7
615.182,2711.9
615.677,2697.7
616.171,2726.5
616.665,2711.7
617.159,2677.7
617.653,2711.6
618.147,2733.4
618.641,2696.7
619.135,2683.0
619.628,2719.9
620.122,2708.9
620.615,2709.5
621.109,2690.2
621.602,2688.3
622.095,2710.1
622.589,2767.1
623.082,2815.7
623.575,2767.1
624.068,2714.4
624.561,2721.3
625.053,2664.8
625.546,2685.3
626.039,2699.1
626.531,2684.6
627.024,2690.5
627.516,2705.6
628.008,2884.2
628.501,3295.7
628.993,3161.1
629.485,3119.6
629.977,3165.2
630.469,3702.2
630.96,5956.5
631.452,4916.1
631.944,3731.1
632.435,3470.5
632.927,3911.7
633.418,4169.7
633.91,3539.8
634.401,2958.8
634.892,2785.7
635.383,2661.5
635.874,2612.0
636.365,2605.1
636.856,2605.5
637.346,2600.1
637.837,2578.3
638.327,2586.2
638.818,2576.5
639.308,2574.9
639.799,2543.3
640.289,2538.7
640.779,2527.0
641.269,2565.1
641.759,2539.8
642.249,2522.6
642.738,2534.7
643.228,2517.5
643.718,2498.5
644.207,2497.4
644.697,2487.0
645.186,2493.9
645.675,2480.5
646.164,2473.0
646.653,2468.8
647.142,2434.7
647.631,2448.7
648.12,2429.2
648.609,2429.0
649.098,2417.0
649.586,2398.3
650.075,2404.3
650.563,2415.7
651.051,2387.5
651.539,2379.1
652.027,2384.6
652.515,2374.7
653.003,2367.7
653.491,2351.9
653.979,2352.4
654.467,2363.8
654.954,2332.1
655.442,2342.6
655.929,2313.2
656.416,2284.7
656.904,2330.6
657.391,2318.9
657.878,2314.3
658.365,2295.3
658.851,2293.2
659.338,2271.6
659.825,2263.6
660.311,2287.9
660.798,2260.7
661.041,2292.7