File: spectra/VLFR_02-HDPE_bio_Raman_0c09b5bf.csv
nm,Intensity
526.495,827.6
527.042,827.0
527.589,826.2
528.136,826.7
528.682,827.8
529.229,828.3
529.775,828.2
530.321,826.7
530.867,826.9
531.413,827.0
531.959,831.2
532.505,828.3
533.051,827.5
533.596,827.5
534.141,836.0
534.687,834.2
535.232,833.4
535.777,832.4
536.321,832.3
536.866,831.9
537.41,832.1
537.955,832.7
538.499,831.0
539.043,831.7
539.587,831.0
540.131,832.1
540.675,830.6
541.219,831.8
541.762,831.0
542.305,830.9
542.849,829.9
543.392,831.6
543.935,830.1
544.478,830.6
545.02,831.2
545.563,832.1
546.106,831.0
546.648,831.9
547.19,829.6
547.732,831.2
548.274,830.5
548.816,831.0
549.358,831.7
549.9,830.9
550.441,831.9
550.983,832.0
551.524,831.7
552.065,831.7
552.606,831.6
553.147,831.3
553.688,830.9
554.229,831.9
554.769,831.9
555.31,832.3
555.85,831.8
556.391,832.1
556.931,833.2
557.471,833.3
558.011,832.1
558.551,833.2
559.09,832.2
559.63,833.6
560.169,832.4
560.709,833.0
561.248,833.8
561.787,832.1
562.326,832.3
562.865,833.0
563.404,834.5
563.943,839.9
564.481,834.8
565.02,834.2
565.558,836.6
566.096,841.6
566.634,834.0
567.172,835.0
567.71,834.8
568.248,832.7
568.786,834.2
569.324,834.0
569.861,834.6
570.399,835.0
570.936,834.9
571.473,845.1
572.01,836.9
572.547,834.8
573.084,835.9
573.621,836.5
574.158,834.3
574.694,834.4
575.231,836.0
575.767,839.0
576.303,846.4
576.84,839.8
577.376,839.9
577.912,835.2
578.448,835.8
578.984,835.5
579.519,836.4
580.055,836.6
580.59,836.4
581.126,835.1
581.661,836.9
582.196,836.0
582.731,837.0
583.267,837.0
583.801,838.3
584.336,837.6
584.871,839.9
585.406,838.7
585.94,839.9
586.475,840.4
587.009,840.2
587.543,841.0
588.078,841.0
588.612,840.5
589.146,842.8
589.68,841.2
590.214,842.4
590.747,844.6
591.281,847.3
591.815,846.4
592.348,845.9
592.881,845.5
593.415,846.8
593.948,849.4
594.481,850.2
595.014,849.7
595.547,848.6
596.08,848.9
596.613,849.6
597.146,852.2
597.678,851.7
598.211,851.2
598.743,852.0
599.276,852.5
599.808,852.7
600.34,853.9
600.872,848.7
601.404,852.0
601.936,852.6
602.468,853.9
603.0,852.6
603.532,852.8
604.064,852.8
604.595,852.0
605.127,852.6
605.658,851.2
606.189,847.8
606.721,847.9
607.252,850.6
607.783,849.1
608.314,848.1
608.845,849.9
609.376,847.3
609.907,847.4
610.438,846.6
610.968,847.8
611.499,844.5
612.029,845.0
612.56,846.5
613.09,845.5
613.621,846.2
614.151,846.3
614.681,845.0
615.211,843.7
615.741,844.1
616.271,844.0
616.801,843.2
617.331,843.2
617.861,844.5
618.39,843.3
618.92,844.9
619.45,843.8
619.979,845.6
620.509,844.4
621.038,844.5
621.567,845.6
622.096,847.4
622.626,847.6
623.155,844.7
623.684,842.1
624.213,843.5
624.742,842.2
625.271,841.9
625.799,842.0
626.328,846.6
626.857,868.9
627.386,910.6
627.914,881.7
628.443,906.7
628.971,881.6
629.5,872.2
630.028,863.8
630.556,860.8
631.084,848.7
631.613,843.4
632.141,842.4
632.669,841.7
633.197,839.7
633.725,840.2
634.253,838.7
634.781,839.5
635.308,841.4
635.836,841.4
636.364,839.9
636.891,842.7
637.419,839.9
637.947,839.1
638.474,839.5
639.002,840.2
639.529,839.4
640.056,842.4
640.584,842.7
641.111,839.0
641.638,840.9
642.165,840.9
642.692,843.2
643.219,842.8
643.746,842.3
644.273,839.5
644.8,840.2
645.327,841.1
645.854,839.4
646.381,841.1
646.908,841.0
647.434,844.3
647.961,839.8
648.488,841.8
649.014,844.0
649.541,841.8
650.067,840.9
650.594,842.7
651.12,841.3
651.646,840.1
652.173,840.3
652.699,842.9
653.225,841.6
653.752,839.9
654.278,841.6
654.804,840.8
655.33,843.6
655.856,842.0
656.382,840.7
656.908,843.6
657.434,840.9
657.96,840.9
658.486,841.3
659.012,842.9
659.538,839.8
660.064,839.6
660.589,841.1
661.115,840.4
661.641,838.9
662.166,839.0
662.692,839.7
663.086,839.6