File: spectra/VLFR_06-PET_nobio_Raman_7f616568.csv
nm,Intensity
526.5,829.4
527.047,828.5
527.594,828.1
528.14,827.0
528.687,828.5
529.233,828.0
529.779,829.0
530.325,829.3
530.871,829.5
531.417,829.1
531.962,829.8
532.508,829.3
533.053,829.6
533.599,840.2
534.144,2400.3
534.689,1954.0
535.234,1519.0
535.778,1242.5
536.323,1086.3
536.867,1021.4
537.412,991.7
537.956,976.5
538.5,986.0
539.044,976.8
539.588,999.7
540.132,1005.8
540.675,957.5
541.219,940.2
541.762,933.7
542.305,933.1
542.848,933.0
543.391,931.7
543.934,945.7
544.477,937.9
545.02,945.1
545.562,941.4
546.105,945.7
546.647,951.2
547.189,948.2
547.731,953.2
548.273,949.0
548.815,950.6
549.356,953.6
549.898,956.8
550.439,972.6
550.981,989.0
551.522,972.6
552.063,972.6
552.604,980.0
553.145,1009.3
553.686,981.5
554.226,979.6
554.767,985.2
555.307,1002.4
555.848,1066.0
556.388,1072.0
556.928,1088.0
557.468,1257.8
558.008,1120.6
558.547,1116.7
559.087,1053.6
559.626,1018.8
560.166,1014.7
560.705,1017.8
561.244,1033.6
561.783,1035.8
562.322,1053.5
562.861,1069.7
563.4,1073.0
563.939,1060.6
564.477,1065.9
565.015,1130.0
565.554,1206.2
566.092,1218.1
566.63,1097.0
567.168,1073.1
567.706,1190.5
568.244,1090.4
568.781,1076.1
569.319,1093.5
569.857,1123.0
570.394,1183.2
570.931,1348.4
571.468,1505.9
572.005,1300.0
572.542,1162.1
573.079,1130.2
573.616,1126.1
574.153,1163.7
574.689,1139.9
575.226,1184.2
575.762,1151.4
576.298,1184.1
576.834,1202.5
577.371,1170.4
577.907,1147.5
578.442,1155.0
578.978,1148.6
579.514,1161.7
580.049,1161.9
580.585,1182.7
581.12,1200.8
581.656,1298.0
582.191,2805.8
582.726,1266.9
583.261,1209.8
583.796,1202.2
584.331,1210.2
584.865,1229.1
585.4,1360.9
585.935,2035.5
586.469,1720.0
587.004,1292.4
587.538,1237.0
588.072,1224.6
588.606,1224.2
589.14,1209.1
589.674,1209.9
590.208,1222.5
590.742,1211.6
591.275,1220.0
591.809,1221.4
592.342,1231.9
592.876,1217.3
593.409,1222.8
593.942,1224.0
594.476,1232.9
595.009,1234.8
595.542,1238.1
596.075,1240.0
596.607,1245.1
597.14,1245.8
597.673,1243.5
598.205,1260.6
598.738,1248.0
599.27,1254.4
599.803,1252.5
600.335,1258.4
600.867,1254.5
601.399,1246.1
601.931,1246.9
602.463,1253.9
602.995,1261.3
603.527,1259.6
604.058,1267.0
604.59,1260.7
605.122,1258.5
605.653,1252.9
606.184,1257.9
606.716,1256.4
607.247,1258.3
607.778,1258.8
608.309,1266.4
608.84,1266.2
609.371,1263.4
609.902,1267.7
610.433,1268.9
610.964,1268.6
611.494,1264.6
612.025,1278.0
612.556,1276.5
613.086,1291.9
613.616,1301.2
614.147,1302.1
614.677,1299.4
615.207,1291.2
615.737,1294.4
616.267,1306.1
616.797,1304.7
617.327,1316.2
617.857,1321.4
618.387,1325.0
618.917,1325.2
619.446,1307.5
619.976,1318.8
620.505,1323.2
621.035,1316.4
621.564,1313.8
622.093,1317.0
622.623,1337.1
623.152,1333.1
623.681,1338.5
624.21,1348.5
624.739,1355.2
625.268,1365.8
625.797,1353.5
626.326,1363.3
626.855,1359.3
627.383,1364.2
627.912,1374.8
628.441,1397.6
628.969,1418.9
629.498,1423.9
630.026,1425.0
630.554,1425.2
631.083,1500.0
631.611,1676.3
632.139,1666.3
632.667,1557.9
633.195,1535.1
633.724,1524.0
634.252,1484.8
634.779,1461.5
635.307,1475.5
635.835,1559.7
636.363,1709.8
636.891,1731.0
637.418,1541.2
637.946,1507.3
638.474,1489.1
639.001,1503.0
639.529,1503.8
640.056,1503.5
640.583,1494.8
641.111,1508.2
641.638,1527.2
642.165,1532.4
642.692,1544.9
643.22,1529.0
643.747,1519.1
644.274,1521.8
644.801,1528.2
645.328,1528.6
645.854,1542.9
646.381,1538.3
646.908,1550.7
647.435,1555.2
647.962,1559.4
648.488,1555.2
649.015,1551.0
649.542,1550.4
650.068,1557.3
650.595,1567.4
651.121,1564.5
651.648,1563.2
652.174,1559.8
652.7,1567.4
653.227,1562.6
653.753,1575.7
654.279,1580.5
654.805,1576.3
655.331,1573.4
655.858,1583.7
656.384,1583.0
656.91,1587.4
657.436,1581.2
657.962,1585.0
658.488,1584.6
659.013,1593.3
659.539,1593.9
660.065,1603.7
660.591,1581.3
661.117,1589.2
661.642,1577.8
662.168,1578.8
662.694,1581.2
663.088,1569.5