File: spectra/VLFR_02-HDPE_nobio_Raman_f9277f16.csv
nm,Intensity
526.532,830.467
527.079,830.533
527.625,829.7
528.172,830.3
528.718,830.9
529.265,830.233
529.811,830.767
530.357,829.867
530.903,830.633
531.449,830.0
531.994,835.733
532.54,830.633
533.085,829.933
533.63,830.867
534.176,908.1
534.721,892.1
535.266,879.267
535.81,867.767
536.355,861.633
536.9,859.0
537.444,858.867
537.988,860.333
538.533,855.1
539.077,853.0
539.621,850.333
540.165,849.1
540.708,848.733
541.252,847.5
541.795,848.533
542.339,847.633
542.882,846.867
543.425,846.933
543.968,846.867
544.511,847.667
545.054,847.267
545.597,846.3
546.139,845.767
546.682,847.533
547.224,846.1
547.766,845.9
548.308,847.467
548.85,845.733
549.392,846.267
549.934,846.7
550.475,846.567
551.017,847.4
551.558,845.2
552.1,845.733
552.641,845.967
553.182,848.8
553.723,849.167
554.264,849.3
554.804,851.233
555.345,850.967
555.885,851.833
556.426,852.767
556.966,853.6
557.506,857.7
558.046,859.867
558.586,861.233
559.126,859.467
559.665,858.067
560.205,856.167
560.745,855.167
561.284,856.133
561.823,856.1
562.362,857.267
562.901,861.667
563.44,865.367
563.979,998.5
564.518,887.967
565.056,879.833
565.595,879.067
566.133,1143.43
566.671,880.033
567.21,867.233
567.748,864.4
568.285,861.467
568.823,860.833
569.361,861.8
569.899,862.0
570.436,869.167
570.974,875.867
571.511,1108.5
572.048,894.8
572.585,871.367
573.122,864.367
573.659,867.367
574.196,875.267
574.733,865.7
575.269,884.767
575.806,962.567
576.342,989.3
576.878,948.767
577.414,907.567
577.951,880.533
578.486,875.067
579.022,876.233
579.558,875.9
580.094,879.467
580.629,878.8
581.165,882.967
581.7,883.767
582.236,885.633
582.771,888.1
583.306,891.767
583.841,893.233
584.376,894.867
584.911,897.233
585.445,900.567
585.98,902.033
586.514,906.1
587.049,910.167
587.583,912.467
588.117,915.2
588.651,917.733
589.186,919.467
589.72,925.133
590.253,927.233
590.787,930.933
591.321,930.467
591.854,934.9
592.388,935.533
592.921,937.267
593.455,938.8
593.988,940.6
594.521,941.7
595.054,940.567
595.587,941.233
596.12,941.333
596.653,941.9
597.186,943.1
597.718,944.0
598.251,947.4
598.783,947.367
599.316,947.333
599.848,947.133
600.38,946.267
600.912,944.533
601.444,943.867
601.976,943.367
602.508,942.867
603.04,937.0
603.572,939.267
604.103,935.167
604.635,934.567
605.167,928.633
605.698,926.3
606.229,919.533
606.761,922.067
607.292,920.1
607.823,915.633
608.354,915.667
608.885,911.467
609.416,912.8
609.947,909.8
610.477,907.167
611.008,914.233
611.539,910.267
612.069,905.6
612.6,906.467
613.13,904.833
613.66,902.8
614.19,898.833
614.721,901.5
615.251,899.933
615.781,898.2
616.311,899.8
616.841,899.9
617.37,902.967
617.9,901.233
618.43,901.633
618.96,900.867
619.489,900.733
620.019,901.933
620.548,901.933
621.077,903.433
621.607,914.133
622.136,929.0
622.665,925.867
623.194,906.2
623.723,900.3
624.252,899.033
624.781,900.4
625.31,903.5
625.839,908.533
626.368,935.533
626.896,1159.03
627.425,1522.77
627.953,1252.4
628.482,1437.3
629.01,1340.5
629.539,1238.8
630.067,1149.33
630.596,1116.53
631.124,988.333
631.652,930.267
632.18,910.1
632.708,901.533
633.236,900.4
633.764,898.467
634.292,895.233
634.82,893.833
635.348,892.967
635.876,893.367
636.403,893.0
636.931,892.367
637.459,892.367
637.986,891.333
638.514,890.833
639.041,891.8
639.568,891.033
640.096,891.2
640.623,891.367
641.15,892.567
641.678,892.6
642.205,890.233
642.732,894.2
643.259,894.567
643.786,891.2
644.313,892.5
644.84,894.033
645.367,893.433
645.894,890.667
646.421,893.067
646.948,893.4
647.474,893.0
648.001,890.9
648.528,891.333
649.054,891.667
649.581,889.6
650.108,890.267
650.634,888.9
651.161,891.0
651.687,887.2
652.214,887.433
652.74,888.1
653.266,887.367
653.793,886.8
654.319,888.267
654.845,884.0
655.371,885.733
655.897,885.433
656.424,885.2
656.95,884.8
657.476,883.567
658.002,882.7
658.528,885.1
659.054,880.933
659.58,880.133
660.106,880.633
660.631,877.667
661.157,876.333
661.683,878.233
662.209,875.233
662.735,873.433
663.129,873.167