File: spectra/VLFR_01-LDPE_bio_Raman_1605469c.csv
nm,Intensity
528.635,1834.6
529.14,1834.4
529.645,1834.2
530.151,1834.0
530.656,1835.6
531.161,1837.7
531.666,1873.1
532.171,4376.8
532.676,1837.7
533.181,1836.4
533.686,2013.3
534.191,2380.2
534.696,2312.9
535.201,2235.5
535.705,2150.9
536.21,2112.5
536.715,2112.4
537.219,2088.8
537.724,2075.5
538.228,2082.0
538.733,2059.9
539.237,2046.6
539.741,2029.1
540.246,2021.4
540.75,2006.8
541.254,2005.3
541.758,2009.4
542.262,2002.2
542.766,2000.0
543.27,2009.6
543.774,2008.5
544.278,2001.0
544.781,1991.2
545.285,1985.3
545.789,1992.0
546.292,1986.5
546.796,1997.1
547.299,1990.0
547.803,1994.6
548.306,1980.5
548.809,1979.3
549.313,1979.5
549.816,1987.5
550.319,1981.7
550.822,1977.3
551.325,1988.5
551.828,1988.8
552.331,1991.3
552.834,1985.9
553.337,2018.5
553.839,2015.1
554.342,2021.5
554.845,2026.3
555.347,2040.5
555.85,2051.8
556.352,2071.2
556.854,2089.9
557.357,2093.8
557.859,2127.6
558.361,2142.5
558.863,2130.4
559.365,2088.5
559.867,2089.1
560.369,2089.6
560.871,2077.0
561.373,2092.9
561.875,2106.8
562.377,2133.0
562.878,2153.6
563.38,2200.1
563.881,2791.7
564.383,2415.2
564.884,2315.4
565.386,2244.5
565.887,2584.2
566.388,2527.0
566.889,2205.1
567.391,2270.6
567.892,2166.6
568.393,2144.2
568.893,2154.9
569.394,2176.9
569.895,2187.5
570.396,2227.4
570.897,2308.1
571.397,3210.7
571.898,2635.7
572.398,2366.7
572.899,2280.5
573.399,2274.1
573.899,2350.0
574.399,2283.1
574.9,2302.8
575.4,2617.1
575.9,2928.4
576.4,3605.0
576.899,3227.2
577.399,2798.3
577.899,2533.4
578.399,2548.2
578.898,2579.5
579.398,2597.8
579.897,2646.4
580.397,2723.9
580.896,2764.3
581.396,2780.5
581.895,2815.3
582.394,2817.6
582.893,2805.3
583.392,2839.2
583.891,2890.2
584.39,2878.2
584.889,2910.4
585.387,2934.5
585.886,2956.3
586.385,3004.5
586.883,3029.9
587.382,3092.0
587.88,3147.8
588.379,3226.0
588.877,3224.4
589.375,3233.8
589.873,3328.4
590.371,3408.1
590.869,3482.3
591.367,3512.7
591.865,3607.1
592.363,3588.5
592.86,3706.2
593.358,3751.0
593.856,3766.9
594.353,3833.8
594.851,3874.5
595.348,3904.0
595.845,4025.4
596.342,4025.1
596.84,4138.4
597.337,4169.3
597.834,4246.7
598.331,4278.4
598.827,4344.0
599.324,4381.8
599.821,4386.0
600.318,4392.2
600.814,4429.9
601.311,4451.8
601.807,4467.4
602.303,4281.9
602.8,4170.6
603.296,4197.2
603.792,4079.1
604.288,4004.6
604.784,3916.3
605.28,3831.5
605.776,3732.4
606.272,3684.7
606.767,3607.4
607.263,3580.6
607.758,3460.4
608.254,3408.2
608.749,3353.1
609.244,3355.5
609.74,3306.0
610.235,3278.5
610.73,3237.6
611.225,3221.9
611.72,3195.9
612.215,3140.2
612.709,3109.9
613.204,3091.8
613.699,3084.3
614.193,3041.4
614.688,3028.7
615.182,3005.0
615.676,3009.2
616.171,2970.7
616.665,2973.2
617.159,3011.9
617.653,2970.7
618.147,2966.3
618.641,2946.3
619.134,2914.4
619.628,2989.9
620.122,2946.3
620.615,2978.1
621.109,3005.1
621.602,3090.5
622.095,3318.2
622.588,3188.3
623.082,3000.9
623.575,2903.0
624.068,2906.6
624.56,2903.7
625.053,2905.3
625.546,2973.3
626.039,3035.9
626.531,3905.0
627.024,8072.2
627.516,7706.2
628.008,6785.6
628.501,9640.8
628.993,7155.6
629.485,6188.7
629.977,5426.5
630.469,5070.8
630.961,3974.5
631.452,3298.7
631.944,3024.0
632.436,2939.1
632.927,2899.9
633.418,2809.2
633.91,2796.3
634.401,2744.7
634.892,2760.1
635.383,2730.8
635.874,2741.9
636.365,2694.6
636.856,2663.4
637.347,2666.4
637.837,2665.6
638.328,2703.7
638.818,2642.1
639.309,2674.8
639.799,2682.3
640.289,2656.0
640.78,2732.3
641.27,2611.4
641.76,2675.2
642.249,2683.0
642.739,2639.2
643.229,2685.9
643.719,2669.1
644.208,2701.6
644.698,2668.7
645.187,2682.4
645.676,2719.1
646.165,2711.7
646.655,2712.5
647.144,2704.7
647.633,2659.7
648.121,2737.9
648.61,2690.8
649.099,2656.2
649.587,2656.4
650.076,2642.8
650.564,2691.2
651.053,2655.3
651.541,2644.9
652.029,2626.0
652.517,2625.8
653.005,2655.4
653.493,2638.5
653.981,2622.8
654.468,2626.0
654.956,2583.4
655.444,2576.7
655.931,2574.6
656.418,2571.8
656.906,2484.7
657.393,2522.8
657.88,2451.6
658.367,2461.1
658.854,2445.7
659.341,2421.2
659.827,2393.9
660.314,2332.4
660.8,2353.9
661.044,2347.7