File: spectra/VLFR_02-HDPE_bio_Raman_7a34e697.csv
nm,Intensity
526.494,834.1
527.041,834.8
527.588,834.6
528.135,834.8
528.682,833.5
529.229,833.1
529.775,834.8
530.321,834.6
530.868,833.8
531.414,834.5
531.96,845.7
532.506,837.2
533.051,834.8
533.597,836.0
534.142,909.6
534.687,914.3
535.232,910.7
535.777,877.0
536.322,863.1
536.867,860.6
537.411,861.7
537.956,859.4
538.5,859.2
539.044,853.2
539.588,852.5
540.132,852.4
540.676,850.2
541.22,850.5
541.763,848.8
542.306,851.1
542.85,849.6
543.393,849.0
543.936,850.6
544.479,849.3
545.021,850.0
545.564,849.1
546.106,848.3
546.649,848.2
547.191,851.2
547.733,848.8
548.275,849.1
548.817,848.8
549.359,849.8
549.9,848.6
550.442,850.9
550.983,849.8
551.524,850.9
552.066,850.1
552.607,849.1
553.148,850.6
553.688,852.5
554.229,851.0
554.77,852.4
555.31,852.9
555.85,853.6
556.39,858.3
556.931,857.2
557.471,856.9
558.01,860.7
558.55,861.3
559.09,856.8
559.629,856.7
560.169,858.3
560.708,857.6
561.247,857.2
561.786,858.9
562.325,858.4
562.864,863.1
563.403,866.2
563.941,964.8
564.48,881.8
565.018,876.8
565.557,869.1
566.095,933.9
566.633,869.7
567.171,869.9
567.709,876.8
568.247,863.5
568.784,862.4
569.322,864.6
569.859,864.8
570.397,871.6
570.934,874.3
571.471,1025.1
572.008,896.1
572.545,873.9
573.082,869.0
573.619,869.1
574.155,880.5
574.692,868.2
575.228,872.9
575.765,914.6
576.301,1059.4
576.837,973.6
577.373,941.8
577.909,886.2
578.445,877.4
578.981,881.0
579.516,878.4
580.052,882.1
580.587,880.6
581.123,881.5
581.658,885.5
582.193,887.0
582.728,890.5
583.263,887.0
583.798,892.3
584.333,894.5
584.868,899.9
585.402,903.7
585.937,903.5
586.471,909.8
587.005,914.3
587.54,919.9
588.074,918.8
588.608,925.9
589.142,927.5
589.676,928.2
590.21,933.6
590.743,937.8
591.277,940.9
591.81,946.5
592.344,949.3
592.877,948.5
593.411,948.9
593.944,950.7
594.477,958.5
595.01,957.2
595.543,960.8
596.076,961.8
596.608,963.2
597.141,968.5
597.674,968.2
598.206,977.1
598.739,977.7
599.271,978.3
599.803,981.8
600.335,979.1
600.868,981.5
601.4,978.7
601.931,978.6
602.463,985.0
602.995,973.6
603.527,971.2
604.058,970.1
604.59,965.4
605.121,963.2
605.653,956.3
606.184,953.3
606.715,945.8
607.246,942.8
607.778,942.1
608.309,940.9
608.839,936.2
609.37,937.4
609.901,933.4
610.432,936.2
610.962,936.0
611.493,934.1
612.023,927.0
612.554,929.7
613.084,929.0
613.614,928.3
614.145,924.0
614.675,922.4
615.205,924.1
615.735,925.1
616.265,923.3
616.795,928.5
617.324,932.0
617.854,929.0
618.384,931.1
618.913,930.1
619.443,933.1
619.972,934.5
620.502,934.4
621.031,939.8
621.56,960.8
622.089,1009.3
622.618,1003.3
623.147,944.8
623.676,931.5
624.205,928.7
624.734,927.5
625.263,934.9
625.792,946.3
626.32,1003.5
626.849,1484.3
627.377,2196.2
627.906,1639.8
628.434,2130.1
628.963,1577.3
629.491,1429.9
630.019,1256.4
630.547,1227.5
631.076,1048.8
631.604,950.5
632.132,929.7
632.66,924.9
633.188,916.2
633.715,917.0
634.243,908.2
634.771,904.3
635.299,907.6
635.826,910.5
636.354,902.2
636.881,904.5
637.409,897.1
637.936,897.4
638.464,898.4
638.991,900.8
639.518,899.4
640.045,897.5
640.573,898.9
641.1,898.4
641.627,900.9
642.154,898.6
642.681,897.8
643.208,899.7
643.735,901.3
644.261,896.7
644.788,904.2
645.315,900.3
645.842,898.8
646.368,899.7
646.895,897.2
647.421,901.4
647.948,898.4
648.474,902.2
649.001,898.4
649.527,899.7
650.054,896.9
650.58,897.8
651.106,899.8
651.633,897.6
652.159,898.4
652.685,895.1
653.211,896.7
653.737,898.2
654.263,897.3
654.789,898.3
655.315,894.0
655.841,893.8
656.367,894.9
656.893,893.5
657.419,896.2
657.945,892.2
658.47,893.0
658.996,892.9
659.522,890.3
660.047,895.8
660.573,889.3
661.099,888.1
661.624,887.7
662.15,886.2
662.675,884.3
663.07,882.0