File: spectra/VLFR_07-PET_bio_Raman_9a63babb.csv
nm,Intensity
791.75,12003.7
792.846,11271.3
793.942,10926.1
795.037,10824.0
796.133,10728.0
797.228,10633.0
798.324,10724.0
799.419,10640.2
800.514,10523.0
801.61,10583.5
802.705,10552.4
803.8,10316.0
804.894,10396.4
805.989,10260.6
807.084,10073.5
808.178,10075.0
809.273,9881.6
810.367,9781.8
811.461,9729.5
812.556,9467.65
813.65,9422.55
814.744,9368.25
815.837,9153.7
816.931,9074.6
818.025,9010.15
819.118,8806.05
820.212,8831.0
821.305,8625.25
822.398,8430.25
823.491,8448.05
824.585,8372.25
825.677,8480.85
826.77,8132.15
827.863,8097.5
828.956,8021.45
830.048,8103.6
831.14,7940.65
832.233,7849.65
833.325,7799.7
834.417,7703.65
835.509,7688.1
836.601,7647.6
837.692,7631.1
838.784,7611.75
839.876,7577.25
840.967,7668.7
842.058,7481.85
843.149,7394.2
844.24,7241.55
845.331,7168.15
846.422,7065.4
847.513,6971.95
848.604,6969.2
849.694,6822.45
850.784,6813.0
851.875,6794.15
852.965,6767.75
854.055,6628.85
855.145,6638.15
856.235,6540.85
857.324,6594.95
858.414,6607.75
859.503,6574.7
860.593,6567.1
861.682,6324.9
862.771,6342.1
863.86,6355.9
864.949,6332.45
866.038,6185.0
867.126,6185.5
868.215,6108.8
869.303,6139.1
870.391,6187.1
871.479,6296.6
872.567,6352.3
873.655,6216.6
874.743,6041.15
875.831,5974.8
876.918,5925.95
878.006,5922.5
879.093,5825.85
880.18,5813.95
881.267,5791.7
882.354,5796.9
883.441,5784.2
884.527,5752.9
885.614,5685.8
886.7,5661.65
887.786,5634.55
888.872,5543.65
889.958,5590.4
891.044,5493.55
892.13,5528.15
893.216,5445.2
894.301,5416.7
895.386,5380.4
896.472,5424.15
897.557,5639.8
898.642,5661.9
899.726,5360.3
900.811,5198.05
901.896,5195.2
902.98,5113.1
904.064,5115.3
905.148,5129.05
906.232,5240.2
907.316,5396.25
908.4,5203.25
909.484,5033.75
910.567,4939.75
911.65,4890.6
912.734,4820.4
913.817,4812.05
914.9,4778.2
915.982,4762.35
917.065,4732.65
918.147,4694.4
919.23,4683.95
920.312,4653.4
921.394,4609.35
922.476,4571.15
923.558,4542.65
924.639,4532.6
925.721,4492.55
926.802,4486.55
927.884,4432.8
928.965,4402.15
930.046,4381.7
931.126,4350.15
932.207,4325.8
933.288,4312.75
934.368,4273.7
935.448,4263.25
936.528,4237.15
937.608,4223.6
938.688,4216.85
939.767,4203.75
940.847,4181.35
941.926,4151.35
943.005,4146.15
944.084,4125.25
945.163,4107.1
946.242,4082.3
947.321,4085.85
948.399,4063.5
949.477,4055.3
950.556,4043.85
951.634,4027.45
952.711,4019.9
953.789,4007.7
954.867,3990.2
955.944,3987.45
957.021,3974.3
958.098,3965.6
959.175,3959.35
960.252,3952.15
961.328,3928.6
962.405,3931.85
963.481,3923.95
964.557,3918.5
965.633,3905.05
966.709,3904.9
967.785,3903.45
968.86,3893.45
969.936,3889.5
971.011,3878.55
972.086,3874.5
973.161,3860.8
974.235,3853.9
975.31,3846.15
976.384,3845.55
977.459,3838.4
978.533,3832.15
979.607,3825.65
980.68,3828.55
981.754,3823.25
982.827,3819.25
983.901,3813.6
984.974,3808.95
986.047,3804.25
987.119,3804.0
988.192,3794.55
989.264,3794.8
990.337,3789.5
991.409,3785.6
992.481,3779.5
993.553,3781.2
994.624,3776.15
995.696,3773.15
996.767,3768.8
997.838,3760.2
998.909,3762.05
999.98,3754.95
1001.05,3756.15
1002.12,3752.0
1003.19,3750.0
1004.26,3749.15
1005.33,3743.8
1006.4,3741.5
1007.47,3736.8
1008.54,3736.55
1009.61,3731.7
1010.68,3729.25
1011.75,3730.4
1012.82,3731.55
1013.88,3726.6
1014.95,3722.8
1016.02,3722.95
1017.09,3720.65
1018.16,3718.7
1019.22,3716.3
1020.29,3716.65
1021.36,3719.3
1022.43,3719.45
1023.49,3716.65
1024.56,3713.1
1025.63,3712.25
1026.69,3708.7
1027.76,3708.2
1028.83,3704.1
1029.89,3702.55
1030.96,3700.0
1032.02,3701.6
1033.09,3701.0
1034.15,3701.7
1035.22,3702.0
1036.28,3701.35
1037.35,3695.85
1038.41,3694.65
1039.48,3695.95
1040.54,3694.05
1041.6,3692.1
1042.67,3691.05
1043.73,3691.45
1044.79,3688.9
1045.86,3687.6
1046.92,3689.75
1047.98,3689.4
1049.05,3687.55
1050.11,3687.35
1051.17,3688.35
1052.23,3686.7
1053.29,3687.5
1054.36,3686.5
1055.42,3687.4
1056.48,3684.7
1057.54,3686.4
1058.6,3686.6
1059.66,3684.15
1060.72,3684.75
1061.78,3685.1
1062.84,3686.15
1063.9,3684.5
1064.96,3684.6
1066.02,3685.2
1067.08,3685.05
1067.88,3682.35