File: spectra/VLFR_01-LDPE_nobio_Raman_5b5a77a2.csv
nm,Intensity
526.547,831.7
527.094,832.7
527.641,832.9
528.188,832.3
528.734,832.4
529.281,834.7
529.827,832.8
530.373,833.9
530.92,833.1
531.466,832.8
532.011,840.6
532.557,832.0
533.103,833.4
533.648,833.6
534.193,928.3
534.738,918.9
535.283,900.0
535.828,884.2
536.373,876.8
536.917,872.6
537.462,872.3
538.006,872.5
538.55,868.1
539.094,861.6
539.638,863.0
540.182,860.2
540.726,857.3
541.269,855.2
541.812,857.0
542.356,855.9
542.899,856.2
543.442,855.4
543.985,855.7
544.527,852.7
545.07,853.0
545.612,853.2
546.155,856.2
546.697,852.7
547.239,853.2
547.781,851.6
548.323,853.2
548.865,851.8
549.406,852.8
549.948,849.2
550.489,850.4
551.03,848.5
551.572,850.6
552.113,849.5
552.654,850.4
553.194,852.4
553.735,853.8
554.276,854.4
554.816,854.9
555.356,856.5
555.896,858.9
556.437,858.6
556.977,863.2
557.516,864.4
558.056,867.4
558.596,866.0
559.135,867.6
559.675,863.5
560.214,866.2
560.753,864.5
561.292,866.3
561.831,868.6
562.37,871.2
562.909,876.0
563.448,883.0
563.986,955.1
564.525,903.4
565.063,895.9
565.601,889.3
566.139,963.7
566.677,893.8
567.215,890.2
567.753,893.0
568.291,889.6
568.828,893.8
569.366,897.4
569.903,897.6
570.441,906.5
570.978,922.8
571.515,1049.1
572.052,960.5
572.589,937.5
573.126,938.1
573.662,946.5
574.199,964.0
574.735,963.9
575.272,976.8
575.808,1033.1
576.344,1177.4
576.88,1131.5
577.416,1098.9
577.952,1085.9
578.488,1100.9
579.024,1131.5
579.559,1151.6
580.095,1175.6
580.63,1211.3
581.166,1227.7
581.701,1250.3
582.236,1277.7
582.771,1305.0
583.306,1326.8
583.841,1336.4
584.376,1362.2
584.911,1383.6
585.445,1397.6
585.98,1432.3
586.514,1449.6
587.048,1484.6
587.583,1508.7
588.117,1544.5
588.651,1574.2
589.185,1602.6
589.719,1648.8
590.253,1671.2
590.786,1719.0
591.32,1737.4
591.853,1771.9
592.387,1800.7
592.92,1822.0
593.454,1845.7
593.987,1883.5
594.52,1891.7
595.053,1925.1
595.586,1959.8
596.119,2007.5
596.651,2040.5
597.184,2097.5
597.717,2133.8
598.249,2205.0
598.782,2240.9
599.314,2279.6
599.846,2314.3
600.379,2327.7
600.911,2326.5
601.443,2322.6
601.975,2322.4
602.507,2315.5
603.038,2276.7
603.57,2245.6
604.102,2184.4
604.633,2138.2
605.165,2076.4
605.696,1997.3
606.228,1938.0
606.759,1883.1
607.29,1847.7
607.821,1804.9
608.352,1769.9
608.883,1730.8
609.414,1703.2
609.945,1677.3
610.476,1643.1
611.006,1624.6
611.537,1601.1
612.067,1588.7
612.598,1574.6
613.128,1555.0
613.659,1545.3
614.189,1536.2
614.719,1507.3
615.249,1484.7
615.779,1471.2
616.309,1447.1
616.839,1435.1
617.369,1438.8
617.899,1423.0
618.428,1411.3
618.958,1398.2
619.487,1395.0
620.017,1379.8
620.546,1369.5
621.076,1362.9
621.605,1377.5
622.134,1388.9
622.663,1372.6
623.193,1340.4
623.722,1330.5
624.251,1329.6
624.78,1320.9
625.308,1322.6
625.837,1325.6
626.366,1344.2
626.895,1668.1
627.423,2071.7
627.952,1775.1
628.48,2123.0
629.009,1805.8
629.537,1688.2
630.065,1582.0
630.594,1547.4
631.122,1404.1
631.65,1324.3
632.178,1306.3
632.706,1290.6
633.234,1282.3
633.762,1280.4
634.29,1269.4
634.818,1281.6
635.346,1284.1
635.873,1290.0
636.401,1283.9
636.929,1294.2
637.456,1287.1
637.984,1300.7
638.511,1304.7
639.039,1302.0
639.566,1309.4
640.093,1317.1
640.62,1322.2
641.148,1338.5
641.675,1336.0
642.202,1348.5
642.729,1352.0
643.256,1361.7
643.783,1358.6
644.31,1362.7
644.837,1364.3
645.364,1371.9
645.891,1374.9
646.417,1380.4
646.944,1387.4
647.471,1395.2
647.997,1398.5
648.524,1403.2
649.051,1402.3
649.577,1394.2
650.104,1411.7
650.63,1412.6
651.157,1417.5
651.683,1423.2
652.209,1432.8
652.736,1433.1
653.262,1449.5
653.788,1443.1
654.314,1439.4
654.84,1448.8
655.366,1446.1
655.893,1439.6
656.419,1435.0
656.945,1418.3
657.471,1412.8
657.997,1389.0
658.522,1387.3
659.048,1367.7
659.574,1344.7
660.1,1333.5
660.626,1311.0
661.152,1287.8
661.677,1277.7
662.203,1252.5
662.729,1233.8
663.123,1222.1