File: spectra/VLFR_01-LDPE_nobio_Raman_2a3a922f.csv
nm,Intensity
526.5,827.5
527.047,826.4
527.594,825.4
528.14,826.0
528.687,827.3
529.233,827.4
529.779,828.7
530.325,826.1
530.871,826.7
531.417,826.7
531.962,829.9
532.508,827.7
533.053,826.4
533.599,828.2
534.144,890.7
534.689,881.0
535.234,870.9
535.778,864.3
536.323,858.3
536.867,857.5
537.412,856.2
537.956,857.9
538.5,856.6
539.044,858.7
539.588,854.3
540.132,850.7
540.675,849.3
541.219,849.6
541.762,848.0
542.305,849.7
542.848,850.8
543.391,849.2
543.934,848.4
544.477,845.7
545.02,846.7
545.562,846.1
546.105,846.3
546.647,845.4
547.189,845.5
547.731,845.0
548.273,847.5
548.815,844.8
549.356,844.4
549.898,846.3
550.439,845.2
550.981,846.6
551.522,847.6
552.063,847.3
552.604,848.2
553.145,846.7
553.686,846.9
554.226,844.8
554.767,846.7
555.307,846.4
555.848,846.5
556.388,848.5
556.928,849.6
557.468,849.9
558.008,850.8
558.547,851.1
559.087,850.5
559.626,851.2
560.166,849.4
560.705,849.0
561.244,848.4
561.783,849.7
562.322,848.2
562.861,852.7
563.4,854.9
563.939,887.4
564.477,867.5
565.015,866.4
565.554,861.1
566.092,891.1
566.63,861.0
567.168,856.5
567.706,858.1
568.244,855.9
568.781,859.4
569.319,856.7
569.857,860.8
570.394,864.8
570.931,868.5
571.468,919.8
572.005,887.7
572.542,872.0
573.079,871.3
573.616,867.7
574.153,875.7
574.689,873.4
575.226,874.4
575.762,899.5
576.298,968.0
576.834,937.8
577.371,916.3
577.907,897.5
578.442,898.0
578.978,903.1
579.514,908.1
580.049,912.5
580.585,916.7
581.12,925.8
581.656,927.7
582.191,936.2
582.726,944.3
583.261,954.2
583.796,959.1
584.331,967.3
584.865,974.5
585.4,986.9
585.935,998.4
586.469,1009.2
587.004,1023.9
587.538,1035.2
588.072,1050.3
588.606,1057.0
589.14,1073.2
589.674,1085.3
590.208,1091.1
590.742,1104.0
591.275,1110.4
591.809,1120.2
592.342,1118.0
592.876,1129.8
593.409,1129.4
593.942,1133.5
594.476,1146.1
595.009,1156.0
595.542,1163.3
596.075,1169.8
596.607,1187.0
597.14,1205.2
597.673,1216.5
598.205,1224.3
598.738,1235.3
599.27,1255.7
599.803,1258.8
600.335,1257.3
600.867,1271.8
601.399,1266.3
601.931,1257.3
602.463,1253.5
602.995,1246.8
603.527,1230.9
604.058,1221.2
604.59,1206.9
605.122,1185.1
605.653,1171.9
606.184,1148.3
606.716,1129.4
607.247,1116.2
607.778,1110.1
608.309,1097.4
608.84,1092.8
609.371,1080.6
609.902,1067.4
610.433,1067.3
610.964,1062.2
611.494,1054.9
612.025,1049.9
612.556,1046.0
613.086,1045.8
613.616,1036.4
614.147,1036.1
614.677,1025.6
615.207,1024.3
615.737,1026.0
616.267,1016.0
616.797,1014.5
617.327,1016.6
617.857,1006.3
618.387,1003.7
618.917,1000.2
619.446,1003.5
619.976,999.0
620.505,998.7
621.035,1004.3
621.564,1008.4
622.093,1024.6
622.623,1020.0
623.152,997.8
623.681,988.3
624.21,990.3
624.739,989.7
625.268,990.3
625.797,998.0
626.326,1016.0
626.855,1191.2
627.383,1561.3
627.912,1327.7
628.441,1493.1
628.969,1371.8
629.498,1293.9
630.026,1201.4
630.554,1189.7
631.083,1084.2
631.611,1026.1
632.139,1001.8
632.667,1000.3
633.195,998.7
633.724,993.8
634.252,993.1
634.779,993.4
635.307,996.6
635.835,990.9
636.363,999.7
636.891,1000.3
637.418,1000.4
637.946,1003.6
638.474,1005.5
639.001,1009.5
639.529,1009.8
640.056,1018.3
640.583,1024.6
641.111,1016.6
641.638,1026.4
642.165,1024.3
642.692,1030.9
643.22,1026.1
643.747,1030.2
644.274,1031.9
644.801,1022.9
645.328,1031.7
645.854,1033.3
646.381,1034.2
646.908,1033.9
647.435,1032.8
647.962,1036.2
648.488,1031.6
649.015,1035.3
649.542,1028.3
650.068,1034.9
650.595,1033.2
651.121,1031.0
651.648,1036.3
652.174,1033.5
652.7,1039.3
653.227,1036.4
653.753,1036.9
654.279,1041.0
654.805,1037.3
655.331,1035.7
655.858,1037.9
656.384,1034.2
656.91,1033.7
657.436,1027.2
657.962,1019.3
658.488,1017.0
659.013,1011.6
659.539,1005.4
660.065,1005.1
660.591,995.3
661.117,990.4
661.642,981.7
662.168,973.3
662.694,968.1
663.088,965.9