File: spectra/VLFR_01-LDPE_nobio_Raman_d672d943.csv
nm,Intensity
526.486,829.9
527.033,830.0
527.579,829.7
528.126,829.7
528.672,830.3
529.219,830.3
529.765,830.2
530.311,829.4
530.857,828.9
531.403,831.1
531.948,833.0
532.494,831.1
533.039,831.1
533.585,830.2
534.13,859.6
534.675,857.5
535.22,849.1
535.764,843.5
536.309,845.9
536.854,843.2
537.398,845.7
537.942,845.1
538.486,845.1
539.03,846.4
539.574,846.2
540.118,842.0
540.662,842.7
541.205,841.3
541.749,842.2
542.292,840.9
542.835,842.2
543.378,841.3
543.921,841.0
544.464,838.9
545.006,839.9
545.549,841.3
546.091,839.0
546.634,840.1
547.176,838.5
547.718,839.7
548.26,840.1
548.802,841.3
549.343,840.4
549.885,840.7
550.426,840.5
550.968,840.5
551.509,840.4
552.05,840.5
552.591,840.3
553.132,838.4
553.673,841.8
554.214,839.7
554.754,840.6
555.295,841.3
555.835,841.6
556.375,843.3
556.915,842.9
557.455,842.8
557.995,843.8
558.535,844.8
559.075,844.8
559.614,843.8
560.154,845.5
560.693,843.1
561.232,845.7
561.772,844.2
562.311,845.2
562.85,846.2
563.388,846.9
563.927,858.4
564.466,854.8
565.004,854.0
565.543,850.7
566.081,861.6
566.619,850.6
567.157,850.9
567.695,850.9
568.233,851.1
568.771,853.0
569.309,853.3
569.846,854.9
570.384,856.3
570.921,858.3
571.458,876.4
571.995,868.6
572.532,864.7
573.069,863.5
573.606,863.2
574.143,865.4
574.68,865.6
575.216,866.2
575.753,873.4
576.289,906.6
576.825,897.7
577.361,886.7
577.897,877.4
578.433,880.2
578.969,883.2
579.505,884.8
580.041,882.0
580.576,887.2
581.112,889.3
581.647,892.3
582.183,892.0
582.718,896.3
583.253,894.1
583.788,902.6
584.323,902.5
584.858,904.8
585.392,909.9
585.927,917.6
586.462,922.1
586.996,925.8
587.53,932.6
588.065,942.6
588.599,939.8
589.133,948.5
589.667,953.8
590.201,963.2
590.735,964.9
591.268,969.6
591.802,972.0
592.335,982.1
592.869,981.8
593.402,989.4
593.936,992.4
594.469,1000.4
595.002,1013.7
595.535,1022.2
596.068,1023.3
596.601,1033.7
597.133,1043.0
597.666,1054.8
598.199,1065.1
598.731,1071.4
599.264,1081.7
599.796,1089.7
600.328,1086.0
600.86,1091.9
601.393,1085.1
601.925,1083.4
602.457,1081.4
602.988,1075.5
603.52,1068.3
604.052,1061.2
604.583,1046.5
605.115,1039.7
605.646,1030.7
606.178,1016.8
606.709,1012.4
607.24,996.2
607.771,997.6
608.302,994.5
608.833,992.7
609.364,979.8
609.895,980.8
610.426,974.6
610.957,962.7
611.487,965.0
612.018,961.8
612.548,959.7
613.078,959.2
613.609,958.3
614.139,953.3
614.669,952.0
615.199,947.7
615.729,948.1
616.259,940.9
616.789,942.3
617.319,938.5
617.849,941.5
618.378,939.0
618.908,931.1
619.437,933.7
619.967,931.1
620.496,927.2
621.025,928.5
621.555,927.7
622.084,937.4
622.613,936.3
623.142,926.6
623.671,920.5
624.2,919.5
624.729,921.8
625.258,918.3
625.786,918.6
626.315,926.2
626.844,980.3
627.372,1107.9
627.901,1029.8
628.429,1086.2
628.957,1043.3
629.486,1017.4
630.014,985.5
630.542,971.7
631.07,941.1
631.598,919.4
632.126,913.0
632.654,909.9
633.182,909.0
633.71,907.5
634.237,906.3
634.765,907.7
635.293,907.1
635.82,911.3
636.348,911.7
636.875,912.5
637.403,911.5
637.93,909.7
638.458,915.9
638.985,912.9
639.512,914.8
640.039,917.1
640.566,916.0
641.093,920.7
641.62,924.4
642.147,928.3
642.674,926.3
643.201,928.0
643.728,924.5
644.255,929.6
644.781,933.6
645.308,930.9
645.835,933.9
646.361,933.3
646.888,935.4
647.414,937.0
647.941,938.1
648.467,942.8
648.993,941.9
649.52,944.1
650.046,941.0
650.572,947.1
651.098,942.9
651.625,949.0
652.151,950.8
652.677,950.5
653.203,956.4
653.729,955.2
654.255,955.2
654.78,954.3
655.306,950.5
655.832,952.5
656.358,950.1
656.884,951.7
657.409,950.4
657.935,946.9
658.461,939.0
658.986,937.2
659.512,935.3
660.037,935.0
660.563,929.4
661.088,923.6
661.614,924.1
662.139,919.0
662.664,915.5
663.058,909.4