File: spectra/VLFR_01-LDPE_bio_Raman_c1713c6a.csv
nm,Intensity
528.626,1868.5
529.132,1868.4
529.637,1868.0
530.143,1868.4
530.648,1867.6
531.153,1870.7
531.658,1890.4
532.164,3161.6
532.669,1868.7
533.174,1867.9
533.679,1977.5
534.184,2350.0
534.689,2310.2
535.194,2264.1
535.699,2182.5
536.203,2146.2
536.708,2136.2
537.213,2124.9
537.717,2135.7
538.222,2116.4
538.726,2110.4
539.231,2097.5
539.735,2085.0
540.239,2087.6
540.744,2085.5
541.248,2075.2
541.752,2084.6
542.256,2083.7
542.76,2100.7
543.264,2083.9
543.768,2092.5
544.272,2086.4
544.776,2089.1
545.28,2107.9
545.784,2099.2
546.287,2098.8
546.791,2119.3
547.294,2119.6
547.798,2123.4
548.301,2134.5
548.805,2125.1
549.308,2131.1
549.811,2125.2
550.315,2149.6
550.818,2139.5
551.321,2146.7
551.824,2149.0
552.327,2161.1
552.83,2162.0
553.333,2188.5
553.835,2190.7
554.338,2180.9
554.841,2194.7
555.343,2208.0
555.846,2210.6
556.349,2226.0
556.851,2242.6
557.353,2240.9
557.856,2279.6
558.358,2287.9
558.86,2296.3
559.362,2257.0
559.864,2256.0
560.366,2249.1
560.868,2252.8
561.37,2287.8
561.872,2289.5
562.374,2312.9
562.876,2333.5
563.377,2380.7
563.879,2769.7
564.38,2593.9
564.882,2527.0
565.383,2476.3
565.885,2669.3
566.386,2717.3
566.887,2494.6
567.388,2509.8
567.889,2460.0
568.391,2487.2
568.892,2502.9
569.392,2535.4
569.893,2556.4
570.394,2612.5
570.895,2656.9
571.395,3359.6
571.896,2987.2
572.397,2770.1
572.897,2718.5
573.397,2748.9
573.898,2833.7
574.398,2790.3
574.898,2823.6
575.398,3060.1
575.898,3389.3
576.398,3934.2
576.898,3662.2
577.398,3405.3
577.898,3246.5
578.398,3267.8
578.897,3364.4
579.397,3498.3
579.896,3617.7
580.396,3654.5
580.895,3820.4
581.395,3944.0
581.894,3992.3
582.393,4226.1
582.892,4326.7
583.391,4525.2
583.89,4603.8
584.389,4817.2
584.888,5013.5
585.387,5231.2
585.886,5446.5
586.384,5556.2
586.883,5893.1
587.381,6177.9
587.88,6507.4
588.378,6802.3
588.876,7079.3
589.375,7288.8
589.873,7549.8
590.371,7677.0
590.869,8011.9
591.367,8236.5
591.865,8273.4
592.363,8384.5
592.86,8444.9
593.358,8413.7
593.856,8418.5
594.353,8384.7
594.851,8331.5
595.348,8370.1
595.845,8566.2
596.342,8526.8
596.84,8646.2
597.337,8703.2
597.834,8759.6
598.331,8802.1
598.828,8812.9
599.324,8884.6
599.821,8982.1
600.318,8853.3
600.814,8912.9
601.311,8885.7
601.807,8857.8
602.304,8757.0
602.8,8254.9
603.296,8367.9
603.792,8178.5
604.288,8027.6
604.784,7620.0
605.28,7355.9
605.776,7132.4
606.272,7092.4
606.767,6681.6
607.263,6697.8
607.759,6380.5
608.254,6227.2
608.749,6133.8
609.245,6017.9
609.74,5883.5
610.235,5759.9
610.73,5682.3
611.225,5491.6
611.72,5345.7
612.215,5309.5
612.71,5267.9
613.204,5088.7
613.699,5129.6
614.194,4991.9
614.688,4973.4
615.182,4843.5
615.677,4764.7
616.171,4636.9
616.665,4666.9
617.159,4585.8
617.653,4519.3
618.147,4493.5
618.641,4441.4
619.135,4336.2
619.628,4358.8
620.122,4302.1
620.615,4282.4
621.109,4211.5
621.602,4340.5
622.095,4507.4
622.589,4338.7
623.082,4193.4
623.575,4079.4
624.068,4073.8
624.561,4021.5
625.053,3978.1
625.546,4028.5
626.039,4111.9
626.531,4760.5
627.024,7997.8
627.516,8160.3
628.008,7057.7
628.501,9084.8
628.993,7288.0
629.485,6453.4
629.977,5910.6
630.469,5699.5
630.96,4915.1
631.452,4252.2
631.944,4113.9
632.435,4024.5
632.927,4021.5
633.418,3984.7
633.91,4062.2
634.401,3967.1
634.892,4029.4
635.383,4043.3
635.874,4000.1
636.365,4043.3
636.856,4073.6
637.346,4086.0
637.837,4094.6
638.327,4203.7
638.818,4210.0
639.308,4292.0
639.799,4184.6
640.289,4291.1
640.779,4318.1
641.269,4357.2
641.759,4237.1
642.249,4429.6
642.738,4437.1
643.228,4377.6
643.718,4455.6
644.207,4489.9
644.697,4537.1
645.186,4491.7
645.675,4380.8
646.164,4423.9
646.653,4331.3
647.142,4382.5
647.631,4377.1
648.12,4354.0
648.609,4296.8
649.098,4226.0
649.586,4218.0
650.075,4213.7
650.563,4153.2
651.051,4152.7
651.539,4074.4
652.027,4040.7
652.515,4095.3
653.003,3966.7
653.491,3982.5
653.979,3867.5
654.467,3879.8
654.954,3819.8
655.442,3775.7
655.929,3879.7
656.416,3755.6
656.904,3668.8
657.391,3632.5
657.878,3584.7
658.365,3454.4
658.851,3430.0
659.338,3445.7
659.825,3397.7
660.311,3274.0
660.798,3211.7
661.041,3207.3