File: spectra/VLFR_08-PLA_bio_Raman_c955b1d1.csv
nm,Intensity
526.547,831.85
527.095,831.75
527.642,832.3
528.189,833.05
528.736,831.35
529.283,832.15
529.829,832.85
530.376,831.85
530.922,832.3
531.468,832.1
532.014,834.9
532.56,831.85
533.106,831.65
533.651,833.4
534.196,917.05
534.742,896.55
535.287,888.85
535.832,883.05
536.376,883.6
536.921,876.25
537.465,874.6
538.01,870.9
538.554,868.7
539.098,863.7
539.642,861.3
540.186,860.35
540.729,871.4
541.273,871.75
541.816,864.35
542.36,863.2
542.903,864.8
543.446,874.25
543.988,887.2
544.531,869.75
545.074,864.5
545.616,862.4
546.158,870.75
546.701,899.45
547.243,867.8
547.785,864.25
548.326,863.05
548.868,865.75
549.41,868.1
549.951,871.45
550.492,878.9
551.034,865.5
551.575,867.35
552.116,867.15
552.656,868.1
553.197,869.2
553.738,869.45
554.278,868.15
554.819,865.25
555.359,861.7
555.899,862.6
556.439,864.3
556.979,863.0
557.519,868.85
558.058,918.9
558.598,875.1
559.137,869.2
559.677,869.2
560.216,866.3
560.755,864.6
561.294,864.7
561.833,869.95
562.371,1089.2
562.91,870.4
563.449,881.55
563.987,869.8
564.525,868.3
565.064,880.2
565.602,877.25
566.14,891.65
566.678,887.1
567.216,869.65
567.753,870.7
568.291,870.75
568.828,868.25
569.366,871.0
569.903,868.6
570.44,868.85
570.977,869.0
571.514,879.8
572.051,875.5
572.588,876.2
573.125,875.65
573.661,878.9
574.198,876.95
574.734,878.2
575.271,871.5
575.807,872.2
576.343,884.45
576.879,906.65
577.415,877.8
577.951,873.75
578.486,873.65
579.022,872.75
579.557,872.3
580.093,872.5
580.628,870.25
581.164,871.7
581.699,873.25
582.234,874.1
582.769,873.35
583.304,871.65
583.838,873.45
584.373,873.8
584.908,874.15
585.442,870.45
585.977,874.1
586.511,878.2
587.045,892.15
587.58,902.15
588.114,879.6
588.648,873.8
589.182,870.1
589.715,871.35
590.249,871.0
590.783,870.75
591.316,871.15
591.85,868.25
592.383,868.0
592.917,867.85
593.45,867.55
593.983,869.7
594.516,867.75
595.049,868.9
595.582,867.05
596.115,868.1
596.648,869.95
597.18,867.0
597.713,867.9
598.245,869.3
598.778,867.95
599.31,869.15
599.842,867.85
600.375,866.2
600.907,868.6
601.439,868.1
601.971,867.65
602.503,866.9
603.034,867.25
603.566,869.35
604.098,869.55
604.629,866.35
605.161,870.65
605.692,868.6
606.224,866.95
606.755,868.4
607.286,867.1
607.817,868.45
608.348,868.05
608.879,867.1
609.41,867.05
609.941,870.3
610.472,867.55
611.002,868.45
611.533,867.35
612.063,868.3
612.594,867.6
613.124,867.35
613.655,868.45
614.185,870.45
614.715,869.45
615.245,868.55
615.775,867.25
616.305,868.65
616.835,868.7
617.365,868.55
617.895,870.2
618.425,869.15
618.954,868.55
619.484,867.4
620.013,866.3
620.543,866.55
621.072,866.5
621.602,865.4
622.131,867.4
622.66,869.6
623.189,871.4
623.718,871.65
624.247,869.05
624.776,868.0
625.305,864.95
625.834,866.6
626.363,865.4
626.891,866.15
627.42,866.1
627.949,869.65
628.477,894.3
629.006,887.4
629.534,889.55
630.062,890.95
630.591,912.65
631.119,1064.9
631.647,960.95
632.175,915.7
632.703,901.4
633.231,941.25
633.759,924.2
634.287,888.0
634.815,870.95
635.343,865.5
635.871,862.7
636.398,863.5
636.926,863.6
637.454,861.5
637.981,860.35
638.509,861.0
639.036,863.3
639.564,860.35
640.091,861.35
640.618,861.45
641.146,859.85
641.673,860.0
642.2,861.45
642.727,861.65
643.254,858.85
643.781,859.55
644.308,860.2
644.835,859.75
645.362,858.0
645.889,858.1
646.416,857.55
646.942,859.4
647.469,859.8
647.996,858.55
648.522,860.1
649.049,862.8
649.576,866.2
650.102,870.3
650.629,863.35
651.155,861.05
651.682,860.9
652.208,858.55
652.734,858.75
653.261,860.7
653.787,860.6
654.313,858.7
654.839,856.8
655.365,857.75
655.892,856.2
656.418,856.8
656.944,857.15
657.47,857.4
657.996,857.4
658.522,857.05
659.048,856.25
659.574,855.75
660.099,855.7
660.625,854.85
661.151,854.9
661.677,856.15
662.203,854.1
662.728,852.6
663.123,853.4