File: spectra/VLFR_06-PET_bio_Raman_a38a0259.csv
nm,Intensity
526.493,828.45
527.039,829.95
527.586,829.0
528.133,829.7
528.679,829.2
529.225,829.3
529.771,829.5
530.317,829.6
530.863,828.7
531.409,829.2
531.955,830.3
532.5,829.45
533.046,829.2
533.591,838.3
534.136,1876.6
534.681,1597.95
535.226,1306.35
535.771,1116.75
536.315,1009.0
536.86,960.85
537.404,940.9
537.948,935.0
538.493,940.7
539.037,933.75
539.58,946.85
540.124,952.95
540.668,916.0
541.211,905.55
541.755,901.55
542.298,899.75
542.841,903.75
543.384,899.75
543.927,907.4
544.47,905.4
545.013,903.35
545.555,905.5
546.098,908.0
546.64,905.95
547.182,905.6
547.724,908.95
548.266,910.3
548.808,912.0
549.35,908.3
549.892,913.95
550.433,924.0
550.974,933.1
551.516,918.9
552.057,920.1
552.598,924.6
553.139,940.55
553.68,924.2
554.22,923.9
554.761,926.45
555.301,937.3
555.842,978.4
556.382,981.15
556.922,986.2
557.462,1099.65
558.002,1016.15
558.542,1002.0
559.082,967.7
559.621,944.0
560.161,940.95
560.7,945.6
561.239,951.05
561.778,953.7
562.317,965.7
562.856,972.05
563.395,973.6
563.934,965.3
564.472,978.1
565.011,1010.6
565.549,1063.75
566.088,1062.1
566.626,984.65
567.164,971.85
567.702,1036.85
568.24,979.25
568.777,976.05
569.315,976.85
569.853,1004.3
570.39,1037.55
570.927,1147.55
571.465,1251.35
572.002,1109.6
572.539,1024.8
573.076,996.55
573.612,998.85
574.149,1020.75
574.686,1004.95
575.222,1027.25
575.759,1010.5
576.295,1031.25
576.831,1045.25
577.367,1021.65
577.903,1004.75
578.439,1010.1
578.975,1007.85
579.511,1007.2
580.046,1011.9
580.582,1019.2
581.117,1041.0
581.653,1102.65
582.188,2099.9
582.723,1079.25
583.258,1034.65
583.793,1029.75
584.328,1037.65
584.863,1046.55
585.398,1124.9
585.932,1562.1
586.467,1370.45
587.001,1085.95
587.535,1043.1
588.07,1044.55
588.604,1037.4
589.138,1034.5
589.672,1034.25
590.206,1032.55
590.739,1036.1
591.273,1036.1
591.807,1041.0
592.34,1039.2
592.873,1035.3
593.407,1038.45
593.94,1037.25
594.473,1039.2
595.006,1043.25
595.539,1043.7
596.072,1044.6
596.605,1048.5
597.138,1046.6
597.67,1049.0
598.203,1050.5
598.735,1050.6
599.268,1050.5
599.8,1049.5
600.332,1051.85
600.865,1051.0
601.397,1050.0
601.929,1052.7
602.46,1050.5
602.992,1054.65
603.524,1056.8
604.056,1054.4
604.587,1053.35
605.119,1047.4
605.65,1046.25
606.182,1048.3
606.713,1048.15
607.244,1051.1
607.775,1049.9
608.306,1053.7
608.837,1055.6
609.368,1053.65
609.899,1051.4
610.43,1053.35
610.961,1051.6
611.491,1050.4
612.022,1056.2
612.552,1059.7
613.083,1064.5
613.613,1068.05
614.143,1069.35
614.673,1068.15
615.203,1068.85
615.734,1066.3
616.263,1065.25
616.793,1075.35
617.323,1073.0
617.853,1073.95
618.383,1078.35
618.912,1075.6
619.442,1068.85
619.971,1066.6
620.501,1069.25
621.03,1068.6
621.56,1079.7
622.089,1071.75
622.618,1076.65
623.147,1078.25
623.676,1082.9
624.205,1084.85
624.734,1090.8
625.263,1092.9
625.792,1095.3
626.321,1090.35
626.849,1086.65
627.378,1090.4
627.906,1099.35
628.435,1109.85
628.963,1130.7
629.492,1130.95
630.02,1128.3
630.548,1127.0
631.077,1171.7
631.605,1273.5
632.133,1271.8
632.661,1203.15
633.189,1193.4
633.717,1179.6
634.245,1155.15
634.773,1150.35
635.3,1149.05
635.828,1201.25
636.356,1295.25
636.883,1299.4
637.411,1180.15
637.938,1154.0
638.466,1150.25
638.993,1150.2
639.521,1151.45
640.048,1153.75
640.575,1147.1
641.103,1158.6
641.63,1160.1
642.157,1166.55
642.684,1161.6
643.211,1154.65
643.738,1152.7
644.265,1156.75
644.792,1157.5
645.319,1157.9
645.845,1159.6
646.372,1153.1
646.899,1163.3
647.425,1168.6
647.952,1165.95
648.479,1163.65
649.005,1162.8
649.532,1165.75
650.058,1160.15
650.585,1159.95
651.111,1164.2
651.637,1167.45
652.164,1164.7
652.69,1168.8
653.216,1167.15
653.742,1171.4
654.268,1165.5
654.794,1166.15
655.32,1167.8
655.846,1165.5
656.372,1165.15
656.898,1168.45
657.424,1168.4
657.95,1163.65
658.476,1166.05
659.002,1162.35
659.528,1168.2
660.053,1170.2
660.579,1168.2
661.105,1160.0
661.63,1158.75
662.156,1155.95
662.681,1160.5
663.076,1159.1