File: spectra/VLFR_08-PLA_nobio_Raman_0a4cea11.csv
cm-1,Intensity
-123.878,1853.35
-105.821,1852.65
-87.8007,1854.4
-69.8161,1852.65
-51.8675,1854.1
-33.9547,1854.15
-16.0776,1880.9
1.76388,2999.8
19.5698,1855.4
37.3403,1854.75
55.0755,1980.4
72.7754,2315.15
90.4402,2300.85
108.07,2308.7
125.665,2310.4
143.225,2290.15
160.75,2307.3
178.241,2289.5
195.697,2304.75
213.119,2296.1
230.506,2285.75
247.859,2318.8
265.178,2299.4
282.463,2328.15
299.713,2344.0
316.93,2364.65
334.113,2347.0
351.263,2369.4
368.379,2397.5
385.461,2418.9
402.51,2436.75
419.526,2404.05
436.508,2422.15
453.458,2408.15
470.374,2402.75
487.257,2399.95
504.107,2442.8
520.925,2422.6
537.71,2416.05
554.462,2436.15
571.182,2435.25
587.87,2425.2
604.525,2449.85
621.148,2444.45
637.739,2468.8
654.297,2455.25
670.824,2482.75
687.319,2469.75
703.782,2475.0
720.213,2477.8
736.613,2495.9
752.981,2491.35
769.317,2512.05
785.623,2504.6
801.897,2489.65
818.139,2507.65
834.351,2516.15
850.532,2512.55
866.681,2664.0
882.8,2611.35
898.888,2559.25
914.945,2552.9
930.972,2549.85
946.968,2568.05
962.934,2569.25
978.869,2575.75
994.774,2592.65
1010.65,2556.6
1026.49,2627.45
1042.31,2688.0
1058.09,2632.9
1073.85,2673.6
1089.57,2783.75
1105.27,2731.0
1120.93,2763.0
1136.57,2715.85
1152.18,2660.05
1167.75,2654.2
1183.3,2651.35
1198.82,2620.1
1214.31,2629.4
1229.77,2646.15
1245.2,2667.25
1260.6,2649.35
1275.97,2644.9
1291.32,2715.3
1306.63,2722.3
1321.92,2733.6
1337.18,2725.75
1352.41,2741.45
1367.61,2731.25
1382.78,2753.9
1397.93,2709.3
1413.05,2711.4
1428.14,2719.2
1443.2,2748.05
1458.23,2774.25
1473.23,2711.8
1488.21,2688.95
1503.16,2666.7
1518.08,2662.2
1532.97,2702.05
1547.84,2670.9
1562.68,2684.0
1577.49,2694.8
1592.27,2672.75
1607.03,2681.95
1621.76,2700.85
1636.46,2669.75
1651.14,2698.1
1665.78,2685.45
1680.41,2718.3
1695.0,2687.85
1709.57,2685.75
1724.11,2675.5
1738.62,2680.25
1753.11,2712.4
1767.57,2772.2
1782.01,2735.05
1796.41,2700.15
1810.8,2691.8
1825.15,2667.05
1839.48,2663.55
1853.79,2688.25
1868.06,2677.4
1882.31,2674.6
1896.54,2678.6
1910.74,2676.65
1924.91,2696.5
1939.06,2686.65
1953.19,2684.75
1967.28,2685.2
1981.35,2686.4
1995.4,2687.9
2009.42,2709.0
2023.42,2705.4
2037.39,2706.55
2051.33,2689.85
2065.25,2711.05
2079.15,2692.2
2093.01,2693.85
2106.86,2703.75
2120.68,2731.0
2134.47,2687.05
2148.24,2714.55
2161.99,2695.2
2175.71,2716.55
2189.41,2698.35
2203.08,2693.95
2216.73,2708.8
2230.35,2698.85
2243.95,2716.3
2257.52,2709.85
2271.07,2703.6
2284.6,2696.25
2298.1,2706.4
2311.58,2698.15
2325.03,2698.15
2338.46,2690.95
2351.87,2727.3
2365.25,2693.3
2378.61,2668.8
2391.94,2694.75
2405.26,2694.25
2418.54,2705.9
2431.81,2708.3
2445.05,2681.4
2458.27,2678.55
2471.46,2684.8
2484.63,2681.15
2497.78,2656.35
2510.9,2674.3
2524.0,2669.8
2537.08,2668.55
2550.14,2658.4
2563.17,2667.9
2576.18,2661.95
2589.17,2665.35
2602.13,2667.35
2615.07,2660.2
2627.99,2668.75
2640.89,2648.7
2653.76,2644.0
2666.61,2660.4
2679.44,2664.6
2692.25,2687.55
2705.03,2662.2
2717.79,2669.2
2730.53,2672.5
2743.25,2669.4
2755.94,2652.55
2768.61,2661.5
2781.27,2621.4
2793.89,2662.2
2806.5,2644.0
2819.09,2666.4
2831.65,2659.25
2844.19,2659.85
2856.71,2689.7
2869.21,2750.5
2881.69,2860.95
2894.14,2867.8
2906.58,2870.3
2918.99,2804.15
2931.38,2884.6
2943.75,3292.85
2956.1,3080.15
2968.42,2836.45
2980.73,2743.95
2993.01,2798.25
3005.28,2820.2
3017.52,2746.85
3029.74,2632.0
3041.94,2588.1
3054.12,2567.1
3066.28,2542.4
3078.42,2549.1
3090.54,2556.65
3102.63,2524.0
3114.71,2533.25
3126.77,2524.6
3138.8,2505.7
3150.82,2511.05
3162.81,2515.95
3174.78,2504.85
3186.74,2494.8
3198.67,2511.1
3210.58,2507.4
3222.47,2481.55
3234.35,2494.6
3246.2,2485.05
3258.03,2474.9
3269.84,2504.45
3281.64,2500.55
3293.41,2490.3
3305.16,2472.8
3316.89,2460.0
3328.61,2460.15
3340.3,2442.0
3351.97,2455.95
3363.63,2446.85
3375.26,2435.4
3386.88,2427.45
3398.47,2416.35
3410.05,2394.55
3421.6,2410.9
3433.14,2414.35
3444.66,2401.75
3456.15,2403.5
3467.63,2380.0
3479.09,2386.55
3490.53,2358.75
3501.96,2383.3
3513.36,2355.45
3524.74,2352.5
3536.11,2358.65
3547.45,2326.8
3558.78,2306.7
3570.09,2320.75
3581.37,2313.5
3592.64,2330.1
3603.9,2308.75
3615.13,2300.75
3626.34,2294.25
3637.54,2289.7
3648.72,2258.85
3659.87,2278.55
3665.45,2261.2