File: spectra/VLFR_06-PET_nobio_Raman_fbbd0e56.csv
cm-1,Intensity
-123.878,1851.6
-105.821,1851.45
-87.8007,1852.0
-69.8161,1851.9
-51.8675,1852.95
-33.9547,1853.6
-16.0776,1870.0
1.76388,2866.7
19.5698,1854.8
37.3403,1855.55
55.0755,2040.35
72.7754,2540.1
90.4402,2530.3
108.07,2518.3
125.665,2504.5
143.225,2499.2
160.75,2502.6
178.241,2516.3
195.697,2548.2
213.119,2574.5
230.506,2597.95
247.859,2613.75
265.178,2630.75
282.463,2665.25
299.713,2671.9
316.93,2718.9
334.113,2708.7
351.263,2737.45
368.379,2780.5
385.461,2781.0
402.51,2809.35
419.526,2809.9
436.508,2879.25
453.458,2867.25
470.374,2904.1
487.257,2910.7
504.107,2964.15
520.925,2966.25
537.71,2989.15
554.462,3035.85
571.182,3078.3
587.87,3081.35
604.525,3119.4
621.148,3149.4
637.739,3206.5
654.297,3186.65
670.824,3229.6
687.319,3248.85
703.782,3276.2
720.213,3306.9
736.613,3346.4
752.981,3371.75
769.317,3431.15
785.623,3428.1
801.897,3452.9
818.139,3489.4
834.351,3528.65
850.532,3560.5
866.681,3570.1
882.8,3626.95
898.888,3625.55
914.945,3661.0
930.972,3682.1
946.968,3752.85
962.934,3800.6
978.869,3842.15
994.774,3865.9
1010.65,3885.4
1026.49,3926.0
1042.31,3969.75
1058.09,3984.4
1073.85,4019.0
1089.57,4110.2
1105.27,4128.7
1120.93,4242.95
1136.57,4148.75
1152.18,4238.15
1167.75,4266.7
1183.3,4291.2
1198.82,4293.4
1214.31,4379.95
1229.77,4419.5
1245.2,4431.0
1260.6,4454.35
1275.97,4479.2
1291.32,4679.1
1306.63,4637.55
1321.92,4605.3
1337.18,4591.35
1352.41,4641.25
1367.61,4623.9
1382.78,4625.75
1397.93,4661.45
1413.05,4679.3
1428.14,4761.75
1443.2,4734.45
1458.23,4754.65
1473.23,4747.2
1488.21,4803.25
1503.16,4698.1
1518.08,4761.2
1532.97,4833.45
1547.84,4708.2
1562.68,4863.85
1577.49,4813.4
1592.27,4860.0
1607.03,4989.0
1621.76,4928.0
1636.46,4850.3
1651.14,4826.05
1665.78,4904.65
1680.41,4826.0
1695.0,4867.75
1709.57,4808.7
1724.11,5012.55
1738.62,4946.95
1753.11,4814.6
1767.57,4799.4
1782.01,4863.3
1796.41,4891.45
1810.8,4814.6
1825.15,4756.0
1839.48,4850.05
1853.79,4798.6
1868.06,4815.3
1882.31,4870.5
1896.54,4849.8
1910.74,4827.9
1924.91,4869.25
1939.06,4757.35
1953.19,4788.8
1967.28,4884.25
1981.35,4749.9
1995.4,4851.8
2009.42,4884.15
2023.42,4904.45
2037.39,4895.1
2051.33,4810.4
2065.25,4889.3
2079.15,4901.65
2093.01,4912.0
2106.86,4831.85
2120.68,4974.05
2134.47,4955.75
2148.24,4966.55
2161.99,4971.45
2175.71,4962.85
2189.41,4968.45
2203.08,5011.65
2216.73,5028.05
2230.35,4953.8
2243.95,5013.45
2257.52,5024.25
2271.07,5059.2
2284.6,5032.75
2298.1,5076.35
2311.58,5105.9
2325.03,5113.05
2338.46,5074.4
2351.87,5115.2
2365.25,5141.6
2378.61,5131.75
2391.94,5169.4
2405.26,5240.7
2418.54,5172.15
2431.81,5258.85
2445.05,5260.8
2458.27,5237.8
2471.46,5264.0
2484.63,5186.8
2497.78,5270.95
2510.9,5321.0
2524.0,5292.75
2537.08,5301.95
2550.14,5344.6
2563.17,5313.55
2576.18,5239.2
2589.17,5258.85
2602.13,5336.95
2615.07,5322.55
2627.99,5369.15
2640.89,5325.35
2653.76,5387.8
2666.61,5393.75
2679.44,5428.45
2692.25,5511.35
2705.03,5399.75
2717.79,5428.55
2730.53,5461.65
2743.25,5418.6
2755.94,5506.6
2768.61,5446.8
2781.27,5367.85
2793.89,5456.0
2806.5,5443.0
2819.09,5395.2
2831.65,5473.85
2844.19,5438.25
2856.71,5453.1
2869.21,5427.8
2881.69,5389.45
2894.14,5455.4
2906.58,5520.2
2918.99,5479.1
2931.38,5463.4
2943.75,5360.75
2956.1,5453.75
2968.42,5453.75
2980.73,5508.05
2993.01,5311.35
3005.28,5517.4
3017.52,5321.75
3029.74,5409.35
3041.94,5424.3
3054.12,5345.25
3066.28,5318.25
3078.42,5363.25
3090.54,5378.65
3102.63,5238.0
3114.71,5227.25
3126.77,5186.95
3138.8,5322.3
3150.82,5185.0
3162.81,5166.15
3174.78,5207.25
3186.74,5117.7
3198.67,5094.4
3210.58,5072.3
3222.47,5128.3
3234.35,5058.0
3246.2,4991.05
3258.03,5096.05
3269.84,4987.5
3281.64,4987.95
3293.41,4887.0
3305.16,4910.55
3316.89,4870.05
3328.61,4864.5
3340.3,4774.9
3351.97,4784.25
3363.63,4898.2
3375.26,4806.9
3386.88,4669.6
3398.47,4743.65
3410.05,4621.75
3421.6,4716.1
3433.14,4596.5
3444.66,4610.0
3456.15,4594.95
3467.63,4534.65
3479.09,4503.15
3490.53,4502.15
3501.96,4442.25
3513.36,4383.1
3524.74,4449.0
3536.11,4428.95
3547.45,4275.45
3558.78,4294.05
3570.09,4244.65
3581.37,4321.85
3592.64,4171.65
3603.9,4250.05
3615.13,4130.8
3626.34,4086.5
3637.54,4053.5
3648.72,4101.25
3659.87,4049.45
3665.45,3987.6