File: spectra/VLFR_01-LDPE_nobio_Raman_7b3b49e6.csv
nm,Intensity
526.532,830.667
527.079,830.067
527.625,830.233
528.172,830.0
528.718,830.7
529.265,830.533
529.811,828.9
530.357,829.833
530.903,829.6
531.449,830.267
531.994,833.4
532.54,830.6
533.085,830.3
533.63,831.067
534.176,924.533
534.721,911.4
535.266,897.767
535.81,884.2
536.355,878.133
536.9,874.8
537.444,873.567
537.988,871.867
538.533,869.467
539.077,865.633
539.621,863.333
540.165,860.833
540.708,860.467
541.252,860.333
541.795,860.833
542.339,858.033
542.882,858.333
543.425,858.267
543.968,859.567
544.511,857.833
545.054,858.633
545.597,857.0
546.139,856.7
546.682,855.967
547.224,857.0
547.766,856.3
548.308,855.7
548.85,854.867
549.392,856.033
549.934,855.033
550.475,854.333
551.017,854.633
551.558,855.733
552.1,855.0
552.641,854.533
553.182,855.967
553.723,858.7
554.264,859.4
554.804,859.767
555.345,860.4
555.885,861.7
556.426,862.9
556.966,866.2
557.506,866.733
558.046,871.733
558.586,871.9
559.126,868.233
559.665,867.1
560.205,865.933
560.745,866.467
561.284,867.767
561.823,866.9
562.362,870.867
562.901,874.2
563.44,879.533
563.979,953.8
564.518,901.733
565.056,892.7
565.595,888.933
566.133,978.8
566.671,891.367
567.21,884.967
567.748,883.167
568.285,877.833
568.823,881.167
569.361,882.433
569.899,884.867
570.436,891.0
570.974,899.667
571.511,1041.03
572.048,935.267
572.585,908.8
573.122,901.233
573.659,906.0
574.196,915.833
574.733,911.967
575.269,921.667
575.806,971.267
576.342,1081.93
576.878,1025.37
577.414,989.4
577.951,963.067
578.486,967.867
579.022,977.967
579.558,986.433
580.094,997.0
580.629,1009.13
581.165,1016.7
581.7,1029.87
582.236,1047.27
582.771,1055.67
583.306,1064.67
583.841,1073.6
584.376,1082.6
584.911,1089.5
585.445,1097.3
585.98,1109.83
586.514,1120.77
587.049,1126.83
587.583,1141.4
588.117,1150.63
588.651,1158.73
589.186,1165.43
589.72,1184.17
590.253,1187.33
590.787,1200.07
591.321,1213.23
591.854,1217.57
592.388,1220.83
592.921,1228.17
593.455,1229.57
593.988,1235.33
594.521,1245.93
595.054,1252.13
595.587,1265.13
596.12,1269.03
596.653,1278.63
597.186,1289.87
597.718,1303.8
598.251,1313.37
598.783,1328.77
599.316,1334.4
599.848,1342.1
600.38,1343.17
600.912,1340.97
601.444,1335.4
601.976,1335.07
602.508,1320.8
603.04,1311.17
603.572,1291.5
604.103,1277.8
604.635,1264.17
605.167,1237.77
605.698,1217.57
606.229,1203.07
606.761,1182.93
607.292,1170.83
607.823,1162.13
608.354,1150.33
608.885,1141.8
609.416,1124.77
609.947,1119.0
610.477,1114.17
611.008,1107.17
611.539,1100.53
612.069,1092.93
612.6,1086.07
613.13,1084.9
613.66,1076.53
614.19,1075.27
614.721,1072.83
615.251,1063.43
615.781,1058.23
616.311,1053.57
616.841,1050.5
617.37,1052.17
617.9,1050.53
618.43,1044.03
618.96,1040.73
619.489,1039.63
620.019,1039.6
620.548,1041.0
621.077,1043.0
621.607,1052.9
622.136,1073.1
622.665,1067.63
623.194,1040.03
623.723,1035.07
624.252,1033.4
624.781,1034.43
625.31,1037.73
625.839,1045.73
626.368,1074.33
626.896,1351.9
627.425,1777.87
627.953,1489.63
628.482,1818.5
629.01,1584.2
629.539,1466.7
630.067,1361.23
630.596,1326.13
631.124,1170.4
631.652,1097.67
632.18,1068.67
632.708,1053.33
633.236,1050.37
633.764,1047.83
634.292,1044.1
634.82,1045.07
635.348,1046.37
635.876,1048.87
636.403,1049.07
636.931,1050.73
637.459,1047.13
637.986,1049.6
638.514,1051.27
639.041,1052.93
639.568,1056.03
640.096,1057.77
640.623,1057.6
641.15,1057.8
641.678,1061.03
642.205,1065.77
642.732,1068.43
643.259,1066.97
643.786,1065.87
644.313,1070.97
644.84,1067.6
645.367,1073.63
645.894,1069.63
646.421,1069.43
646.948,1069.6
647.474,1071.53
648.001,1071.73
648.528,1068.33
649.054,1071.47
649.581,1070.3
650.108,1069.83
650.634,1069.67
651.161,1070.3
651.687,1071.67
652.214,1071.03
652.74,1073.67
653.266,1071.27
653.793,1074.2
654.319,1069.43
654.845,1067.77
655.371,1066.67
655.897,1064.93
656.424,1059.37
656.95,1057.63
657.476,1052.6
658.002,1047.73
658.528,1046.53
659.054,1039.67
659.58,1033.13
660.106,1026.77
660.631,1018.93
661.157,1010.83
661.683,1004.2
662.209,995.333
662.735,991.8
663.129,986.767