File: spectra/VLFR_01-LDPE_bio_Raman_e008a9b8.csv
nm,Intensity
526.495,830.5
527.042,828.1
527.589,830.2
528.136,829.9
528.682,829.9
529.229,830.3
529.775,829.7
530.321,828.7
530.867,829.9
531.413,828.7
531.959,830.7
532.505,829.3
533.051,830.2
533.596,838.1
534.141,2088.2
534.687,2172.5
535.232,2144.8
535.777,2216.3
536.321,2208.3
536.866,2217.4
537.41,2236.9
537.955,2240.8
538.499,2253.1
539.043,2257.2
539.587,2295.2
540.131,2300.8
540.675,2294.1
541.219,2318.8
541.762,2327.3
542.305,2333.6
542.849,2358.2
543.392,2370.2
543.935,2395.1
544.478,2408.8
545.02,2421.6
545.563,2447.8
546.106,2459.1
546.648,2476.1
547.19,2473.5
547.732,2485.4
548.274,2498.5
548.816,2507.3
549.358,2541.4
549.9,2563.7
550.441,2552.6
550.983,2567.2
551.524,2589.7
552.065,2608.2
552.606,2628.5
553.147,2624.3
553.688,2641.7
554.229,2656.0
554.769,2667.4
555.31,2643.4
555.85,2668.2
556.391,2680.2
556.931,2688.9
557.471,2694.9
558.011,2721.1
558.551,2704.7
559.09,2720.0
559.63,2737.1
560.169,2768.4
560.709,2792.3
561.248,2802.2
561.787,2780.9
562.326,2826.9
562.865,2827.7
563.404,2870.4
563.943,2884.1
564.481,2906.0
565.02,2936.4
565.558,2942.4
566.096,2949.5
566.634,2962.0
567.172,2967.7
567.71,2988.7
568.248,3000.6
568.786,3067.4
569.324,3081.9
569.861,3114.3
570.399,3134.3
570.936,3136.3
571.473,3138.0
572.01,3168.2
572.547,3211.3
573.084,3239.8
573.621,3246.8
574.158,3264.6
574.694,3255.0
575.231,3229.8
575.767,3243.4
576.303,3266.7
576.84,3262.7
577.376,3270.0
577.912,3254.7
578.448,3282.7
578.984,3319.0
579.519,3329.7
580.055,3338.9
580.59,3343.2
581.126,3350.4
581.661,3330.4
582.196,3301.0
582.731,3265.5
583.267,3257.1
583.801,3236.0
584.336,3226.5
584.871,3204.1
585.406,3207.8
585.94,3210.0
586.475,3233.2
587.009,3227.6
587.543,3243.3
588.078,3235.9
588.612,3210.1
589.146,3197.9
589.68,3201.9
590.214,3201.7
590.747,3219.1
591.281,3196.4
591.815,3209.9
592.348,3208.6
592.881,3194.2
593.415,3174.7
593.948,3194.6
594.481,3198.9
595.014,3189.1
595.547,3211.8
596.08,3210.8
596.613,3214.7
597.146,3217.0
597.678,3203.6
598.211,3238.2
598.743,3237.4
599.276,3249.0
599.808,3235.4
600.34,3213.6
600.872,3197.9
601.404,3202.1
601.936,3201.2
602.468,3191.7
603.0,3208.5
603.532,3177.6
604.064,3151.8
604.595,3164.6
605.127,3133.7
605.658,3106.2
606.189,3082.7
606.721,3084.6
607.252,3073.5
607.783,3100.3
608.314,3117.9
608.845,3116.4
609.376,3122.5
609.907,3091.0
610.438,3074.8
610.968,3072.7
611.499,3078.4
612.029,3085.3
612.56,3108.6
613.09,3141.4
613.621,3139.2
614.151,3124.5
614.681,3127.8
615.211,3114.5
615.741,3091.3
616.271,3098.0
616.801,3076.8
617.331,3089.3
617.861,3098.5
618.39,3084.0
618.92,3062.3
619.45,3071.4
619.979,3052.5
620.509,3042.8
621.038,3032.1
621.567,3017.8
622.096,3027.5
622.626,3017.8
623.155,3032.9
623.684,3048.6
624.213,3056.5
624.742,3041.2
625.271,3020.3
625.799,2997.0
626.328,2985.2
626.857,2999.6
627.386,2966.5
627.914,2974.0
628.443,2956.3
628.971,2949.7
629.5,2942.7
630.028,2956.3
630.556,2950.6
631.084,2931.6
631.613,2923.3
632.141,2896.8
632.669,2883.5
633.197,2879.1
633.725,2873.2
634.253,2849.6
634.781,2837.2
635.308,2837.3
635.836,2836.0
636.364,2836.4
636.891,2820.3
637.419,2809.1
637.947,2792.1
638.474,2780.3
639.002,2773.6
639.529,2762.6
640.056,2760.5
640.584,2769.1
641.111,2754.8
641.638,2747.7
642.165,2731.6
642.692,2702.0
643.219,2684.3
643.746,2665.9
644.273,2634.8
644.8,2630.5
645.327,2627.3
645.854,2613.5
646.381,2611.6
646.908,2620.5
647.434,2600.7
647.961,2592.4
648.488,2568.4
649.014,2557.5
649.541,2566.8
650.067,2549.0
650.594,2533.4
651.12,2536.6
651.646,2531.3
652.173,2518.3
652.699,2510.9
653.225,2512.7
653.752,2493.9
654.278,2500.1
654.804,2498.6
655.33,2466.8
655.856,2473.3
656.382,2469.5
656.908,2480.8
657.434,2454.3
657.96,2451.2
658.486,2464.4
659.012,2455.1
659.538,2435.1
660.064,2442.6
660.589,2425.7
661.115,2413.9
661.641,2382.7
662.166,2367.2
662.692,2387.4
663.086,2376.7