File: spectra/VLFR_07-PET_nobio_Raman_d669b343.csv
nm,Intensity
791.377,12175.6
792.477,11023.9
793.576,10217.6
794.676,10163.1
795.775,10015.7
796.874,9936.72
797.973,9900.9
799.072,9806.2
800.171,9839.42
801.27,9727.3
802.368,9652.96
803.467,9315.64
804.565,9317.02
805.664,9227.2
806.762,9175.44
807.86,8937.98
808.958,8906.78
810.056,8857.12
811.153,8837.4
812.251,8827.46
813.349,8659.86
814.446,8616.52
815.543,8446.68
816.64,8459.32
817.737,8412.6
818.834,8328.0
819.931,8276.34
821.028,8240.94
822.125,8064.94
823.221,7979.5
824.317,7944.96
825.414,8183.46
826.51,7909.24
827.606,7722.06
828.702,7684.8
829.797,7640.66
830.893,7719.52
831.988,7513.5
833.084,7466.9
834.179,7382.38
835.274,7331.08
836.369,7348.18
837.464,7400.64
838.559,7363.7
839.654,7347.62
840.748,7455.44
841.843,7492.72
842.937,7245.6
844.031,7114.74
845.125,6898.28
846.219,6869.42
847.313,6820.62
848.407,6828.44
849.5,6727.02
850.593,6653.84
851.687,6728.18
852.78,6703.56
853.873,6655.88
854.966,6656.24
856.059,6429.54
857.151,6491.74
858.244,6594.86
859.336,6705.9
860.428,6674.62
861.52,6411.18
862.612,6327.66
863.704,6375.16
864.796,6368.64
865.888,6261.42
866.979,6223.14
868.07,6211.16
869.162,6133.96
870.253,6227.1
871.344,6348.42
872.434,6470.06
873.525,6512.16
874.615,6228.88
875.706,6081.68
876.796,6030.34
877.886,5921.44
878.976,5890.28
880.066,5901.24
881.156,5862.08
882.245,5788.58
883.335,5867.1
884.424,5757.22
885.513,5764.02
886.602,5671.0
887.691,5604.06
888.78,5614.78
889.868,5501.62
890.957,5585.88
892.045,5547.76
893.133,5433.82
894.221,5444.96
895.309,5340.18
896.397,5429.44
897.484,5661.26
898.571,6118.26
899.659,5614.18
900.746,5263.6
901.833,5209.48
902.92,5129.44
904.006,5144.48
905.093,5145.08
906.179,5270.32
907.266,5627.04
908.352,5574.24
909.438,5201.28
910.523,5012.98
911.609,4972.64
912.695,4915.2
913.78,4826.0
914.865,4837.96
915.95,4815.3
917.035,4803.0
918.12,4751.1
919.204,4724.06
920.289,4738.22
921.373,4674.58
922.457,4637.98
923.541,4632.82
924.625,4616.16
925.709,4564.08
926.792,4556.3
927.876,4560.58
928.959,4507.24
930.042,4487.58
931.125,4451.36
932.208,4436.16
933.29,4419.86
934.373,4397.86
935.455,4366.18
936.537,4364.9
937.619,4338.64
938.701,4317.64
939.782,4318.7
940.864,4279.72
941.945,4266.9
943.026,4257.88
944.107,4232.8
945.188,4220.88
946.269,4224.88
947.349,4189.1
948.43,4181.14
949.51,4173.86
950.59,4141.24
951.67,4132.04
952.75,4119.2
953.829,4109.32
954.909,4103.8
955.988,4086.1
957.067,4083.44
958.146,4057.94
959.224,4056.9
960.303,4063.38
961.381,4043.28
962.459,4021.84
963.537,4019.8
964.615,4007.58
965.693,4005.82
966.771,3997.24
967.848,3983.38
968.925,3971.82
970.002,3968.78
971.079,3961.52
972.156,3955.98
973.232,3942.78
974.309,3933.62
975.385,3929.7
976.461,3925.96
977.537,3918.68
978.612,3909.86
979.688,3910.68
980.763,3895.92
981.838,3901.02
982.913,3888.18
983.988,3883.12
985.063,3882.04
986.137,3880.66
987.211,3871.12
988.285,3867.76
989.359,3860.46
990.433,3852.48
991.506,3849.46
992.58,3844.36
993.653,3844.08
994.726,3836.96
995.799,3834.18
996.872,3828.48
997.944,3825.18
999.016,3824.88
1000.09,3818.38
1001.16,3815.08
1002.23,3812.0
1003.3,3807.74
1004.38,3800.38
1005.45,3805.6
1006.52,3800.62
1007.59,3797.0
1008.66,3795.0
1009.73,3790.6
1010.8,3786.22
1011.87,3786.24
1012.94,3785.4
1014.01,3783.82
1015.08,3783.16
1016.15,3781.3
1017.22,3781.46
1018.29,3776.14
1019.36,3775.68
1020.42,3777.4
1021.49,3780.28
1022.56,3783.5
1023.63,3781.78
1024.7,3773.16
1025.76,3768.98
1026.83,3765.72
1027.9,3763.38
1028.97,3760.6
1030.03,3755.88
1031.1,3755.12
1032.17,3754.52
1033.23,3756.38
1034.3,3760.8
1035.36,3761.82
1036.43,3758.38
1037.5,3753.64
1038.56,3749.74
1039.63,3747.56
1040.69,3746.88
1041.76,3744.72
1042.82,3744.1
1043.89,3744.3
1044.95,3743.74
1046.01,3741.86
1047.08,3742.26
1048.14,3740.32
1049.2,3740.48
1050.27,3740.12
1051.33,3739.26
1052.39,3739.2
1053.46,3740.5
1054.52,3738.82
1055.58,3739.48
1056.64,3738.8
1057.7,3738.36
1058.77,3737.14
1059.83,3738.02
1060.89,3737.7
1061.95,3737.46
1063.01,3737.48
1064.07,3736.3
1065.13,3737.38
1066.19,3736.64
1067.25,3734.86
1068.05,3735.08