File: spectra/VLFR_01-LDPE_bio_Raman_c5d3db52.csv
nm,Intensity
526.508,829.3
527.055,831.9
527.602,829.7
528.149,830.5
528.695,829.7
529.241,830.4
529.787,830.0
530.334,829.7
530.879,830.8
531.425,829.4
531.971,832.7
532.516,831.4
533.062,830.0
533.607,829.8
534.152,891.6
534.697,882.1
535.242,871.3
535.786,863.6
536.331,860.8
536.876,858.1
537.42,859.6
537.964,855.8
538.508,856.1
539.052,854.3
539.596,852.0
540.14,850.7
540.683,849.2
541.227,848.4
541.77,846.5
542.313,847.1
542.856,846.5
543.399,847.1
543.942,848.9
544.485,848.3
545.027,845.6
545.57,845.0
546.112,847.4
546.654,845.5
547.196,845.6
547.738,843.5
548.28,846.9
548.822,846.2
549.363,845.0
549.905,845.8
550.446,844.7
550.988,846.1
551.529,844.9
552.07,845.3
552.611,844.7
553.152,843.5
553.692,847.4
554.233,847.0
554.773,849.6
555.314,850.1
555.854,851.7
556.394,852.5
556.934,854.9
557.474,856.3
558.014,858.0
558.553,857.8
559.093,857.7
559.632,855.7
560.172,857.7
560.711,857.0
561.25,856.0
561.789,858.3
562.328,861.5
562.867,862.7
563.406,868.4
563.944,906.5
564.483,883.0
565.021,882.3
565.559,877.3
566.098,939.6
566.636,881.3
567.174,869.7
567.711,874.8
568.249,872.1
568.787,877.9
569.324,880.3
569.862,884.9
570.399,885.3
570.936,894.2
571.474,964.2
572.011,924.6
572.548,908.9
573.084,906.8
573.621,916.9
574.158,926.8
574.694,928.5
575.231,936.6
575.767,988.5
576.303,1033.5
576.84,1017.7
577.376,1006.8
577.912,1004.0
578.447,1018.0
578.983,1028.0
579.519,1047.2
580.054,1066.9
580.59,1083.6
581.125,1105.4
581.661,1115.1
582.196,1134.8
582.731,1150.8
583.266,1175.9
583.801,1183.1
584.336,1204.1
584.87,1214.7
585.405,1231.7
585.94,1250.6
586.474,1278.3
587.008,1294.7
587.543,1313.6
588.077,1344.7
588.611,1367.6
589.145,1394.4
589.679,1420.8
590.213,1459.3
590.747,1488.8
591.28,1500.7
591.814,1526.2
592.347,1544.5
592.881,1557.7
593.414,1564.2
593.947,1573.6
594.48,1594.4
595.014,1605.4
595.547,1628.9
596.079,1643.1
596.612,1665.1
597.145,1688.7
597.678,1705.7
598.21,1730.1
598.743,1762.1
599.275,1770.1
599.807,1782.3
600.34,1789.8
600.872,1785.6
601.404,1762.1
601.936,1760.5
602.468,1744.6
603.0,1720.5
603.532,1708.0
604.063,1673.5
604.595,1647.0
605.126,1604.1
605.658,1558.1
606.189,1537.8
606.721,1505.7
607.252,1486.9
607.783,1457.2
608.314,1437.2
608.845,1416.9
609.376,1402.8
609.907,1385.5
610.438,1366.3
610.968,1356.8
611.499,1353.0
612.03,1336.3
612.56,1333.7
613.091,1314.2
613.621,1308.1
614.151,1299.2
614.681,1283.8
615.212,1273.0
615.742,1266.2
616.272,1256.7
616.802,1243.9
617.332,1250.4
617.861,1233.8
618.391,1233.6
618.921,1220.1
619.45,1205.3
619.98,1217.8
620.509,1203.7
621.039,1203.2
621.568,1207.3
622.097,1213.9
622.627,1210.1
623.156,1195.4
623.685,1188.3
624.214,1190.5
624.743,1183.4
625.272,1185.9
625.801,1189.4
626.33,1205.0
626.858,1330.4
627.387,1661.6
627.916,1468.8
628.444,1581.3
628.973,1546.2
629.501,1483.4
630.029,1415.0
630.558,1389.9
631.086,1292.8
631.614,1235.6
632.142,1217.0
632.67,1203.3
633.198,1205.8
633.726,1209.7
634.254,1213.1
634.782,1215.7
635.31,1208.2
635.838,1219.0
636.365,1217.2
636.893,1227.3
637.421,1225.5
637.948,1230.2
638.476,1238.9
639.003,1249.0
639.531,1245.9
640.058,1249.2
640.585,1264.8
641.113,1266.1
641.64,1271.3
642.167,1292.6
642.694,1285.5
643.221,1295.3
643.748,1298.7
644.275,1305.8
644.802,1295.6
645.329,1306.9
645.856,1305.1
646.382,1306.2
646.909,1306.3
647.436,1311.7
647.962,1320.4
648.489,1309.3
649.016,1309.5
649.542,1304.1
650.069,1312.7
650.595,1317.3
651.121,1300.2
651.648,1311.1
652.174,1308.9
652.7,1303.7
653.227,1307.2
653.753,1318.5
654.279,1311.7
654.805,1309.6
655.331,1297.1
655.857,1289.9
656.383,1288.5
656.909,1276.8
657.435,1269.8
657.961,1255.4
658.487,1256.2
659.013,1242.6
659.538,1226.1
660.064,1222.2
660.59,1212.8
661.116,1188.9
661.641,1178.8
662.167,1170.5
662.692,1164.9
663.087,1141.6