File: spectra/VLFR_08-PLA_bio_Raman_237b0b6f.csv
nm,Intensity
528.65,1828.9
529.155,1829.3
529.66,1829.45
530.165,1826.8
530.67,1830.3
531.175,1832.25
531.68,1873.05
532.185,3462.75
532.69,1830.55
533.194,1830.9
533.699,1971.3
534.204,2379.35
534.708,2341.6
535.213,2325.2
535.717,2290.3
536.222,2294.25
536.726,2301.45
537.231,2292.8
537.735,2322.75
538.239,2288.75
538.743,2290.75
539.247,2293.4
539.751,2293.85
540.255,2318.9
540.759,2345.5
541.263,2354.75
541.767,2339.4
542.271,2347.9
542.775,2349.85
543.279,2386.0
543.782,2425.7
544.286,2415.7
544.789,2377.6
545.293,2393.95
545.796,2407.45
546.3,2406.65
546.803,2417.55
547.306,2414.55
547.81,2420.45
548.313,2437.75
548.816,2440.35
549.319,2465.95
549.822,2450.45
550.325,2453.35
550.828,2486.8
551.331,2501.3
551.834,2516.8
552.337,2530.8
552.839,2516.9
553.342,2523.2
553.844,2539.6
554.347,2542.3
554.849,2535.5
555.352,2538.65
555.854,2534.65
556.357,2528.7
556.859,2534.15
557.361,2608.8
557.863,2782.35
558.365,2714.25
558.867,2604.3
559.369,2598.85
559.871,2610.35
560.373,2603.7
560.875,2615.1
561.377,2600.25
561.878,2650.1
562.38,2734.15
562.881,2688.75
563.383,2721.35
563.884,2673.95
564.386,2677.1
564.887,2721.85
565.388,2719.75
565.89,2741.5
566.391,2767.2
566.892,2688.7
567.393,2677.25
567.894,2708.7
568.395,2695.9
568.896,2716.6
569.396,2696.85
569.897,2713.9
570.398,2703.45
570.898,2725.85
571.399,2758.65
571.9,2782.55
572.4,2775.05
572.9,2791.6
573.401,2773.2
573.901,2747.35
574.401,2770.6
574.901,2739.75
575.401,2755.1
575.901,2783.3
576.401,2871.65
576.901,2916.05
577.401,2793.75
577.901,2726.4
578.4,2739.6
578.9,2762.75
579.399,2759.5
579.899,2759.9
580.398,2774.05
580.898,2762.85
581.397,2775.75
581.896,2757.3
582.395,2790.55
582.895,2747.8
583.394,2773.5
583.893,2770.35
584.391,2775.2
584.89,2766.45
585.389,2766.55
585.888,2745.45
586.386,2811.25
586.885,2820.15
587.384,2919.5
587.882,2841.25
588.38,2795.8
588.879,2770.8
589.377,2747.15
589.875,2743.45
590.373,2769.8
590.871,2747.85
591.369,2780.25
591.867,2759.7
592.365,2745.9
592.863,2750.4
593.361,2767.4
593.858,2757.55
594.356,2735.35
594.853,2732.5
595.351,2750.1
595.848,2759.25
596.345,2754.85
596.843,2737.0
597.34,2739.05
597.837,2748.0
598.334,2760.15
598.831,2719.6
599.328,2764.45
599.824,2775.45
600.321,2750.15
600.818,2731.0
601.314,2738.55
601.811,2733.95
602.307,2736.65
602.804,2730.3
603.3,2737.65
603.796,2738.95
604.293,2736.65
604.789,2722.6
605.285,2723.15
605.781,2706.4
606.277,2721.6
606.772,2707.95
607.268,2712.75
607.764,2725.35
608.259,2728.15
608.755,2715.75
609.25,2717.0
609.746,2736.25
610.241,2703.15
610.736,2708.75
611.231,2725.8
611.727,2700.05
612.222,2720.9
612.716,2699.05
613.211,2703.15
613.706,2682.8
614.201,2711.85
614.695,2694.7
615.19,2674.3
615.684,2681.85
616.179,2678.75
616.673,2680.3
617.168,2669.9
617.662,2683.05
618.156,2672.3
618.65,2668.1
619.144,2683.2
619.638,2685.8
620.131,2651.35
620.625,2673.3
621.119,2663.3
621.612,2646.05
622.106,2640.75
622.599,2673.05
623.093,2674.65
623.586,2675.6
624.079,2634.1
624.572,2640.35
625.065,2622.95
625.558,2627.55
626.051,2610.9
626.544,2614.6
627.037,2607.85
627.529,2628.55
628.022,2678.8
628.514,2790.95
629.007,2756.0
629.499,2752.9
629.991,2746.25
630.483,2919.0
630.976,3727.5
631.468,3272.95
631.959,2898.6
632.451,2827.1
632.943,2938.3
633.435,2991.55
633.926,2817.55
634.418,2665.3
634.909,2582.15
635.401,2562.3
635.892,2542.15
636.383,2534.55
636.874,2552.6
637.365,2522.65
637.856,2524.85
638.347,2507.35
638.838,2523.15
639.329,2511.7
639.819,2496.7
640.31,2478.2
640.8,2472.35
641.291,2471.9
641.781,2473.7
642.271,2475.6
642.761,2470.0
643.251,2461.9
643.741,2474.15
644.231,2452.3
644.721,2452.5
645.211,2453.25
645.7,2440.1
646.19,2460.7
646.679,2435.25
647.169,2438.55
647.658,2426.7
648.147,2436.5
648.636,2431.6
649.125,2397.75
649.614,2432.75
650.103,2418.25
650.592,2395.45
651.08,2394.3
651.569,2387.7
652.058,2384.75
652.546,2369.2
653.034,2347.3
653.523,2353.0
654.011,2363.05
654.499,2330.95
654.987,2327.4
655.475,2321.35
655.963,2323.85
656.45,2294.65
656.938,2285.7
657.425,2293.35
657.913,2290.7
658.4,2263.8
658.888,2256.4
659.375,2237.65
659.862,2258.2
660.349,2229.55
660.836,2231.0
661.079,2227.1