File: spectra/VLFR_02-HDPE_nobio_Raman_fb66a698.csv
nm,Intensity
526.5,829.5
527.047,829.7
527.594,828.7
528.14,829.8
528.687,829.5
529.233,828.8
529.779,830.1
530.325,828.9
530.871,829.9
531.417,829.6
531.962,833.9
532.508,831.6
533.053,830.0
533.599,829.7
534.144,883.8
534.689,875.2
535.234,867.1
535.778,855.6
536.323,850.5
536.867,847.1
537.412,848.4
537.956,847.9
538.5,843.6
539.044,842.7
539.588,839.1
540.132,839.9
540.675,839.1
541.219,838.6
541.762,837.4
542.305,839.3
542.848,838.7
543.391,838.9
543.934,838.2
544.477,836.9
545.02,838.2
545.562,836.3
546.105,837.1
546.647,836.9
547.189,836.6
547.731,838.4
548.273,835.8
548.815,835.8
549.356,837.1
549.898,836.2
550.439,835.9
550.981,836.8
551.522,837.0
552.063,837.5
552.604,838.2
553.145,838.9
553.686,840.8
554.226,838.7
554.767,838.1
555.307,841.9
555.848,839.7
556.388,840.5
556.928,844.3
557.468,844.4
558.008,848.1
558.547,848.6
559.087,846.7
559.626,844.5
560.166,843.7
560.705,842.7
561.244,842.7
561.783,844.7
562.322,846.8
562.861,846.5
563.4,850.3
563.939,931.7
564.477,870.1
565.015,865.2
565.554,860.5
566.092,995.5
566.63,861.7
567.168,850.6
567.706,849.6
568.244,845.7
568.781,845.0
569.319,847.6
569.857,846.9
570.394,847.5
570.931,855.0
571.468,979.9
572.005,874.7
572.542,852.1
573.079,846.6
573.616,847.1
574.153,855.5
574.689,845.9
575.226,854.6
575.762,937.7
576.298,952.6
576.834,913.5
577.371,881.7
577.907,857.1
578.442,848.6
578.978,847.8
579.514,846.6
580.049,848.8
580.585,849.4
581.12,847.9
581.656,846.6
582.191,848.8
582.726,849.5
583.261,848.3
583.796,849.4
584.331,849.1
584.865,851.7
585.4,851.7
585.935,853.0
586.469,855.4
587.004,854.6
587.538,859.0
588.072,862.7
588.606,861.6
589.14,866.5
589.674,866.3
590.208,866.1
590.742,870.8
591.275,868.1
591.809,870.9
592.342,871.1
592.876,870.7
593.409,871.4
593.942,872.8
594.476,867.9
595.009,871.4
595.542,870.9
596.075,872.2
596.607,870.7
597.14,871.7
597.673,869.9
598.205,872.3
598.738,873.1
599.27,874.5
599.803,874.7
600.335,872.8
600.867,874.8
601.399,874.3
601.931,876.8
602.463,876.6
602.995,875.2
603.527,875.2
604.058,877.1
604.59,876.8
605.122,875.4
605.653,870.6
606.184,871.6
606.716,872.9
607.247,871.9
607.778,875.9
608.309,871.6
608.84,875.7
609.371,872.4
609.902,873.8
610.433,873.5
610.964,878.9
611.494,876.5
612.025,872.2
612.556,872.2
613.086,873.0
613.616,873.5
614.147,869.2
614.677,870.5
615.207,870.2
615.737,869.9
616.267,868.9
616.797,871.4
617.327,874.9
617.857,875.6
618.387,875.6
618.917,875.5
619.446,872.5
619.976,875.0
620.505,874.1
621.035,875.0
621.564,884.9
622.093,899.7
622.623,895.2
623.152,879.7
623.681,875.3
624.21,871.4
624.739,872.5
625.268,872.9
625.797,879.4
626.326,902.1
626.855,1065.9
627.383,1425.2
627.912,1180.4
628.441,1302.8
628.969,1252.3
629.498,1160.8
630.026,1072.3
630.554,1057.5
631.083,953.4
631.611,893.2
632.139,878.8
632.667,871.8
633.195,867.3
633.724,865.4
634.252,865.0
634.779,861.4
635.307,862.4
635.835,861.3
636.363,863.1
636.891,861.9
637.418,859.7
637.946,859.5
638.474,858.8
639.001,857.5
639.529,859.8
640.056,861.0
640.583,859.6
641.111,860.6
641.638,861.4
642.165,859.5
642.692,860.7
643.22,860.7
643.747,861.3
644.274,861.4
644.801,860.6
645.328,859.1
645.854,861.2
646.381,859.6
646.908,859.7
647.435,859.9
647.962,859.3
648.488,859.6
649.015,858.4
649.542,855.0
650.068,857.2
650.595,858.8
651.121,854.3
651.648,855.7
652.174,854.6
652.7,853.7
653.227,854.7
653.753,853.6
654.279,855.0
654.805,854.3
655.331,854.4
655.858,852.6
656.384,853.1
656.91,854.2
657.436,855.1
657.962,853.0
658.488,854.5
659.013,855.2
659.539,855.3
660.065,854.2
660.591,854.8
661.117,851.1
661.642,851.8
662.168,851.8
662.694,852.4
663.088,850.9