File: spectra/VLFR_08-PLA_nobio_Raman_7d91df61.csv
nm,Intensity
526.532,833.35
527.079,833.9
527.625,833.7
528.172,832.0
528.718,833.65
529.265,833.85
529.811,834.25
530.357,833.05
530.903,833.45
531.449,833.45
531.994,845.05
532.54,833.2
533.085,833.05
533.63,834.45
534.176,909.5
534.721,902.35
535.266,893.75
535.81,890.15
536.355,888.0
536.9,891.1
537.444,887.25
537.988,889.95
538.533,886.8
539.077,887.55
539.621,888.1
540.165,886.7
540.708,891.3
541.252,892.0
541.795,889.05
542.339,890.2
542.882,891.5
543.425,899.6
543.968,903.35
544.511,893.15
545.054,896.0
545.597,894.3
546.139,895.65
546.682,895.2
547.224,899.3
547.766,896.45
548.308,897.75
548.85,899.5
549.392,899.2
549.934,899.8
550.475,901.05
551.017,904.0
551.558,903.7
552.1,905.0
552.641,904.15
553.182,905.05
553.723,907.6
554.264,908.1
554.804,906.5
555.345,904.15
555.885,904.2
556.426,904.7
556.966,904.8
557.506,909.5
558.046,946.6
558.586,914.7
559.126,912.25
559.665,910.85
560.205,910.9
560.745,910.45
561.284,910.0
561.823,911.2
562.362,912.3
562.901,917.1
563.44,925.85
563.979,919.9
564.518,916.2
565.056,923.85
565.595,925.55
566.133,931.55
566.671,924.2
567.21,914.5
567.748,923.35
568.285,919.85
568.823,921.95
569.361,922.3
569.899,921.45
570.436,925.7
570.974,924.05
571.511,926.95
572.048,925.05
572.585,926.65
573.122,928.3
573.659,931.15
574.196,932.8
574.733,934.9
575.269,927.4
575.806,927.95
576.342,930.75
576.878,950.55
577.414,933.6
577.951,929.1
578.486,930.8
579.022,932.75
579.558,931.75
580.094,930.8
580.629,931.0
581.165,933.55
581.7,932.6
582.236,930.35
582.771,931.1
583.306,933.4
583.841,933.05
584.376,933.85
584.911,931.2
585.445,934.8
585.98,935.45
586.514,940.85
587.049,946.9
587.583,957.05
588.117,941.1
588.651,936.05
589.186,933.4
589.72,936.85
590.253,935.55
590.787,938.75
591.321,935.7
591.854,935.75
592.388,932.8
592.921,933.7
593.455,933.55
593.988,936.65
594.521,935.0
595.054,933.85
595.587,936.65
596.12,934.9
596.653,935.45
597.186,937.0
597.718,938.75
598.251,939.3
598.783,937.75
599.316,937.65
599.848,941.1
600.38,935.3
600.912,935.65
601.444,936.55
601.976,935.4
602.508,937.0
603.04,937.95
603.572,936.5
604.103,938.4
604.635,935.95
605.167,933.9
605.698,934.8
606.229,930.9
606.761,934.5
607.292,935.95
607.823,933.1
608.354,935.75
608.885,936.85
609.416,936.5
609.947,935.95
610.477,935.65
611.008,934.4
611.539,936.6
612.069,935.55
612.6,939.5
613.13,939.3
613.66,939.95
614.19,937.45
614.721,939.55
615.251,939.45
615.781,938.65
616.311,939.65
616.841,939.85
617.37,941.4
617.9,940.45
618.43,941.45
618.96,936.6
619.489,941.5
620.019,938.3
620.548,941.05
621.077,941.0
621.607,940.6
622.136,941.15
622.665,943.3
623.194,945.15
623.723,945.95
624.252,947.65
624.781,943.55
625.31,941.65
625.839,941.15
626.368,943.4
626.896,942.9
627.425,944.4
627.953,949.0
628.482,966.25
629.01,957.2
629.539,961.75
630.067,961.9
630.596,981.8
631.124,1085.9
631.652,1009.75
632.18,975.6
632.708,969.75
633.236,998.2
633.764,985.95
634.292,956.15
634.82,944.15
635.348,942.35
635.876,939.75
636.403,937.7
636.931,939.2
637.459,932.8
637.986,936.15
638.514,933.95
639.041,930.05
639.568,932.45
640.096,928.55
640.623,932.05
641.15,929.75
641.678,927.9
642.205,931.0
642.732,926.55
643.259,927.8
643.786,925.95
644.313,923.8
644.84,921.45
645.367,919.85
645.894,920.9
646.421,921.75
646.948,919.35
647.474,920.5
648.001,918.25
648.528,917.5
649.054,916.75
649.581,917.3
650.108,917.55
650.634,913.75
651.161,914.3
651.687,914.85
652.214,912.1
652.74,912.95
653.266,911.9
653.793,913.8
654.319,911.1
654.845,911.2
655.371,909.05
655.897,907.95
656.424,909.0
656.95,906.45
657.476,908.15
658.002,906.75
658.528,905.85
659.054,905.25
659.58,905.9
660.106,904.05
660.631,904.6
661.157,903.05
661.683,905.25
662.209,903.1
662.735,902.05
663.129,903.2