File: spectra/VLFR_07-PET_nobio_Raman_629813d9.csv
nm,Intensity
791.75,15803.0
792.846,14809.7
793.942,14322.7
795.037,14106.8
796.133,13787.4
797.228,13779.0
798.324,13683.4
799.419,13777.4
800.514,13594.1
801.61,13482.0
802.705,13234.9
803.8,13010.3
804.894,12790.2
805.989,12725.8
807.084,12654.4
808.178,12553.8
809.273,12319.0
810.367,12221.7
811.461,12134.0
812.556,12047.9
813.65,12107.6
814.744,11666.4
815.837,11848.5
816.931,11597.6
818.025,11552.3
819.118,11432.5
820.212,11463.7
821.305,11265.9
822.398,11106.3
823.491,11026.7
824.585,10883.7
825.677,11165.3
826.77,10641.8
827.863,10370.2
828.956,10649.7
830.048,10363.8
831.14,10336.3
832.233,10156.2
833.325,10064.7
834.417,9753.3
835.509,9727.45
836.601,9862.05
837.692,9812.5
838.784,9658.35
839.876,9606.1
840.967,10049.8
842.058,9775.35
843.149,9393.25
844.24,9176.7
845.331,9028.3
846.422,9009.9
847.513,8854.5
848.604,8745.05
849.694,8739.2
850.784,8651.0
851.875,8747.6
852.965,8667.9
854.055,8641.8
855.145,8442.45
856.235,8361.25
857.324,8423.4
858.414,8478.5
859.503,8690.0
860.593,8366.0
861.682,8222.1
862.771,8144.2
863.86,8174.9
864.949,8151.35
866.038,7908.0
867.126,7889.95
868.215,7927.35
869.303,7802.6
870.391,8025.75
871.479,8171.3
872.567,8338.2
873.655,8058.45
874.743,7790.1
875.831,7727.8
876.918,7565.95
878.006,7512.1
879.093,7448.0
880.18,7331.4
881.267,7332.0
882.354,7297.15
883.441,7295.45
884.527,7255.8
885.614,7203.55
886.7,7058.0
887.786,6982.6
888.872,6803.7
889.958,6836.2
891.044,6882.15
892.13,6811.1
893.216,6692.2
894.301,6649.3
895.386,6448.25
896.472,6646.6
897.557,7208.15
898.642,7335.6
899.726,6527.6
900.811,6251.05
901.896,6231.9
902.98,6128.05
904.064,6133.0
905.148,6135.6
906.232,6468.95
907.316,6805.7
908.4,6407.45
909.484,6034.95
910.567,5840.25
911.65,5732.65
912.734,5733.9
913.817,5669.4
914.9,5585.8
915.982,5550.1
917.065,5509.75
918.147,5461.5
919.23,5405.7
920.312,5407.05
921.394,5310.1
922.476,5256.9
923.558,5224.1
924.639,5180.8
925.721,5169.35
926.802,5125.9
927.884,5023.5
928.965,5066.15
930.046,4964.5
931.126,4975.8
932.207,4924.5
933.288,4889.4
934.368,4831.95
935.448,4791.35
936.528,4796.45
937.608,4746.35
938.688,4690.15
939.767,4668.8
940.847,4668.8
941.926,4646.95
943.005,4605.45
944.084,4538.0
945.163,4540.3
946.242,4532.4
947.321,4491.55
948.399,4484.15
949.477,4455.6
950.556,4416.55
951.634,4396.35
952.711,4379.0
953.789,4338.8
954.867,4336.8
955.944,4306.9
957.021,4324.5
958.098,4291.05
959.175,4271.85
960.252,4254.6
961.328,4230.2
962.405,4214.0
963.481,4194.25
964.557,4184.4
965.633,4176.3
966.709,4157.6
967.785,4143.7
968.86,4134.95
969.936,4101.15
971.011,4097.8
972.086,4084.15
973.161,4075.8
974.235,4056.6
975.31,4051.95
976.384,4040.4
977.459,4026.15
978.533,4016.6
979.607,4009.0
980.68,3993.15
981.754,3982.65
982.827,3974.15
983.901,3972.0
984.974,3963.05
986.047,3955.1
987.119,3938.4
988.192,3928.8
989.264,3918.85
990.337,3915.6
991.409,3911.15
992.481,3901.0
993.553,3890.6
994.624,3879.75
995.696,3876.85
996.767,3874.05
997.838,3865.55
998.909,3857.25
999.98,3854.0
1001.05,3849.75
1002.12,3835.9
1003.19,3840.15
1004.26,3827.15
1005.33,3826.9
1006.4,3820.55
1007.47,3818.45
1008.54,3808.35
1009.61,3806.6
1010.68,3799.95
1011.75,3797.85
1012.82,3798.35
1013.88,3791.45
1014.95,3790.35
1016.02,3790.35
1017.09,3783.3
1018.16,3777.75
1019.22,3775.95
1020.29,3779.55
1021.36,3783.45
1022.43,3786.4
1023.49,3776.75
1024.56,3772.25
1025.63,3766.8
1026.69,3756.5
1027.76,3754.7
1028.83,3749.65
1029.89,3744.7
1030.96,3748.2
1032.02,3744.85
1033.09,3745.8
1034.15,3751.45
1035.22,3748.75
1036.28,3742.4
1037.35,3737.3
1038.41,3733.5
1039.48,3729.1
1040.54,3729.75
1041.6,3727.95
1042.67,3728.35
1043.73,3722.75
1044.79,3722.4
1045.86,3721.85
1046.92,3722.05
1047.98,3719.65
1049.05,3719.75
1050.11,3720.5
1051.17,3718.5
1052.23,3720.4
1053.29,3718.25
1054.36,3717.4
1055.42,3719.5
1056.48,3717.65
1057.54,3715.05
1058.6,3715.35
1059.66,3715.75
1060.72,3715.65
1061.78,3716.6
1062.84,3715.35
1063.9,3715.9
1064.96,3713.9
1066.02,3714.2
1067.08,3712.7
1067.88,3712.25