File: spectra/VLFR_08-PLA_nobio_Raman_32904ceb.csv
nm,Intensity
526.5,829.0
527.047,827.9
527.594,829.5
528.14,829.7
528.687,828.2
529.233,828.6
529.779,829.4
530.325,830.1
530.871,829.9
531.417,827.8
531.962,834.1
532.508,830.4
533.053,829.1
533.599,830.6
534.144,1007.7
534.689,984.5
535.234,963.2
535.778,955.6
536.323,948.2
536.867,954.0
537.412,951.8
537.956,944.2
538.5,943.3
539.044,943.9
539.588,940.1
540.132,941.1
540.675,950.9
541.219,957.9
541.762,954.0
542.305,950.8
542.848,953.4
543.391,965.9
543.934,971.8
544.477,961.4
545.02,956.3
545.562,960.5
546.105,958.0
546.647,960.4
547.189,963.0
547.731,957.0
548.273,964.3
548.815,965.6
549.356,969.3
549.898,969.4
550.439,972.6
550.981,976.3
551.522,979.8
552.063,976.6
552.604,982.8
553.145,980.4
553.686,980.9
554.226,985.3
554.767,977.8
555.307,978.5
555.848,984.2
556.388,981.7
556.928,981.7
557.468,993.5
558.008,1062.7
558.547,1000.0
559.087,995.5
559.626,992.8
560.166,987.6
560.705,995.2
561.244,991.4
561.783,993.1
562.322,993.8
562.861,1001.4
563.4,1022.4
563.939,1014.6
564.477,1002.9
565.015,1021.1
565.554,1020.0
566.092,1036.5
566.63,1019.9
567.168,1004.1
567.706,1004.7
568.244,1008.4
568.781,1013.2
569.319,1018.8
569.857,1016.1
570.394,1015.3
570.931,1019.6
571.468,1026.5
572.005,1030.9
572.542,1025.8
573.079,1030.1
573.616,1037.4
574.153,1028.2
574.689,1037.8
575.226,1028.9
575.762,1031.6
576.298,1039.2
576.834,1073.9
577.371,1050.0
577.907,1030.6
578.442,1030.1
578.978,1030.2
579.514,1037.3
580.049,1029.8
580.585,1030.5
581.12,1033.2
581.656,1029.9
582.191,1026.1
582.726,1037.3
583.261,1034.9
583.796,1037.0
584.331,1035.7
584.865,1036.2
585.4,1038.0
585.935,1040.6
586.469,1049.4
587.004,1067.8
587.538,1084.3
588.072,1051.4
588.606,1040.2
589.14,1038.4
589.674,1031.0
590.208,1043.5
590.742,1035.9
591.275,1039.6
591.809,1038.3
592.342,1032.4
592.876,1037.1
593.409,1039.1
593.942,1040.9
594.476,1034.2
595.009,1034.8
595.542,1039.1
596.075,1040.8
596.607,1044.8
597.14,1037.6
597.673,1038.9
598.205,1042.5
598.738,1039.8
599.27,1045.1
599.803,1036.1
600.335,1041.4
600.867,1035.3
601.399,1037.5
601.931,1037.9
602.463,1036.2
602.995,1039.9
603.527,1032.5
604.058,1038.6
604.59,1032.4
605.122,1035.7
605.653,1033.1
606.184,1030.7
606.716,1020.1
607.247,1033.3
607.778,1036.5
608.309,1030.4
608.84,1031.9
609.371,1030.2
609.902,1028.3
610.433,1031.1
610.964,1030.2
611.494,1028.4
612.025,1027.7
612.556,1032.2
613.086,1037.6
613.616,1033.2
614.147,1034.6
614.677,1032.1
615.207,1030.2
615.737,1037.0
616.267,1028.9
616.797,1027.9
617.327,1028.4
617.857,1029.7
618.387,1029.3
618.917,1032.6
619.446,1024.6
619.976,1029.6
620.505,1025.4
621.035,1022.6
621.564,1025.6
622.093,1027.1
622.623,1029.5
623.152,1035.4
623.681,1028.8
624.21,1033.7
624.739,1029.6
625.268,1031.0
625.797,1025.5
626.326,1031.2
626.855,1020.8
627.383,1026.5
627.912,1029.9
628.441,1066.3
628.969,1054.2
629.498,1055.1
630.026,1059.0
630.554,1089.4
631.083,1301.3
631.611,1155.4
632.139,1089.1
632.667,1074.3
633.195,1132.7
633.724,1106.2
634.252,1051.1
634.779,1024.1
635.307,1012.2
635.835,1012.3
636.363,1012.0
636.891,1006.4
637.418,1011.4
637.946,1007.2
638.474,1007.2
639.001,1014.2
639.529,1005.7
640.056,1004.5
640.583,999.6
641.111,1004.6
641.638,1004.7
642.165,1005.5
642.692,997.8
643.22,992.1
643.747,993.2
644.274,989.8
644.801,991.4
645.328,991.0
645.854,992.2
646.381,986.3
646.908,984.4
647.435,984.8
647.962,983.1
648.488,986.8
649.015,987.4
649.542,985.3
650.068,980.2
650.595,976.2
651.121,981.6
651.648,975.5
652.174,979.3
652.7,976.5
653.227,976.0
653.753,977.2
654.279,975.0
654.805,971.7
655.331,976.3
655.858,976.0
656.384,970.9
656.91,973.7
657.436,969.6
657.962,974.5
658.488,968.9
659.013,972.6
659.539,966.8
660.065,968.4
660.591,970.5
661.117,968.0
661.642,961.5
662.168,964.8
662.694,960.9
663.088,964.0