File: spectra/VLFR_01-LDPE_nobio_Raman_fd584731.csv
nm,Intensity
526.5,830.0
527.047,828.7
527.594,829.1
528.14,829.0
528.687,830.5
529.233,827.8
529.779,828.3
530.325,828.7
530.871,828.7
531.417,829.4
531.962,834.5
532.508,829.6
533.053,828.8
533.599,830.4
534.144,905.8
534.689,889.7
535.234,877.4
535.778,867.2
536.323,861.7
536.867,858.6
537.412,858.9
537.956,859.5
538.5,856.6
539.044,853.5
539.588,851.4
540.132,851.9
540.675,846.9
541.219,845.1
541.762,847.9
542.305,846.7
542.848,846.7
543.391,845.9
543.934,846.1
544.477,844.2
545.02,842.9
545.562,843.7
546.105,845.3
546.647,843.9
547.189,843.6
547.731,846.2
548.273,844.7
548.815,842.2
549.356,842.1
549.898,842.6
550.439,843.0
550.981,843.0
551.522,841.8
552.063,842.8
552.604,843.1
553.145,845.2
553.686,846.5
554.226,848.6
554.767,847.2
555.307,847.7
555.848,847.8
556.388,852.8
556.928,853.1
557.468,856.8
558.008,860.1
558.547,859.3
559.087,858.3
559.626,858.3
560.166,855.5
560.705,855.7
561.244,854.8
561.783,856.6
562.322,861.6
562.861,864.3
563.4,870.6
563.939,930.5
564.477,885.9
565.015,886.7
565.554,879.4
566.092,962.7
566.63,887.5
567.168,878.6
567.706,879.6
568.244,874.7
568.781,877.4
569.319,879.8
569.857,883.8
570.394,889.8
570.931,903.2
571.468,1006.5
572.005,939.9
572.542,915.7
573.079,912.9
573.616,920.9
574.153,932.3
574.689,935.3
575.226,947.4
575.762,1011.6
576.298,1099.2
576.834,1076.0
577.371,1046.6
577.907,1027.7
578.442,1047.5
578.978,1062.2
579.514,1087.7
580.049,1108.3
580.585,1124.7
581.12,1147.6
581.656,1169.8
582.191,1187.5
582.726,1215.6
583.261,1230.5
583.796,1241.6
584.331,1268.8
584.865,1287.8
585.4,1290.6
585.935,1308.3
586.469,1323.4
587.004,1352.5
587.538,1354.5
588.072,1370.0
588.606,1378.0
589.14,1394.9
589.674,1402.4
590.208,1429.6
590.742,1441.7
591.275,1443.7
591.809,1448.0
592.342,1452.9
592.876,1452.0
593.409,1460.3
593.942,1456.3
594.476,1465.6
595.009,1476.9
595.542,1484.4
596.075,1482.1
596.607,1486.0
597.14,1501.0
597.673,1513.9
598.205,1529.8
598.738,1543.3
599.27,1555.9
599.803,1545.7
600.335,1551.1
600.867,1536.6
601.399,1544.6
601.931,1534.9
602.463,1517.7
602.995,1507.8
603.527,1492.5
604.058,1474.8
604.59,1444.0
605.122,1416.0
605.653,1382.2
606.184,1360.5
606.716,1339.2
607.247,1322.9
607.778,1314.1
608.309,1292.3
608.84,1277.4
609.371,1264.3
609.902,1245.6
610.433,1232.5
610.964,1227.4
611.494,1220.5
612.025,1206.1
612.556,1193.0
613.086,1195.1
613.616,1196.1
614.147,1180.4
614.677,1168.2
615.207,1161.2
615.737,1161.3
616.267,1147.0
616.797,1138.3
617.327,1140.7
617.857,1132.4
618.387,1123.5
618.917,1127.1
619.446,1118.0
619.976,1118.9
620.505,1110.1
621.035,1118.6
621.564,1127.7
622.093,1142.6
622.623,1142.7
623.152,1126.4
623.681,1114.4
624.21,1114.3
624.739,1111.8
625.268,1120.1
625.797,1130.0
626.326,1148.4
626.855,1344.3
627.383,1803.3
627.912,1532.9
628.441,1737.4
628.969,1668.0
629.498,1547.5
630.026,1430.6
630.554,1420.5
631.083,1278.3
631.611,1205.1
632.139,1174.9
632.667,1166.3
633.195,1157.7
633.724,1165.9
634.252,1159.9
634.779,1162.2
635.307,1165.5
635.835,1161.7
636.363,1162.3
636.891,1168.7
637.418,1162.2
637.946,1160.4
638.474,1167.0
639.001,1165.4
639.529,1169.6
640.056,1168.8
640.583,1174.3
641.111,1175.0
641.638,1175.0
642.165,1183.3
642.692,1182.0
643.22,1174.4
643.747,1171.4
644.274,1175.1
644.801,1174.1
645.328,1175.3
645.854,1173.9
646.381,1171.4
646.908,1168.7
647.435,1170.8
647.962,1165.7
648.488,1162.1
649.015,1170.5
649.542,1162.6
650.068,1158.7
650.595,1162.8
651.121,1159.3
651.648,1166.7
652.174,1161.9
652.7,1167.1
653.227,1160.0
653.753,1162.0
654.279,1163.6
654.805,1154.5
655.331,1151.2
655.858,1150.3
656.384,1149.0
656.91,1146.2
657.436,1142.8
657.962,1124.8
658.488,1132.3
659.013,1120.2
659.539,1110.2
660.065,1101.2
660.591,1090.2
661.117,1080.0
661.642,1069.0
662.168,1061.0
662.694,1053.0
663.088,1039.8