File: spectra/VLFR_08-PLA_bio_Raman_e6e25c18.csv
nm,Intensity
528.626,1862.1
529.132,1861.2
529.637,1861.9
530.143,1861.3
530.648,1860.7
531.153,1864.2
531.658,1915.5
532.164,4637.2
532.669,1864.8
533.174,1866.3
533.679,2134.0
534.184,2894.9
534.689,2690.9
535.194,2577.8
535.699,2461.1
536.203,2414.9
536.708,2460.0
537.213,2384.7
537.717,2414.9
538.222,2351.2
538.726,2323.5
539.231,2308.4
539.735,2268.9
540.239,2311.2
540.744,2399.2
541.248,2396.4
541.752,2315.3
542.256,2317.1
542.76,2327.6
543.264,2411.2
543.768,2540.0
544.272,2417.5
544.776,2339.3
545.28,2296.6
545.784,2296.2
546.287,2304.9
546.791,2313.5
547.294,2333.2
547.798,2309.8
548.301,2315.7
548.805,2338.9
549.308,2341.3
549.811,2335.5
550.315,2344.2
550.818,2382.6
551.321,2394.0
551.824,2405.5
552.327,2421.6
552.83,2429.7
553.333,2424.6
553.835,2462.7
554.338,2421.5
554.841,2398.0
555.343,2380.1
555.846,2374.3
556.349,2385.5
556.851,2409.3
557.353,2512.5
557.856,3100.2
558.358,2881.9
558.86,2526.4
559.362,2494.3
559.864,2445.7
560.366,2442.4
560.868,2453.4
561.37,2412.0
561.872,2432.4
562.374,2429.7
562.876,2547.6
563.377,2729.6
563.879,2591.1
564.38,2515.5
564.882,2627.8
565.383,2640.3
565.885,2795.5
566.386,2727.7
566.887,2504.1
567.388,2507.7
567.889,2559.7
568.391,2536.7
568.892,2518.4
569.392,2495.3
569.893,2507.5
570.394,2497.7
570.895,2526.1
571.395,2625.7
571.896,2682.9
572.397,2620.3
572.897,2607.4
573.397,2627.0
573.898,2620.0
574.398,2684.6
574.898,2594.9
575.398,2543.2
575.898,2573.4
576.398,2839.4
576.898,3060.1
577.398,2668.3
577.898,2538.8
578.398,2541.7
578.897,2531.0
579.397,2526.8
579.896,2552.8
580.396,2531.7
580.895,2531.1
581.395,2539.5
581.894,2555.5
582.393,2529.7
582.892,2556.0
583.391,2549.4
583.89,2543.8
584.389,2538.7
584.888,2544.1
585.387,2533.6
585.886,2563.5
586.384,2626.3
586.883,2858.8
587.381,3008.2
587.88,2779.2
588.378,2566.1
588.876,2546.4
589.375,2516.6
589.873,2497.1
590.371,2515.0
590.869,2521.3
591.367,2535.3
591.865,2506.0
592.363,2525.7
592.86,2514.8
593.358,2509.3
593.856,2509.2
594.353,2522.8
594.851,2518.2
595.348,2516.4
595.845,2526.0
596.342,2516.8
596.84,2533.7
597.337,2537.8
597.834,2516.9
598.331,2524.8
598.828,2520.0
599.324,2509.1
599.821,2506.9
600.318,2519.0
600.814,2520.5
601.311,2513.3
601.807,2517.5
602.304,2513.7
602.8,2523.8
603.296,2508.1
603.792,2546.4
604.288,2489.7
604.784,2498.3
605.28,2496.9
605.776,2493.6
606.272,2494.0
606.767,2524.6
607.263,2523.4
607.759,2512.2
608.254,2516.1
608.749,2524.7
609.245,2493.3
609.74,2505.2
610.235,2504.4
610.73,2497.0
611.225,2494.2
611.72,2522.3
612.215,2491.8
612.71,2482.4
613.204,2515.7
613.699,2499.3
614.194,2484.3
614.688,2495.3
615.182,2517.0
615.677,2516.5
616.171,2517.3
616.665,2526.1
617.159,2513.2
617.653,2497.3
618.147,2486.9
618.641,2494.0
619.135,2480.2
619.628,2491.5
620.122,2470.3
620.615,2494.4
621.109,2490.4
621.602,2500.2
622.095,2491.9
622.589,2548.1
623.082,2592.7
623.575,2554.8
624.068,2531.4
624.561,2487.3
625.053,2484.5
625.546,2467.9
626.039,2468.4
626.531,2463.9
627.024,2468.1
627.516,2488.7
628.008,2661.5
628.501,3052.9
628.993,2914.0
629.485,2952.6
629.977,2977.4
630.469,3427.1
630.96,5679.2
631.452,4579.8
631.944,3483.7
632.435,3257.8
632.927,3678.3
633.418,3872.6
633.91,3273.8
634.401,2775.6
634.892,2564.1
635.383,2471.4
635.874,2456.0
636.365,2428.7
636.856,2391.7
637.346,2396.9
637.837,2387.6
638.327,2383.7
638.818,2357.2
639.308,2370.2
639.799,2388.0
640.289,2367.2
640.779,2341.7
641.269,2361.5
641.759,2347.2
642.249,2351.4
642.738,2346.0
643.228,2343.5
643.718,2327.2
644.207,2327.9
644.697,2302.8
645.186,2295.9
645.675,2304.3
646.164,2301.0
646.653,2288.8
647.142,2293.8
647.631,2274.7
648.12,2293.3
648.609,2264.1
649.098,2271.5
649.586,2242.5
650.075,2248.7
650.563,2252.3
651.051,2250.7
651.539,2248.0
652.027,2230.0
652.515,2239.3
653.003,2229.1
653.491,2228.2
653.979,2231.2
654.467,2203.2
654.954,2217.4
655.442,2196.2
655.929,2209.5
656.416,2199.3
656.904,2191.3
657.391,2190.7
657.878,2199.7
658.365,2177.2
658.851,2171.8
659.338,2183.7
659.825,2157.9
660.311,2156.0
660.798,2152.9
661.041,2155.4