File: spectra/VLFR_02-HDPE_nobio_Raman_e84c615b.csv
cm-1,Intensity
-123.878,1853.0
-105.821,1852.8
-87.8007,1851.4
-69.8161,1852.85
-51.8675,1853.85
-33.9547,1854.35
-16.0776,1883.55
1.76388,3365.55
19.5698,1854.25
37.3403,1852.7
55.0755,1948.2
72.7754,2190.2
90.4402,2171.95
108.07,2147.45
125.665,2091.85
143.225,2082.85
160.75,2058.55
178.241,2061.45
195.697,2075.65
213.119,2069.45
230.506,2056.0
247.859,2046.25
265.178,2043.45
282.463,2047.75
299.713,2040.5
316.93,2041.25
334.113,2053.15
351.263,2048.1
368.379,2055.15
385.461,2035.5
402.51,2053.6
419.526,2053.7
436.508,2048.0
453.458,2048.95
470.374,2056.6
487.257,2045.85
504.107,2055.5
520.925,2050.65
537.71,2055.9
554.462,2062.4
571.182,2050.25
587.87,2058.25
604.525,2052.45
621.148,2057.65
637.739,2058.5
654.297,2067.85
670.824,2067.05
687.319,2078.3
703.782,2062.4
720.213,2082.95
736.613,2083.4
752.981,2085.95
769.317,2099.2
785.623,2087.35
801.897,2095.65
818.139,2101.85
834.351,2104.25
850.532,2115.0
866.681,2137.45
882.8,2140.5
898.888,2120.05
914.945,2116.95
930.972,2116.0
946.968,2123.1
962.934,2128.5
978.869,2117.55
994.774,2129.25
1010.65,2139.25
1026.49,2153.25
1042.31,2179.2
1058.09,2649.15
1073.85,2307.95
1089.57,2267.0
1105.27,2219.25
1120.93,2510.55
1136.57,2511.35
1152.18,2212.75
1167.75,2257.85
1183.3,2187.45
1198.82,2173.75
1214.31,2182.5
1229.77,2192.95
1245.2,2211.4
1260.6,2245.6
1275.97,2269.45
1291.32,3004.8
1306.63,2469.05
1321.92,2313.0
1337.18,2263.6
1352.41,2274.15
1367.61,2349.25
1382.78,2287.15
1397.93,2290.6
1413.05,2722.7
1428.14,2713.05
1443.2,3017.1
1458.23,2811.15
1473.23,2620.6
1488.21,2481.65
1503.16,2479.75
1518.08,2490.75
1532.97,2563.05
1547.84,2571.65
1562.68,2640.1
1577.49,2679.1
1592.27,2715.8
1607.03,2739.65
1621.76,2783.3
1636.46,2863.65
1651.14,2861.25
1665.78,2941.95
1680.41,2952.15
1695.0,2992.0
1709.57,3077.5
1724.11,3124.7
1738.62,3204.05
1753.11,3302.85
1767.57,3348.65
1782.01,3451.2
1796.41,3485.05
1810.8,3532.35
1825.15,3621.05
1839.48,3730.7
1853.79,3800.5
1868.06,3904.05
1882.31,3970.1
1896.54,4018.55
1910.74,4085.85
1924.91,4087.75
1939.06,4162.7
1953.19,4190.6
1967.28,4188.3
1981.35,4244.65
1995.4,4195.6
2009.42,4301.2
2023.42,4310.75
2037.39,4178.8
2051.33,4297.4
2065.25,4280.1
2079.15,4240.75
2093.01,4261.2
2106.86,4283.35
2120.68,4357.2
2134.47,4343.4
2148.24,4321.65
2161.99,4344.95
2175.71,4370.35
2189.41,4365.35
2203.08,4287.2
2216.73,4279.0
2230.35,4276.8
2243.95,4199.8
2257.52,4240.65
2271.07,4168.95
2284.6,4165.3
2298.1,4078.05
2311.58,4051.65
2325.03,4002.65
2338.46,3987.2
2351.87,3973.7
2365.25,3902.3
2378.61,3828.05
2391.94,3845.75
2405.26,3819.2
2418.54,3843.7
2431.81,3846.6
2445.05,3729.65
2458.27,3752.35
2471.46,3687.9
2484.63,3685.55
2497.78,3625.2
2510.9,3572.65
2524.0,3608.4
2537.08,3531.9
2550.14,3480.75
2563.17,3492.15
2576.18,3454.95
2589.17,3470.0
2602.13,3461.25
2615.07,3470.4
2627.99,3433.5
2640.89,3429.65
2653.76,3429.0
2666.61,3390.15
2679.44,3347.6
2692.25,3475.3
2705.03,3498.1
2717.79,3578.85
2730.53,3489.7
2743.25,3379.6
2755.94,3276.85
2768.61,3272.55
2781.27,3239.65
2793.89,3246.4
2806.5,3328.0
2819.09,3414.45
2831.65,4115.1
2844.19,7538.5
2856.71,7185.95
2869.21,6140.5
2881.69,8458.9
2894.14,5998.25
2906.58,5525.9
2918.99,4815.85
2931.38,4641.6
2943.75,3937.95
2956.1,3422.25
2968.42,3237.3
2980.73,3256.45
2993.01,3158.95
3005.28,3220.75
3017.52,3203.55
3029.74,3145.5
3041.94,3234.3
3054.12,3163.3
3066.28,3135.25
3078.42,3237.35
3090.54,3185.8
3102.63,3161.35
3114.71,3134.7
3126.77,3175.1
3138.8,3199.25
3150.82,3210.15
3162.81,3184.65
3174.78,3174.45
3186.74,3176.25
3198.67,3176.45
3210.58,3220.2
3222.47,3249.25
3234.35,3188.45
3246.2,3219.8
3258.03,3209.9
3269.84,3201.45
3281.64,3249.75
3293.41,3252.0
3305.16,3211.65
3316.89,3192.95
3328.61,3219.2
3340.3,3177.9
3351.97,3174.95
3363.63,3209.2
3375.26,3138.15
3386.88,3081.35
3398.47,3071.1
3410.05,3060.35
3421.6,3076.9
3433.14,3034.55
3444.66,2993.1
3456.15,2984.1
3467.63,2947.4
3479.09,2979.05
3490.53,2924.15
3501.96,2943.8
3513.36,2875.5
3524.74,2887.2
3536.11,2878.8
3547.45,2821.55
3558.78,2796.3
3570.09,2790.2
3581.37,2806.85
3592.64,2761.85
3603.9,2745.6
3615.13,2720.2
3626.34,2646.1
3637.54,2653.55
3648.72,2662.85
3659.87,2621.65
3665.45,2621.05