File: spectra/VLFR_02-HDPE_nobio_Raman_c1bff439.csv
nm,Intensity
526.486,830.4
527.033,831.4
527.579,829.3
528.126,830.7
528.672,830.2
529.219,829.5
529.765,831.0
530.311,831.6
530.857,830.8
531.403,830.3
531.948,832.0
532.494,831.4
533.039,828.4
533.585,829.2
534.13,888.6
534.675,882.5
535.22,878.3
535.764,863.4
536.309,857.0
536.854,855.8
537.398,856.0
537.942,854.9
538.486,853.2
539.03,849.6
539.574,850.3
540.118,848.8
540.662,847.6
541.205,846.8
541.749,845.3
542.292,848.4
542.835,847.5
543.378,845.2
543.921,847.5
544.464,845.8
545.006,846.4
545.549,846.1
546.091,845.4
546.634,843.5
547.176,845.6
547.718,847.0
548.26,846.5
548.802,846.7
549.343,848.0
549.885,846.0
550.426,846.1
550.968,846.6
551.509,848.0
552.05,845.9
552.591,848.2
553.132,845.4
553.673,848.8
554.214,849.9
554.754,852.1
555.295,851.7
555.835,853.0
556.375,851.8
556.915,853.3
557.455,854.2
557.995,855.4
558.535,858.1
559.075,855.1
559.614,854.4
560.154,855.2
560.693,853.5
561.232,852.3
561.772,856.7
562.311,856.6
562.85,860.4
563.388,860.5
563.927,909.0
564.466,880.7
565.004,874.4
565.543,866.1
566.081,932.2
566.619,871.0
567.157,867.6
567.695,868.1
568.233,861.3
568.771,860.7
569.309,860.2
569.846,861.9
570.384,865.9
570.921,873.1
571.458,956.8
571.995,894.4
572.532,872.3
573.069,868.5
573.606,869.2
574.143,880.7
574.68,871.0
575.216,871.7
575.753,918.8
576.289,1014.6
576.825,957.3
577.361,940.5
577.897,893.9
578.433,889.7
578.969,890.0
579.505,898.4
580.041,898.7
580.576,902.3
581.112,902.4
581.647,911.5
582.183,914.7
582.718,923.0
583.253,927.7
583.788,933.4
584.323,936.6
584.858,945.9
585.392,949.1
585.927,960.1
586.462,968.7
586.996,975.1
587.53,977.9
588.065,994.6
588.599,992.6
589.133,1002.2
589.667,1018.4
590.201,1017.9
590.735,1024.6
591.268,1021.8
591.802,1034.9
592.335,1033.5
592.869,1033.4
593.402,1036.0
593.936,1044.2
594.469,1042.0
595.002,1047.1
595.535,1055.2
596.068,1048.9
596.601,1053.5
597.133,1061.9
597.666,1056.6
598.199,1065.3
598.731,1069.5
599.264,1069.4
599.796,1066.5
600.328,1069.2
600.86,1065.7
601.393,1068.5
601.925,1060.0
602.457,1061.6
602.988,1054.6
603.52,1051.8
604.052,1049.0
604.583,1035.0
605.115,1028.2
605.646,1020.0
606.178,1012.8
606.709,1004.1
607.24,1000.5
607.771,998.9
608.302,995.3
608.833,989.4
609.364,986.4
609.895,981.1
610.426,981.7
610.957,976.5
611.487,972.9
612.018,969.8
612.548,962.0
613.078,965.8
613.609,965.1
614.139,960.1
614.669,956.0
615.199,955.6
615.729,957.8
616.259,953.9
616.789,951.0
617.319,952.9
617.849,950.3
618.378,954.0
618.908,944.6
619.437,949.6
619.967,946.9
620.496,946.2
621.025,948.5
621.555,964.5
622.084,984.6
622.613,984.4
623.142,950.2
623.671,941.5
624.2,940.2
624.729,937.8
625.258,942.1
625.786,944.7
626.315,977.4
626.844,1217.8
627.372,1726.2
627.901,1391.0
628.429,1602.4
628.957,1459.2
629.486,1315.9
630.014,1192.4
630.542,1158.0
631.07,1037.0
631.598,963.4
632.126,944.5
632.654,936.4
633.182,931.9
633.71,927.1
634.237,932.5
634.765,930.4
635.293,930.1
635.82,923.8
636.348,927.1
636.875,925.3
637.403,925.2
637.93,922.0
638.458,920.8
638.985,923.8
639.512,924.1
640.039,925.4
640.566,923.2
641.093,924.2
641.62,928.8
642.147,928.4
642.674,927.5
643.201,927.2
643.728,925.5
644.255,924.2
644.781,925.1
645.308,925.6
645.835,924.8
646.361,922.0
646.888,923.2
647.414,924.0
647.941,926.1
648.467,923.3
648.993,918.9
649.52,924.1
650.046,921.0
650.572,919.3
651.098,917.1
651.625,920.5
652.151,919.4
652.677,914.8
653.203,916.5
653.729,917.4
654.255,914.9
654.78,916.0
655.306,916.1
655.832,910.9
656.358,912.8
656.884,905.5
657.409,908.2
657.935,910.1
658.461,908.1
658.986,905.4
659.512,900.5
660.037,902.9
660.563,897.3
661.088,897.0
661.614,896.4
662.139,894.7
662.664,890.9
663.058,889.8