File: spectra/VLFR_01-LDPE_bio_Raman_b8c9d9d1.csv
nm,Intensity
528.65,1855.75
529.155,1855.95
529.66,1856.3
530.165,1856.9
530.67,1856.75
531.175,1857.65
531.68,1874.8
532.185,2678.55
532.69,1856.6
533.194,1858.45
533.699,1966.25
534.204,2271.15
534.708,2234.95
535.213,2201.4
535.717,2178.05
536.222,2146.65
536.726,2136.6
537.231,2137.35
537.735,2145.1
538.239,2145.7
538.743,2179.7
539.247,2191.25
539.751,2132.95
540.255,2120.75
540.759,2117.0
541.263,2107.45
541.767,2117.3
542.271,2128.25
542.775,2131.3
543.279,2128.15
543.782,2118.1
544.286,2118.35
544.789,2114.3
545.293,2112.05
545.796,2111.45
546.3,2116.35
546.803,2102.1
547.306,2122.05
547.81,2114.9
548.313,2112.25
548.816,2119.2
549.319,2114.1
549.822,2114.5
550.325,2123.55
550.828,2136.8
551.331,2138.9
551.834,2141.6
552.337,2139.1
552.839,2129.65
553.342,2142.85
553.844,2126.85
554.347,2140.9
554.849,2136.15
555.352,2137.95
555.854,2144.9
556.357,2152.15
556.859,2158.6
557.361,2166.95
557.863,2176.9
558.365,2178.05
558.867,2186.45
559.369,2166.1
559.871,2158.8
560.373,2157.55
560.875,2166.45
561.377,2173.55
561.878,2187.6
562.38,2197.05
562.881,2208.35
563.383,2238.9
563.884,2462.0
564.386,2331.5
564.887,2292.55
565.388,2250.65
565.89,2399.9
566.391,2370.45
566.892,2246.25
567.393,2267.35
567.894,2237.25
568.395,2231.7
568.896,2233.9
569.396,2246.25
569.897,2248.2
570.398,2278.75
570.898,2322.0
571.399,2696.85
571.9,2460.5
572.4,2350.95
572.9,2312.1
573.401,2294.45
573.901,2323.75
574.401,2293.8
574.901,2280.05
575.401,2418.2
575.901,2577.05
576.401,2842.7
576.901,2708.6
577.401,2459.95
577.901,2362.2
578.4,2352.25
578.9,2343.25
579.399,2353.65
579.899,2351.1
580.398,2372.15
580.898,2392.6
581.397,2407.85
581.896,2408.05
582.395,2413.4
582.895,2425.7
583.394,2433.15
583.893,2455.05
584.391,2467.15
584.89,2478.5
585.389,2510.1
585.888,2517.65
586.386,2530.85
586.885,2585.8
587.384,2594.2
587.882,2663.8
588.38,2672.65
588.879,2675.65
589.377,2721.5
589.875,2748.65
590.373,2781.15
590.871,2834.9
591.369,2863.4
591.867,2870.75
592.365,2906.9
592.863,2909.15
593.361,2889.3
593.858,2888.65
594.356,2922.35
594.853,2934.95
595.351,2971.0
595.848,2997.95
596.345,2974.0
596.843,3005.05
597.34,3043.95
597.837,3081.65
598.334,3044.35
598.831,3125.35
599.328,3105.25
599.824,3114.4
600.321,3152.95
600.818,3126.9
601.314,3113.25
601.811,3130.0
602.307,3102.4
602.804,3064.2
603.3,3047.95
603.796,3035.1
604.293,2978.55
604.789,2920.45
605.285,2881.8
605.781,2872.45
606.277,2846.0
606.772,2828.6
607.268,2760.25
607.764,2778.8
608.259,2711.7
608.755,2730.2
609.25,2694.95
609.746,2668.45
610.241,2670.8
610.736,2642.85
611.231,2634.5
611.727,2629.75
612.222,2599.2
612.716,2607.6
613.211,2575.05
613.706,2577.0
614.201,2545.95
614.695,2557.8
615.19,2540.0
615.684,2521.95
616.179,2522.95
616.673,2518.35
617.168,2529.65
617.662,2511.45
618.156,2504.05
618.65,2513.4
619.144,2510.3
619.638,2522.6
620.131,2528.15
620.625,2517.25
621.119,2526.5
621.612,2601.5
622.106,2688.0
622.599,2639.1
623.093,2499.95
623.586,2466.15
624.079,2466.75
624.572,2465.6
625.065,2463.15
625.558,2495.05
626.051,2562.75
626.544,2976.85
627.037,5187.15
627.529,5224.8
628.022,4445.5
628.514,5765.55
629.007,4624.8
629.499,4198.7
629.991,3786.6
630.483,3656.0
630.976,3075.55
631.468,2675.0
631.959,2559.35
632.451,2474.45
632.943,2445.65
633.435,2431.7
633.926,2387.8
634.418,2393.7
634.909,2379.75
635.401,2376.5
635.892,2372.5
636.383,2390.4
636.874,2360.5
637.365,2355.9
637.856,2362.6
638.347,2390.85
638.838,2369.95
639.329,2350.65
639.819,2354.95
640.31,2350.25
640.8,2368.1
641.291,2369.95
641.781,2358.9
642.271,2361.05
642.761,2382.4
643.251,2366.0
643.741,2382.45
644.231,2373.15
644.721,2370.25
645.211,2390.2
645.7,2369.1
646.19,2368.05
646.679,2364.7
647.169,2375.5
647.658,2348.95
648.147,2361.8
648.636,2344.2
649.125,2350.15
649.614,2357.3
650.103,2349.05
650.592,2365.0
651.08,2349.65
651.569,2350.85
652.058,2353.8
652.546,2341.2
653.034,2335.9
653.523,2332.2
654.011,2336.5
654.499,2330.15
654.987,2311.35
655.475,2313.35
655.963,2299.1
656.45,2285.45
656.938,2288.25
657.425,2266.75
657.913,2274.55
658.4,2249.9
658.888,2228.4
659.375,2231.6
659.862,2214.45
660.349,2193.35
660.836,2199.3
661.079,2186.45