File: spectra/VLFR_09-PET_bio_Raman_3e271478.csv
nm,Intensity
528.65,1847.4
529.155,1849.45
529.66,1850.4
530.165,1848.15
530.67,1851.25
531.175,1849.7
531.68,1867.7
532.185,2681.05
532.69,1851.75
533.194,1854.9
533.699,2412.0
534.204,3990.2
534.708,3917.35
535.213,3973.95
535.717,3905.6
536.222,3883.05
536.726,3979.05
537.231,4008.4
537.735,4127.4
538.239,4134.65
538.743,4223.05
539.247,4222.65
539.751,4334.05
540.255,4420.85
540.759,4413.1
541.263,4412.8
541.767,4463.85
542.271,4547.05
542.775,4587.75
543.279,4592.45
543.782,4701.55
544.286,4687.85
544.789,4725.15
545.293,4783.55
545.796,4900.85
546.3,4976.35
546.803,4950.35
547.306,5023.6
547.81,5045.0
548.313,5172.25
548.816,5136.05
549.319,5257.8
549.822,5273.8
550.325,5289.25
550.828,5544.0
551.331,5433.5
551.834,5543.55
552.337,5530.55
552.839,5647.9
553.342,5548.35
553.844,5706.8
554.347,5706.8
554.849,5657.05
555.352,5779.25
555.854,5886.4
556.357,5895.95
556.859,6032.85
557.361,6174.25
557.863,6228.25
558.365,6134.5
558.867,6140.0
559.369,6100.4
559.871,6111.55
560.373,6223.25
560.875,6304.5
561.377,6336.8
561.878,6442.3
562.38,6394.8
562.881,6511.55
563.383,6576.85
563.884,6572.3
564.386,6728.6
564.887,6941.3
565.388,6923.0
565.89,6924.4
566.391,6840.8
566.892,6873.55
567.393,6938.95
567.894,7065.15
568.395,7008.95
568.896,7085.0
569.396,7173.95
569.897,7291.15
570.398,7419.4
570.898,7727.4
571.399,7851.3
571.9,7583.9
572.4,7504.25
572.9,7575.0
573.401,7570.45
573.901,7673.5
574.401,7560.8
574.901,7614.7
575.401,7785.5
575.901,7845.15
576.401,7824.3
576.901,7830.25
577.401,7889.95
577.901,7889.65
578.4,7913.7
578.9,7943.3
579.399,7893.25
579.899,7994.65
580.398,8234.2
580.898,8064.15
581.397,8119.1
581.896,9313.1
582.395,8998.6
582.895,8013.6
583.394,8157.05
583.893,8449.15
584.391,8256.75
584.89,8168.15
585.389,8411.55
585.888,9275.2
586.386,8769.4
586.885,8459.55
587.384,8417.4
587.882,8355.7
588.38,8367.95
588.879,8322.45
589.377,8270.9
589.875,8270.2
590.373,8289.65
590.871,8216.5
591.369,8401.45
591.867,8313.1
592.365,8398.75
592.863,8526.55
593.361,8389.05
593.858,8381.55
594.356,8403.9
594.853,8592.0
595.351,8542.15
595.848,8404.1
596.345,8453.2
596.843,8703.95
597.34,8558.35
597.837,8644.75
598.334,8579.25
598.831,8527.45
599.328,8848.15
599.824,8696.95
600.321,8748.85
600.818,8680.3
601.314,8704.45
601.811,8768.05
602.307,8904.35
602.804,8717.95
603.3,8886.8
603.796,8993.5
604.293,8863.95
604.789,8851.55
605.285,9109.65
605.781,9152.25
606.277,9324.85
606.772,9239.1
607.268,9183.5
607.764,9189.6
608.259,9112.0
608.755,9136.45
609.25,9350.1
609.746,9521.1
610.241,9433.3
610.736,9553.45
611.231,9598.3
611.727,9662.35
612.222,9789.85
612.716,9718.5
613.211,9511.7
613.706,9777.1
614.201,9760.15
614.695,10115.0
615.19,10002.6
615.684,9979.1
616.179,9919.2
616.673,10268.0
617.168,10108.3
617.662,10291.0
618.156,10455.5
618.65,10649.0
619.144,10519.6
619.638,10811.0
620.131,10669.6
620.625,10740.0
621.119,10872.7
621.612,11156.6
622.106,10899.4
622.599,10745.7
623.093,11126.7
623.586,11234.7
624.079,11327.0
624.572,11403.4
625.065,11394.0
625.558,11425.7
626.051,11441.9
626.544,11472.9
627.037,11475.5
627.529,11499.8
628.022,11653.0
628.514,11577.6
629.007,11768.0
629.499,12013.5
629.991,12065.8
630.483,12026.5
630.976,12083.3
631.468,12169.2
631.959,12572.0
632.451,12511.0
632.943,12458.3
633.435,12404.7
633.926,12555.3
634.418,12184.9
634.909,12272.5
635.401,12552.7
635.892,12596.7
636.383,12493.3
636.874,12569.2
637.365,12203.5
637.856,12490.5
638.347,12626.2
638.838,12276.4
639.329,12375.8
639.819,12386.6
640.31,12425.3
640.8,12387.3
641.291,12180.3
641.781,12382.4
642.271,12392.7
642.761,12231.4
643.251,12297.4
643.741,12184.3
644.231,12588.5
644.721,12053.5
645.211,12205.8
645.7,12265.1
646.19,11856.8
646.679,12179.0
647.169,11627.5
647.658,11983.4
648.147,12126.2
648.636,12081.0
649.125,11686.3
649.614,11949.1
650.103,11874.1
650.592,11678.8
651.08,11789.5
651.569,12085.2
652.058,11597.4
652.546,11568.0
653.034,11200.6
653.523,11457.8
654.011,11054.4
654.499,11030.3
654.987,10996.1
655.475,10770.0
655.963,10955.3
656.45,10794.7
656.938,10793.1
657.425,10768.3
657.913,10653.8
658.4,10565.7
658.888,10331.5
659.375,10080.3
659.862,10381.6
660.349,10261.3
660.836,10068.4
661.079,9679.3