File: spectra/VLFR_02-HDPE_nobio_Raman_ff5fcf40.csv
nm,Intensity
526.547,832.5
527.094,832.4
527.641,833.1
528.188,831.9
528.734,831.5
529.281,832.0
529.827,832.4
530.373,832.8
530.92,832.6
531.466,831.5
532.011,841.3
532.557,832.6
533.103,832.7
533.648,833.6
534.193,926.6
534.738,916.5
535.283,905.8
535.828,897.8
536.373,892.7
536.917,887.0
537.462,887.7
538.006,887.7
538.55,888.3
539.094,886.5
539.638,881.4
540.182,881.0
540.726,878.5
541.269,880.0
541.812,879.4
542.356,880.6
542.899,880.5
543.442,881.2
543.985,880.1
544.527,881.2
545.07,879.4
545.612,877.0
546.155,882.8
546.697,883.6
547.239,880.7
547.781,883.4
548.323,880.6
548.865,882.5
549.406,885.1
549.948,886.3
550.489,886.7
551.03,887.0
551.572,884.7
552.113,887.1
552.654,889.6
553.194,891.2
553.735,892.3
554.276,891.0
554.816,894.4
555.356,892.7
555.896,895.9
556.437,899.7
556.977,902.5
557.516,904.5
558.056,906.4
558.596,909.2
559.135,910.6
559.675,912.9
560.214,920.2
560.753,915.7
561.292,918.1
561.831,920.6
562.37,927.2
562.909,936.4
563.448,941.9
563.986,1051.7
564.525,962.7
565.063,960.1
565.601,958.6
566.139,1165.6
566.677,972.8
567.215,965.8
567.753,971.4
568.291,975.3
568.828,980.7
569.366,992.1
569.903,998.3
570.441,1013.9
570.978,1028.9
571.515,1241.8
572.052,1069.5
572.589,1057.8
573.126,1070.9
573.662,1089.8
574.199,1112.6
574.735,1124.6
575.272,1179.6
575.808,1257.4
576.344,1352.0
576.88,1358.9
577.416,1374.6
577.952,1396.4
578.488,1460.5
579.024,1526.4
579.559,1582.7
580.095,1624.0
580.63,1675.2
581.166,1735.7
581.701,1773.3
582.236,1808.7
582.771,1861.2
583.306,1890.9
583.841,1919.1
584.376,1975.6
584.911,1977.4
585.445,2025.0
585.98,2048.8
586.514,2096.4
587.048,2132.1
587.583,2164.1
588.117,2197.4
588.651,2239.3
589.185,2264.3
589.719,2324.6
590.253,2371.8
590.786,2432.9
591.32,2478.4
591.853,2503.0
592.387,2523.1
592.92,2542.3
593.454,2553.5
593.987,2547.8
594.52,2569.0
595.053,2596.8
595.586,2583.8
596.119,2582.0
596.651,2592.1
597.184,2585.3
597.717,2586.8
598.249,2593.2
598.782,2591.2
599.314,2595.2
599.846,2587.1
600.379,2558.7
600.911,2543.6
601.443,2528.5
601.975,2502.0
602.507,2475.8
603.038,2447.6
603.57,2419.6
604.102,2362.3
604.633,2308.8
605.165,2236.7
605.696,2170.5
606.228,2131.6
606.759,2074.2
607.29,2019.4
607.821,2004.8
608.352,1962.7
608.883,1926.4
609.414,1897.5
609.945,1853.2
610.476,1815.0
611.006,1803.6
611.537,1754.3
612.067,1743.1
612.598,1733.6
613.128,1716.7
613.659,1699.5
614.189,1682.7
614.719,1670.0
615.249,1634.4
615.779,1620.8
616.309,1599.8
616.839,1583.0
617.369,1572.1
617.899,1559.3
618.428,1550.3
618.958,1524.0
619.487,1524.4
620.017,1522.1
620.546,1507.4
621.076,1490.7
621.605,1491.1
622.134,1509.9
622.663,1512.7
623.193,1479.7
623.722,1473.1
624.251,1469.1
624.78,1466.7
625.308,1476.3
625.837,1472.4
626.366,1507.2
626.895,1735.3
627.423,2073.7
627.952,1812.8
628.48,2094.7
629.009,1952.8
629.537,1823.2
630.065,1727.1
630.594,1705.6
631.122,1574.2
631.65,1534.2
632.178,1506.4
632.706,1513.7
633.234,1503.0
633.762,1519.6
634.29,1516.6
634.818,1523.3
635.346,1525.6
635.873,1525.4
636.401,1534.5
636.929,1529.3
637.456,1538.3
637.984,1539.8
638.511,1543.8
639.039,1549.7
639.566,1559.7
640.093,1569.4
640.62,1567.1
641.148,1573.9
641.675,1567.6
642.202,1581.3
642.729,1579.9
643.256,1583.3
643.783,1580.2
644.31,1577.7
644.837,1581.9
645.364,1581.7
645.891,1584.1
646.417,1572.1
646.944,1568.7
647.471,1577.7
647.997,1580.1
648.524,1555.6
649.051,1566.3
649.577,1553.7
650.104,1543.7
650.63,1540.1
651.157,1521.9
651.683,1525.9
652.209,1520.8
652.736,1514.4
653.262,1494.9
653.788,1502.8
654.314,1488.1
654.84,1488.2
655.366,1461.1
655.893,1461.9
656.419,1448.7
656.945,1433.3
657.471,1426.7
657.997,1413.8
658.522,1397.7
659.048,1378.3
659.574,1364.1
660.1,1360.0
660.626,1331.7
661.152,1310.2
661.677,1289.9
662.203,1278.5
662.729,1270.6
663.123,1249.2