File: spectra/VLFR_01-LDPE_bio_Raman_4651917c.csv
nm,Intensity
528.626,1867.2
529.132,1868.2
529.637,1868.5
530.143,1867.8
530.648,1867.7
531.153,1868.9
531.658,1892.0
532.164,3459.7
532.669,1868.9
533.174,1869.1
533.679,1919.5
534.184,2136.4
534.689,2103.2
535.194,2083.4
535.699,2071.5
536.203,2044.1
536.708,2048.6
537.213,2042.5
537.717,2046.1
538.222,2034.1
538.726,2031.6
539.231,2036.1
539.735,2030.5
540.239,2013.7
540.744,2022.8
541.248,2017.9
541.752,2031.8
542.256,2029.3
542.76,2026.7
543.264,2016.2
543.768,2020.9
544.272,2025.4
544.776,2032.4
545.28,2020.4
545.784,2028.3
546.287,2020.3
546.791,2024.8
547.294,2023.0
547.798,2018.2
548.301,2033.0
548.805,2025.6
549.308,2023.8
549.811,2024.4
550.315,2021.1
550.818,2018.3
551.321,2016.9
551.824,2036.3
552.327,2033.3
552.83,2035.7
553.333,2033.6
553.835,2048.4
554.338,2047.4
554.841,2046.9
555.343,2054.3
555.846,2055.8
556.349,2061.2
556.851,2056.6
557.353,2073.1
557.856,2083.1
558.358,2078.8
558.86,2088.9
559.362,2078.4
559.864,2076.0
560.366,2065.5
560.868,2076.7
561.37,2082.0
561.872,2091.2
562.374,2084.8
562.876,2100.0
563.377,2109.2
563.879,2284.9
564.38,2192.1
564.882,2159.5
565.383,2139.2
565.885,2242.2
566.386,2237.7
566.887,2137.5
567.388,2137.8
567.889,2121.7
568.391,2113.6
568.892,2117.3
569.392,2122.8
569.893,2139.4
570.394,2147.7
570.895,2167.0
571.395,2462.3
571.896,2306.1
572.397,2209.3
572.897,2171.6
573.397,2176.4
573.898,2205.1
574.398,2184.8
574.898,2199.6
575.398,2275.7
575.898,2403.7
576.398,2651.2
576.898,2527.0
577.398,2376.7
577.898,2289.0
578.398,2303.0
578.897,2318.8
579.397,2317.1
579.896,2355.3
580.396,2384.9
580.895,2420.9
581.395,2443.3
581.894,2463.2
582.393,2499.7
582.892,2551.4
583.391,2587.5
583.89,2642.8
584.389,2679.5
584.888,2727.3
585.387,2761.6
585.886,2853.8
586.384,2879.9
586.883,2951.8
587.381,3021.6
587.88,3102.1
588.378,3180.6
588.876,3246.5
589.375,3307.6
589.873,3371.6
590.371,3425.6
590.869,3516.5
591.367,3606.1
591.865,3651.9
592.363,3717.7
592.86,3764.9
593.358,3736.4
593.856,3801.2
594.353,3872.3
594.851,3891.5
595.348,3952.4
595.845,3926.8
596.342,4074.7
596.84,4103.6
597.337,4078.7
597.834,4186.5
598.331,4170.3
598.828,4158.7
599.324,4187.1
599.821,4229.1
600.318,4236.0
600.814,4257.3
601.311,4272.1
601.807,4240.9
602.304,4112.7
602.8,4072.1
603.296,4052.8
603.792,4004.5
604.288,3896.6
604.784,3823.1
605.28,3769.9
605.776,3725.8
606.272,3660.6
606.767,3633.5
607.263,3572.7
607.759,3520.5
608.254,3480.6
608.749,3341.0
609.245,3324.2
609.74,3304.9
610.235,3302.2
610.73,3256.8
611.225,3253.3
611.72,3191.9
612.215,3169.0
612.71,3137.5
613.204,3139.3
613.699,3095.5
614.194,3085.9
614.688,3018.4
615.182,3007.3
615.677,2984.2
616.171,2954.4
616.665,2961.8
617.159,2914.6
617.653,2897.2
618.147,2891.6
618.641,2850.9
619.135,2855.7
619.628,2853.5
620.122,2862.6
620.615,2844.9
621.109,2823.0
621.602,2856.4
622.095,2895.1
622.589,2890.6
623.082,2793.9
623.575,2736.8
624.068,2758.2
624.561,2715.7
625.053,2728.5
625.546,2710.0
626.039,2798.4
626.531,3048.8
627.024,4729.4
627.516,4809.8
628.008,4209.3
628.501,5225.3
628.993,4365.1
629.485,4031.4
629.977,3657.0
630.469,3562.3
630.96,3221.2
631.452,2897.3
631.944,2756.7
632.435,2747.9
632.927,2713.2
633.418,2698.3
633.91,2681.7
634.401,2695.8
634.892,2704.7
635.383,2693.5
635.874,2694.3
636.365,2706.2
636.856,2701.9
637.346,2728.9
637.837,2735.0
638.327,2776.4
638.818,2775.8
639.308,2778.5
639.799,2762.0
640.289,2791.2
640.779,2772.1
641.269,2833.1
641.759,2843.3
642.249,2874.8
642.738,2901.9
643.228,2843.0
643.718,2883.9
644.207,2868.6
644.697,2873.7
645.186,2900.4
645.675,2863.7
646.164,2851.3
646.653,2863.1
647.142,2873.4
647.631,2882.2
648.12,2852.9
648.609,2852.3
649.098,2838.4
649.586,2830.9
650.075,2843.3
650.563,2827.3
651.051,2820.6
651.539,2812.4
652.027,2812.5
652.515,2783.3
653.003,2763.2
653.491,2761.0
653.979,2737.0
654.467,2735.2
654.954,2695.9
655.442,2724.0
655.929,2730.2
656.416,2676.6
656.904,2683.2
657.391,2634.3
657.878,2619.1
658.365,2564.6
658.851,2570.5
659.338,2538.7
659.825,2522.8
660.311,2492.2
660.798,2483.1
661.041,2458.3