File: spectra/VLFR_08-PLA_bio_Raman_181d763d.csv
nm,Intensity
526.495,829.9
527.042,829.8
527.589,830.5
528.136,830.0
528.682,829.7
529.229,829.2
529.775,828.3
530.321,830.0
530.867,828.0
531.413,829.9
531.959,830.5
532.505,828.9
533.051,830.0
533.596,831.6
534.141,1052.7
534.687,1021.3
535.232,976.0
535.777,964.3
536.321,951.5
536.866,957.7
537.41,947.7
537.955,943.3
538.499,934.6
539.043,936.2
539.587,931.5
540.131,928.8
540.675,937.4
541.219,942.5
541.762,936.6
542.305,927.4
542.849,935.2
543.392,951.8
543.935,964.6
544.478,941.0
545.02,932.0
545.563,934.4
546.106,928.4
546.648,931.1
547.19,942.5
547.732,936.9
548.274,931.3
548.816,939.0
549.358,940.6
549.9,939.9
550.441,941.7
550.983,943.5
551.524,949.4
552.065,947.7
552.606,948.5
553.147,951.2
553.688,947.8
554.229,962.7
554.769,951.4
555.31,949.6
555.85,946.3
556.391,947.9
556.931,948.3
557.471,960.3
558.011,1080.0
558.551,980.7
559.09,960.0
559.63,960.9
560.169,957.5
560.709,952.9
561.248,954.0
561.787,955.5
562.326,951.9
562.865,969.9
563.404,1003.1
563.943,979.0
564.481,972.8
565.02,993.1
565.558,981.4
566.096,1017.8
566.634,981.0
567.172,962.5
567.71,974.2
568.248,970.9
568.786,967.5
569.324,975.5
569.861,970.3
570.399,975.7
570.936,976.5
571.473,990.7
572.01,994.9
572.547,986.5
573.084,995.1
573.621,992.7
574.158,992.8
574.694,1007.1
575.231,982.2
575.767,980.2
576.303,996.7
576.84,1066.4
577.376,1003.7
577.912,985.1
578.448,981.2
578.984,987.5
579.519,984.5
580.055,986.4
580.59,986.9
581.126,983.8
581.661,983.7
582.196,983.9
582.731,981.7
583.267,986.8
583.801,986.3
584.336,993.5
584.871,988.9
585.406,986.9
585.94,991.4
586.475,1003.6
587.009,1046.0
587.543,1069.0
588.078,1011.6
588.612,996.8
589.146,993.3
589.68,990.3
590.214,990.9
590.747,990.2
591.281,991.5
591.815,992.9
592.348,987.2
592.881,990.0
593.415,991.9
593.948,994.3
594.481,992.2
595.014,992.1
595.547,995.9
596.08,994.0
596.613,992.3
597.146,1002.2
597.678,994.1
598.211,997.6
598.743,1000.7
599.276,998.4
599.808,996.7
600.34,1001.3
600.872,996.6
601.404,997.8
601.936,994.7
602.468,999.3
603.0,1003.6
603.532,996.8
604.064,1001.7
604.595,1001.4
605.127,998.2
605.658,999.6
606.189,1002.0
606.721,1005.6
607.252,1002.9
607.783,1003.2
608.314,1004.6
608.845,1007.7
609.376,1009.1
609.907,1009.2
610.438,1009.1
610.968,1010.0
611.499,1014.8
612.029,1012.1
612.56,1014.6
613.09,1015.4
613.621,1017.0
614.151,1023.0
614.681,1021.1
615.211,1017.9
615.741,1020.6
616.271,1022.0
616.801,1020.8
617.331,1019.9
617.861,1023.3
618.39,1019.7
618.92,1021.2
619.45,1024.4
619.979,1023.4
620.509,1023.7
621.038,1025.8
621.567,1025.1
622.096,1025.1
622.626,1033.9
623.155,1043.0
623.684,1037.9
624.213,1026.5
624.742,1029.1
625.271,1031.7
625.799,1025.9
626.328,1029.8
626.857,1031.5
627.386,1026.6
627.914,1038.4
628.443,1104.6
628.971,1091.1
629.5,1090.2
630.028,1093.0
630.556,1154.8
631.084,1569.6
631.613,1307.5
632.141,1158.6
632.669,1144.4
633.197,1242.7
633.725,1201.8
634.253,1097.3
634.781,1038.6
635.308,1020.7
635.836,1016.9
636.364,1010.7
636.891,1014.4
637.419,1011.2
637.947,1011.8
638.474,1003.6
639.002,1004.8
639.529,1001.2
640.056,999.0
640.584,1002.0
641.111,1004.8
641.638,999.7
642.165,1000.3
642.692,998.3
643.219,994.2
643.746,993.0
644.273,992.1
644.8,989.1
645.327,979.5
645.854,981.0
646.381,983.1
646.908,985.9
647.434,982.9
647.961,981.7
648.488,980.3
649.014,977.7
649.541,976.3
650.067,978.4
650.594,975.5
651.12,972.3
651.646,975.4
652.173,969.7
652.699,976.1
653.225,977.1
653.752,971.4
654.278,972.7
654.804,965.4
655.33,966.5
655.856,961.0
656.382,964.7
656.908,965.3
657.434,965.0
657.96,963.8
658.486,957.9
659.012,961.8
659.538,964.9
660.064,962.6
660.589,959.1
661.115,956.7
661.641,954.1
662.166,957.5
662.692,955.5
663.086,951.4