File: spectra/VLFR_08-PLA_bio_Raman_79e27da7.csv
nm,Intensity
526.547,833.65
527.095,832.7
527.642,833.1
528.189,832.95
528.736,832.3
529.283,833.15
529.829,833.1
530.376,831.6
530.922,832.55
531.468,832.5
532.014,836.75
532.56,832.0
533.106,832.05
533.651,835.6
534.196,1076.85
534.742,1030.75
535.287,994.75
535.832,977.05
536.376,972.9
536.921,972.55
537.465,964.45
538.01,962.1
538.554,951.2
539.098,952.5
539.642,946.35
540.186,946.9
540.729,965.25
541.273,964.25
541.816,955.65
542.36,951.1
542.903,956.85
543.446,981.55
543.988,987.8
544.531,965.35
545.074,958.8
545.616,955.35
546.158,953.1
546.701,958.9
547.243,958.15
547.785,958.0
548.326,960.6
548.868,962.65
549.41,962.95
549.951,965.25
550.492,964.95
551.034,967.4
551.575,973.35
552.116,974.5
552.656,977.2
553.197,979.85
553.738,975.2
554.278,984.35
554.819,975.2
555.359,969.75
555.899,967.05
556.439,971.1
556.979,972.05
557.519,990.4
558.058,1121.7
558.598,1003.2
559.137,992.8
559.677,986.0
560.216,979.75
560.755,984.2
561.294,982.8
561.833,983.25
562.371,981.9
562.91,994.6
563.449,1031.35
563.987,1002.55
564.525,996.6
565.064,1020.5
565.602,1014.85
566.14,1049.4
566.678,1008.9
567.216,993.1
567.753,998.6
568.291,1002.6
568.828,1001.95
569.366,1003.15
569.903,995.65
570.44,998.95
570.977,1003.6
571.514,1023.25
572.051,1021.05
572.588,1016.3
573.125,1017.75
573.661,1017.95
574.198,1010.2
574.734,1031.35
575.271,1009.15
575.807,1008.2
576.343,1030.2
576.879,1087.5
577.415,1029.9
577.951,1016.0
578.486,1010.1
579.022,1011.7
579.557,1009.9
580.093,1008.75
580.628,1009.7
581.164,1007.95
581.699,1008.3
582.234,1010.7
582.769,1015.35
583.304,1014.4
583.838,1011.95
584.373,1013.75
584.908,1016.8
585.442,1014.65
585.977,1018.3
586.511,1034.55
587.045,1070.3
587.58,1091.1
588.114,1040.65
588.648,1020.3
589.182,1017.85
589.715,1014.75
590.249,1011.1
590.783,1014.5
591.316,1012.9
591.85,1013.8
592.383,1010.5
592.917,1016.8
593.45,1010.1
593.983,1008.8
594.516,1013.3
595.049,1013.45
595.582,1010.95
596.115,1013.6
596.648,1012.9
597.18,1014.05
597.713,1009.1
598.245,1016.3
598.778,1011.75
599.31,1013.05
599.842,1016.65
600.375,1011.45
600.907,1009.75
601.439,1009.35
601.971,1007.25
602.503,1008.3
603.034,1009.8
603.566,1009.75
604.098,1009.6
604.629,1007.85
605.161,1005.2
605.692,1006.45
606.224,1000.95
606.755,1002.3
607.286,999.15
607.817,1002.6
608.348,1002.0
608.879,1003.6
609.41,1003.65
609.941,1000.65
610.472,1000.35
611.002,1000.0
611.533,998.35
612.063,998.05
612.594,1001.0
613.124,1005.7
613.655,1007.3
614.185,1008.2
614.715,1003.4
615.245,1003.7
615.775,1001.5
616.305,1002.6
616.835,1003.35
617.365,1004.0
617.895,1002.05
618.425,998.45
618.954,1000.25
619.484,1004.75
620.013,999.8
620.543,998.3
621.072,996.75
621.602,998.5
622.131,1002.2
622.66,1009.0
623.189,1015.9
623.718,1007.85
624.247,1002.85
624.776,997.5
625.305,998.15
625.834,994.65
626.363,997.1
626.891,1001.3
627.42,1001.75
627.949,1016.7
628.477,1083.6
629.006,1064.4
629.534,1068.1
630.062,1073.7
630.591,1145.5
631.119,1560.15
631.647,1257.3
632.175,1134.85
632.703,1115.55
633.231,1212.25
633.759,1163.9
634.287,1067.1
634.815,1013.05
635.343,1000.65
635.871,990.25
636.398,989.75
636.926,989.95
637.454,983.95
637.981,984.8
638.509,980.45
639.036,983.2
639.564,977.4
640.091,981.0
640.618,979.1
641.146,980.1
641.673,979.55
642.2,977.5
642.727,976.75
643.254,972.55
643.781,972.0
644.308,969.95
644.835,967.9
645.362,966.4
645.889,967.4
646.416,964.4
646.942,965.75
647.469,964.6
647.996,964.5
648.522,965.05
649.049,962.0
649.576,963.0
650.102,959.65
650.629,957.85
651.155,960.0
651.682,959.7
652.208,959.85
652.734,955.7
653.261,956.6
653.787,960.3
654.313,955.85
654.839,954.75
655.365,955.65
655.892,953.85
656.418,952.7
656.944,958.25
657.47,955.0
657.996,955.5
658.522,954.55
659.048,954.15
659.574,954.9
660.099,950.4
660.625,953.05
661.151,952.35
661.677,949.75
662.203,948.25
662.728,945.9
663.123,945.55