File: spectra/VLFR_08-PLA_nobio_Raman_e5acd119.csv
nm,Intensity
526.486,829.0
527.033,828.6
527.579,831.4
528.126,829.9
528.672,828.3
529.219,829.4
529.765,830.9
530.311,828.6
530.857,828.6
531.403,828.6
531.948,833.3
532.494,831.8
533.039,828.2
533.585,830.3
534.13,1058.4
534.675,1003.2
535.22,956.2
535.764,940.2
536.309,926.7
536.854,928.0
537.398,914.1
537.942,912.4
538.486,905.3
539.03,899.0
539.574,893.4
540.118,888.7
540.662,909.3
541.205,907.7
541.749,895.6
542.292,891.8
542.835,893.7
543.378,920.8
543.921,929.8
544.464,905.5
545.006,892.9
545.549,889.0
546.091,884.0
546.634,886.4
547.176,884.5
547.718,884.8
548.26,883.0
548.802,887.2
549.343,891.6
549.885,891.0
550.426,891.1
550.968,891.8
551.509,894.9
552.05,897.4
552.591,901.5
553.132,901.1
553.673,894.8
554.214,907.7
554.754,900.3
555.295,892.2
555.835,886.1
556.375,891.4
556.915,893.7
557.455,911.0
557.995,1038.6
558.535,938.2
559.075,908.7
559.614,905.4
560.154,901.1
560.693,898.8
561.232,893.1
561.772,893.6
562.311,896.1
562.85,905.2
563.388,943.0
563.927,919.9
564.466,907.1
565.004,930.8
565.543,926.9
566.081,956.8
566.619,925.2
567.157,900.6
567.695,903.8
568.233,912.2
568.771,907.1
569.309,911.9
569.846,905.7
570.384,907.9
570.921,911.0
571.458,927.0
571.995,925.8
572.532,922.1
573.069,926.9
573.606,927.1
574.143,921.0
574.68,936.8
575.216,912.4
575.753,909.1
576.289,930.5
576.825,1003.8
577.361,942.5
577.897,912.5
578.433,910.4
578.969,911.5
579.505,911.2
580.041,906.8
580.576,909.7
581.112,910.8
581.647,909.8
582.183,912.7
582.718,912.6
583.253,915.0
583.788,911.5
584.323,915.9
584.858,913.6
585.392,917.6
585.927,917.4
586.462,927.1
586.996,971.3
587.53,999.8
588.065,946.0
588.599,916.9
589.133,918.0
589.667,914.4
590.201,913.2
590.735,914.8
591.268,914.0
591.802,914.5
592.335,914.6
592.869,911.6
593.402,911.2
593.936,917.3
594.469,912.7
595.002,915.8
595.535,913.4
596.068,912.9
596.601,914.4
597.133,914.9
597.666,916.1
598.199,916.0
598.731,916.9
599.264,920.1
599.796,919.1
600.328,915.6
600.86,915.8
601.393,913.4
601.925,917.9
602.457,916.6
602.988,917.4
603.52,920.8
604.052,915.2
604.583,915.3
605.115,915.4
605.646,914.7
606.178,915.1
606.709,917.7
607.24,914.8
607.771,917.1
608.302,914.3
608.833,915.1
609.364,915.0
609.895,915.5
610.426,916.9
610.957,918.7
611.487,915.7
612.018,919.3
612.548,918.0
613.078,917.6
613.609,919.6
614.139,923.0
614.669,916.8
615.199,918.6
615.729,923.0
616.259,918.9
616.789,920.8
617.319,919.3
617.849,920.4
618.378,917.6
618.908,921.1
619.437,925.1
619.967,918.5
620.496,919.0
621.025,922.1
621.555,921.8
622.084,919.7
622.613,933.0
623.142,937.4
623.671,931.3
624.2,925.0
624.729,923.6
625.258,919.4
625.786,923.0
626.315,921.7
626.844,921.5
627.372,924.9
627.901,936.8
628.429,1009.4
628.957,999.3
629.486,992.4
630.014,1005.9
630.542,1065.7
631.07,1503.9
631.598,1237.8
632.126,1077.4
632.654,1053.1
633.182,1154.8
633.71,1120.0
634.237,1008.0
634.765,943.6
635.293,930.8
635.82,921.6
636.348,920.1
636.875,914.7
637.403,916.6
637.93,912.7
638.458,913.7
638.985,911.1
639.512,916.1
640.039,913.5
640.566,910.8
641.093,913.4
641.62,912.5
642.147,911.6
642.674,910.3
643.201,905.5
643.728,909.1
644.255,903.5
644.781,903.0
645.308,903.6
645.835,905.0
646.361,901.9
646.888,902.8
647.414,900.9
647.941,901.8
648.467,899.9
648.993,900.1
649.52,899.8
650.046,900.6
650.572,897.6
651.098,900.3
651.625,895.6
652.151,896.0
652.677,898.5
653.203,898.0
653.729,898.5
654.255,898.9
654.78,897.8
655.306,892.9
655.832,897.7
656.358,896.0
656.884,898.6
657.409,896.5
657.935,892.9
658.461,895.3
658.986,894.8
659.512,894.4
660.037,894.8
660.563,893.4
661.088,892.4
661.614,891.8
662.139,893.9
662.664,892.4
663.058,889.5