File: spectra/VLFR_01-LDPE_nobio_Raman_391ad2c4.csv
cm-1,Intensity
-123.878,1852.35
-105.821,1852.95
-87.8007,1853.25
-69.8161,1852.85
-51.8675,1853.4
-33.9547,1853.35
-16.0776,1870.5
1.76388,2752.55
19.5698,1853.8
37.3403,1854.35
55.0755,1932.2
72.7754,2169.3
90.4402,2171.35
108.07,2183.2
125.665,2171.4
143.225,2157.7
160.75,2151.45
178.241,2149.2
195.697,2169.6
213.119,2166.05
230.506,2174.8
247.859,2185.8
265.178,2177.7
282.463,2191.5
299.713,2200.1
316.93,2214.8
334.113,2210.65
351.263,2220.55
368.379,2226.8
385.461,2222.75
402.51,2239.6
419.526,2238.55
436.508,2242.95
453.458,2241.65
470.374,2262.1
487.257,2263.3
504.107,2268.0
520.925,2267.85
537.71,2276.6
554.462,2289.05
571.182,2305.9
587.87,2301.6
604.525,2304.35
621.148,2301.0
637.739,2320.95
654.297,2334.5
670.824,2333.6
687.319,2338.45
703.782,2333.75
720.213,2348.1
736.613,2358.4
752.981,2355.05
769.317,2370.05
785.623,2366.25
801.897,2355.3
818.139,2364.85
834.351,2383.5
850.532,2387.75
866.681,2387.3
882.8,2407.45
898.888,2410.65
914.945,2406.95
930.972,2417.25
946.968,2416.35
962.934,2436.3
978.869,2426.4
994.774,2446.35
1010.65,2432.4
1026.49,2437.8
1042.31,2454.1
1058.09,2471.85
1073.85,2481.35
1089.57,2470.5
1105.27,2488.65
1120.93,2483.15
1136.57,2493.75
1152.18,2508.5
1167.75,2493.3
1183.3,2492.1
1198.82,2521.3
1214.31,2513.2
1229.77,2512.85
1245.2,2510.35
1260.6,2515.1
1275.97,2522.5
1291.32,2594.75
1306.63,2569.0
1321.92,2573.05
1337.18,2570.25
1352.41,2560.05
1367.61,2562.55
1382.78,2562.8
1397.93,2560.55
1413.05,2583.95
1428.14,2597.8
1443.2,2630.95
1458.23,2609.5
1473.23,2589.25
1488.21,2569.0
1503.16,2575.45
1518.08,2585.7
1532.97,2589.4
1547.84,2609.45
1562.68,2623.0
1577.49,2598.9
1592.27,2616.85
1607.03,2607.85
1621.76,2596.4
1636.46,2628.4
1651.14,2623.3
1665.78,2624.5
1680.41,2598.7
1695.0,2609.85
1709.57,2593.95
1724.11,2594.0
1738.62,2585.1
1753.11,2612.65
1767.57,2619.3
1782.01,2623.0
1796.41,2608.95
1810.8,2618.8
1825.15,2601.0
1839.48,2610.15
1853.79,2613.0
1868.06,2603.9
1882.31,2605.45
1896.54,2628.95
1910.74,2614.1
1924.91,2605.75
1939.06,2602.55
1953.19,2622.45
1967.28,2617.4
1981.35,2630.85
1995.4,2607.05
2009.42,2636.6
2023.42,2632.6
2037.39,2640.95
2051.33,2647.65
2065.25,2632.75
2079.15,2645.1
2093.01,2657.3
2106.86,2668.05
2120.68,2656.5
2134.47,2669.25
2148.24,2658.8
2161.99,2656.15
2175.71,2664.7
2189.41,2681.3
2203.08,2670.0
2216.73,2675.4
2230.35,2650.15
2243.95,2654.8
2257.52,2655.9
2271.07,2665.8
2284.6,2649.1
2298.1,2652.15
2311.58,2667.95
2325.03,2657.35
2338.46,2644.75
2351.87,2649.8
2365.25,2641.9
2378.61,2647.95
2391.94,2629.8
2405.26,2657.6
2418.54,2658.25
2431.81,2639.8
2445.05,2663.35
2458.27,2640.1
2471.46,2623.2
2484.63,2643.3
2497.78,2612.9
2510.9,2646.35
2524.0,2626.5
2537.08,2650.1
2550.14,2631.55
2563.17,2634.15
2576.18,2623.85
2589.17,2614.9
2602.13,2632.6
2615.07,2633.7
2627.99,2625.5
2640.89,2635.45
2653.76,2652.45
2666.61,2644.35
2679.44,2623.95
2692.25,2629.0
2705.03,2661.6
2717.79,2675.3
2730.53,2656.55
2743.25,2651.15
2755.94,2634.0
2768.61,2639.9
2781.27,2630.2
2793.89,2648.6
2806.5,2643.95
2819.09,2646.35
2831.65,2708.05
2844.19,2990.1
2856.71,2942.15
2869.21,2884.85
2881.69,3100.1
2894.14,2945.05
2906.58,2876.3
2918.99,2873.75
2931.38,2882.85
2943.75,2790.15
2956.1,2731.05
2968.42,2702.8
2980.73,2707.0
2993.01,2679.25
3005.28,2667.2
3017.52,2666.7
3029.74,2668.1
3041.94,2666.55
3054.12,2659.0
3066.28,2652.25
3078.42,2647.75
3090.54,2653.15
3102.63,2661.0
3114.71,2674.75
3126.77,2647.9
3138.8,2649.55
3150.82,2636.1
3162.81,2664.55
3174.78,2665.15
3186.74,2633.45
3198.67,2646.45
3210.58,2649.05
3222.47,2655.15
3234.35,2656.8
3246.2,2629.25
3258.03,2645.95
3269.84,2658.2
3281.64,2655.2
3293.41,2667.75
3305.16,2663.25
3316.89,2656.8
3328.61,2662.35
3340.3,2648.35
3351.97,2637.35
3363.63,2672.0
3375.26,2635.35
3386.88,2626.4
3398.47,2631.7
3410.05,2622.1
3421.6,2632.85
3433.14,2656.25
3444.66,2639.95
3456.15,2621.8
3467.63,2618.5
3479.09,2626.35
3490.53,2611.25
3501.96,2619.65
3513.36,2577.2
3524.74,2599.75
3536.11,2592.65
3547.45,2585.9
3558.78,2565.05
3570.09,2592.3
3581.37,2608.05
3592.64,2581.8
3603.9,2540.3
3615.13,2551.55
3626.34,2532.0
3637.54,2537.7
3648.72,2514.4
3659.87,2516.55
3665.45,2548.3