File: spectra/VLFR_08-PLA_bio_Raman_26a04790.csv
nm,Intensity
526.508,832.2
527.055,830.4
527.602,829.9
528.149,829.1
528.695,828.7
529.241,829.8
529.787,830.1
530.334,830.5
530.879,831.5
531.425,829.9
531.971,836.4
532.516,830.2
533.062,830.6
533.607,833.7
534.152,1081.4
534.697,1027.7
535.242,988.5
535.786,955.9
536.331,947.0
536.876,948.9
537.42,937.2
537.964,934.8
538.508,922.8
539.052,918.6
539.596,917.4
540.14,904.8
540.683,925.2
541.227,925.7
541.77,918.3
542.313,912.9
542.856,914.4
543.399,939.6
543.942,956.9
544.485,926.6
545.027,911.7
545.57,911.4
546.112,904.6
546.654,909.9
547.196,913.8
547.738,909.7
548.28,913.2
548.822,914.0
549.363,914.8
549.905,916.6
550.446,912.1
550.988,921.7
551.529,921.8
552.07,925.4
552.611,927.9
553.152,926.8
553.692,924.2
554.233,932.5
554.773,925.6
555.314,918.7
555.854,919.2
556.394,916.4
556.934,920.2
557.474,941.2
558.014,1089.6
558.553,966.8
559.093,934.9
559.632,933.4
560.172,925.9
560.711,920.9
561.25,922.5
561.789,923.6
562.328,924.6
562.867,935.3
563.406,980.9
563.944,948.6
564.483,934.1
565.021,967.5
565.559,958.3
566.098,998.7
566.636,953.8
567.174,931.7
567.711,937.8
568.249,938.3
568.787,940.1
569.324,940.2
569.862,936.6
570.399,937.3
570.936,940.1
571.474,960.2
572.011,957.6
572.548,955.3
573.084,955.8
573.621,961.9
574.158,951.9
574.694,968.0
575.231,942.6
575.767,938.2
576.303,963.0
576.84,1037.6
577.376,971.5
577.912,941.9
578.447,942.2
578.983,944.9
579.519,941.1
580.054,939.8
580.59,936.0
581.125,941.3
581.661,943.4
582.196,942.1
582.731,942.0
583.266,941.3
583.801,941.1
584.336,943.0
584.87,941.9
585.405,942.5
585.94,947.8
586.474,960.1
587.008,1002.2
587.543,1033.7
588.077,971.0
588.611,948.3
589.145,945.5
589.679,945.2
590.213,941.9
590.747,944.5
591.28,944.5
591.814,938.3
592.347,940.8
592.881,940.0
593.414,942.8
593.947,938.9
594.48,937.8
595.014,941.2
595.547,947.0
596.079,938.4
596.612,941.8
597.145,942.2
597.678,946.7
598.21,940.9
598.743,939.3
599.275,942.3
599.807,938.8
600.34,944.6
600.872,940.4
601.404,939.0
601.936,944.4
602.468,944.4
603.0,937.6
603.532,941.3
604.063,938.9
604.595,941.1
605.126,937.2
605.658,934.6
606.189,938.0
606.721,939.2
607.252,936.6
607.783,933.6
608.314,935.8
608.845,936.8
609.376,939.6
609.907,935.0
610.438,934.4
610.968,932.5
611.499,936.0
612.03,934.2
612.56,937.4
613.091,941.3
613.621,940.7
614.151,933.0
614.681,943.0
615.212,939.9
615.742,938.8
616.272,938.5
616.802,936.0
617.332,936.0
617.861,933.2
618.391,939.4
618.921,936.8
619.45,936.0
619.98,932.7
620.509,932.5
621.039,931.6
621.568,934.3
622.097,937.4
622.627,947.7
623.156,952.4
623.685,950.5
624.214,940.3
624.743,934.7
625.272,936.9
625.801,937.9
626.33,937.7
626.858,934.6
627.387,938.6
627.916,953.9
628.444,1034.2
628.973,1018.8
629.501,1020.8
630.029,1024.5
630.558,1096.3
631.086,1570.9
631.614,1259.4
632.142,1100.3
632.67,1065.9
633.198,1182.1
633.726,1144.2
634.254,1023.9
634.782,957.9
635.31,940.1
635.838,936.8
636.365,932.1
636.893,928.5
637.421,920.5
637.948,930.2
638.476,924.7
639.003,926.3
639.531,925.2
640.058,922.6
640.585,923.0
641.113,923.0
641.64,925.7
642.167,927.5
642.694,924.0
643.221,918.8
643.748,918.9
644.275,917.0
644.802,915.6
645.329,912.7
645.856,914.4
646.382,911.8
646.909,913.6
647.436,912.1
647.962,913.4
648.489,914.2
649.016,906.7
649.542,906.2
650.069,910.1
650.595,909.2
651.121,906.7
651.648,905.7
652.174,908.2
652.7,912.0
653.227,910.6
653.753,907.6
654.279,906.7
654.805,905.6
655.331,904.9
655.857,909.7
656.383,906.3
656.909,905.2
657.435,910.8
657.961,906.0
658.487,906.4
659.013,904.5
659.538,905.8
660.064,903.4
660.59,906.4
661.116,900.1
661.641,900.0
662.167,901.4
662.692,897.5
663.087,898.9