File: spectra/VLFR_08-PLA_bio_Raman_4ab6e509.csv
nm,Intensity
526.508,830.7
527.055,830.1
527.602,831.2
528.149,830.2
528.695,830.8
529.241,828.2
529.787,829.0
530.334,830.0
530.879,828.2
531.425,830.3
531.971,835.0
532.516,830.6
533.062,830.6
533.607,830.4
534.152,1119.2
534.697,1057.7
535.242,1001.7
535.786,978.2
536.331,971.9
536.876,975.2
537.42,958.6
537.964,960.5
538.508,950.2
539.052,944.2
539.596,941.9
540.14,930.7
540.683,955.4
541.227,959.1
541.77,947.4
542.313,940.7
542.856,939.2
543.399,966.9
543.942,986.9
544.485,958.5
545.027,938.4
545.57,935.7
546.112,937.1
546.654,939.2
547.196,939.5
547.738,939.8
548.28,939.4
548.822,945.0
549.363,946.8
549.905,947.4
550.446,942.5
550.988,952.6
551.529,956.2
552.07,959.2
552.611,961.8
553.152,963.4
553.692,960.7
554.233,968.7
554.773,959.4
555.314,952.7
555.854,949.4
556.394,949.9
556.934,954.3
557.474,978.4
558.014,1124.3
558.553,1002.1
559.093,972.2
559.632,970.8
560.172,961.1
560.711,961.4
561.25,955.3
561.789,960.3
562.328,960.5
562.867,975.6
563.406,1013.0
563.944,986.4
564.483,973.3
565.021,1004.9
565.559,999.5
566.098,1028.7
566.636,995.5
567.174,966.6
567.711,975.5
568.249,977.6
568.787,980.0
569.324,980.1
569.862,977.8
570.399,978.9
570.936,978.2
571.474,995.9
572.011,1004.6
572.548,991.9
573.084,993.8
573.621,998.1
574.158,996.9
574.694,1007.4
575.231,982.1
575.767,986.1
576.303,1003.0
576.84,1083.0
577.376,1011.6
577.912,988.6
578.447,986.3
578.983,986.1
579.519,984.6
580.054,985.1
580.59,982.2
581.125,983.4
581.661,979.2
582.196,982.9
582.731,992.4
583.266,988.1
583.801,988.8
584.336,991.7
584.87,992.6
585.405,990.8
585.94,987.9
586.474,1006.6
587.008,1053.4
587.543,1086.2
588.077,1024.0
588.611,994.7
589.145,992.8
589.679,991.8
590.213,989.2
590.747,984.8
591.28,991.5
591.814,987.0
592.347,988.1
592.881,988.1
593.414,985.9
593.947,984.6
594.48,986.2
595.014,987.5
595.547,991.7
596.079,988.9
596.612,991.5
597.145,990.9
597.678,988.6
598.21,991.4
598.743,991.4
599.275,993.0
599.807,990.7
600.34,986.3
600.872,987.3
601.404,986.7
601.936,989.2
602.468,988.2
603.0,987.5
603.532,990.0
604.063,986.5
604.595,988.3
605.126,985.7
605.658,985.4
606.189,982.3
606.721,980.2
607.252,978.4
607.783,983.0
608.314,981.8
608.845,980.1
609.376,985.5
609.907,987.1
610.438,978.9
610.968,981.3
611.499,983.6
612.03,979.6
612.56,979.8
613.091,985.8
613.621,985.0
614.151,987.4
614.681,985.3
615.212,983.0
615.742,984.7
616.272,985.8
616.802,985.5
617.332,983.0
617.861,982.0
618.391,986.8
618.921,984.9
619.45,987.4
619.98,986.9
620.509,981.1
621.039,982.4
621.568,982.1
622.097,984.9
622.627,997.5
623.156,1002.6
623.685,996.7
624.214,988.8
624.743,994.1
625.272,984.2
625.801,981.3
626.33,980.1
626.858,981.5
627.387,981.9
627.916,992.8
628.444,1076.1
628.973,1061.3
629.501,1059.6
630.029,1064.2
630.558,1140.7
631.086,1618.0
631.614,1309.4
632.142,1141.7
632.67,1119.9
633.198,1230.0
633.726,1191.6
634.254,1071.2
634.782,1009.1
635.31,984.1
635.838,977.6
636.365,972.7
636.893,970.0
637.421,966.4
637.948,968.1
638.476,966.5
639.003,968.3
639.531,965.5
640.058,966.1
640.585,965.1
641.113,970.1
641.64,967.6
642.167,965.9
642.694,967.1
643.221,960.3
643.748,961.4
644.275,957.9
644.802,959.3
645.329,955.2
645.856,954.2
646.382,955.6
646.909,954.8
647.436,953.1
647.962,953.7
648.489,949.2
649.016,946.2
649.542,950.5
650.069,947.7
650.595,946.3
651.121,944.8
651.648,946.1
652.174,948.1
652.7,946.4
653.227,943.4
653.753,948.7
654.279,944.7
654.805,945.4
655.331,943.6
655.857,942.2
656.383,943.7
656.909,944.7
657.435,943.0
657.961,940.0
658.487,942.3
659.013,941.2
659.538,939.3
660.064,939.0
660.59,939.1
661.116,940.0
661.641,934.9
662.167,932.1
662.692,934.3
663.087,932.7