File: spectra/VLFR_02-HDPE_bio_Raman_c79676bd.csv
nm,Intensity
526.494,834.2
527.041,834.7
527.588,834.2
528.135,833.1
528.682,834.7
529.229,834.2
529.775,835.7
530.321,835.0
530.868,833.8
531.414,834.0
531.96,850.3
532.506,836.4
533.051,834.7
533.597,834.9
534.142,854.7
534.687,857.0
535.232,854.6
535.777,853.0
536.322,849.7
536.867,850.3
537.411,849.2
537.956,850.0
538.5,850.5
539.044,852.4
539.588,851.7
540.132,849.6
540.676,849.7
541.22,848.6
541.763,849.5
542.306,850.8
542.85,849.0
543.393,848.6
543.936,851.2
544.479,851.1
545.021,854.3
545.564,853.6
546.106,851.6
546.649,852.1
547.191,850.4
547.733,851.1
548.275,851.6
548.817,852.6
549.359,849.8
549.9,853.5
550.442,853.9
550.983,856.5
551.524,852.3
552.066,851.6
552.607,850.2
553.148,850.8
553.688,851.6
554.229,849.5
554.77,853.1
555.31,851.8
555.85,851.7
556.39,851.5
556.931,851.6
557.471,853.6
558.01,852.4
558.55,852.8
559.09,852.4
559.629,853.1
560.169,851.1
560.708,854.0
561.247,853.8
561.786,854.7
562.325,857.9
562.864,876.8
563.403,878.1
563.941,859.4
564.48,855.8
565.018,856.5
565.557,854.5
566.095,864.9
566.633,858.2
567.171,854.8
567.709,858.2
568.247,858.2
568.784,856.6
569.322,853.8
569.859,856.0
570.397,857.5
570.934,857.9
571.471,863.1
572.008,855.9
572.545,856.4
573.082,857.5
573.619,855.9
574.155,858.2
574.692,856.3
575.228,858.8
575.765,862.8
576.301,865.2
576.837,863.4
577.373,863.1
577.909,860.0
578.445,857.4
578.981,859.1
579.516,859.7
580.052,859.9
580.587,859.6
581.123,862.7
581.658,860.4
582.193,860.3
582.728,860.6
583.263,860.6
583.798,863.0
584.333,862.5
584.868,863.0
585.402,863.7
585.937,862.7
586.471,862.2
587.005,866.9
587.54,864.0
588.074,868.5
588.608,865.6
589.142,864.5
589.676,865.7
590.21,866.4
590.743,867.6
591.277,865.7
591.81,869.5
592.344,868.8
592.877,868.3
593.411,869.5
593.944,869.3
594.477,869.0
595.01,869.0
595.543,870.2
596.076,872.4
596.608,870.5
597.141,872.4
597.674,870.5
598.206,873.5
598.739,874.5
599.271,874.9
599.803,872.7
600.335,875.1
600.868,874.2
601.4,873.8
601.931,877.0
602.463,877.2
602.995,875.5
603.527,875.5
604.058,874.6
604.59,874.3
605.121,872.2
605.653,872.7
606.184,873.1
606.715,871.8
607.246,872.2
607.778,868.9
608.309,870.6
608.839,875.6
609.37,869.9
609.901,872.8
610.432,868.0
610.962,872.0
611.493,872.6
612.023,869.0
612.554,870.0
613.084,871.6
613.614,870.8
614.145,871.2
614.675,871.3
615.205,873.5
615.735,872.2
616.265,872.4
616.795,867.5
617.324,871.5
617.854,870.4
618.384,871.3
618.913,870.4
619.443,870.9
619.972,870.3
620.502,867.6
621.031,870.3
621.56,868.9
622.089,870.0
622.618,872.6
623.147,871.3
623.676,871.3
624.205,871.7
624.734,869.8
625.263,871.9
625.792,868.1
626.32,870.2
626.849,891.5
627.377,922.6
627.906,899.3
628.434,916.1
628.963,898.8
629.491,894.3
630.019,888.3
630.547,884.2
631.076,875.8
631.604,870.7
632.132,868.0
632.66,870.2
633.188,869.8
633.715,866.7
634.243,865.9
634.771,866.0
635.299,864.5
635.826,868.2
636.354,868.6
636.881,867.1
637.409,868.0
637.936,865.6
638.464,870.3
638.991,867.6
639.518,868.0
640.045,866.3
640.573,869.4
641.1,868.4
641.627,869.6
642.154,868.1
642.681,868.8
643.208,871.0
643.735,869.9
644.261,872.6
644.788,871.0
645.315,868.9
645.842,868.5
646.368,870.6
646.895,871.4
647.421,870.7
647.948,871.8
648.474,870.8
649.001,873.0
649.527,871.4
650.054,874.8
650.58,870.7
651.106,873.1
651.633,871.3
652.159,870.2
652.685,873.0
653.211,872.9
653.737,871.4
654.263,868.8
654.789,868.9
655.315,868.4
655.841,868.4
656.367,865.5
656.893,867.5
657.419,866.5
657.945,866.0
658.47,865.9
658.996,867.0
659.522,864.0
660.047,864.9
660.573,863.3
661.099,862.0
661.624,864.0
662.15,862.6
662.675,861.8
663.07,860.8