File: spectra/VLFR_01-LDPE_nobio_Raman_23469f09.csv
nm,Intensity
526.486,831.1
527.033,829.4
527.579,830.6
528.126,830.8
528.672,828.8
529.219,830.0
529.765,829.8
530.311,830.1
530.857,829.9
531.403,831.2
531.948,835.6
532.494,832.7
533.039,830.3
533.585,830.6
534.13,917.9
534.675,903.9
535.22,889.2
535.764,872.2
536.309,865.5
536.854,861.1
537.398,858.1
537.942,858.7
538.486,854.6
539.03,853.8
539.574,847.6
540.118,848.9
540.662,846.6
541.205,849.2
541.749,846.5
542.292,846.6
542.835,844.8
543.378,844.6
543.921,846.3
544.464,842.8
545.006,844.1
545.549,841.2
546.091,843.4
546.634,844.2
547.176,843.9
547.718,842.4
548.26,842.0
548.802,842.2
549.343,841.4
549.885,840.6
550.426,843.7
550.968,840.2
551.509,841.2
552.05,841.0
552.591,842.6
553.132,842.5
553.673,844.3
554.214,845.8
554.754,847.4
555.295,844.9
555.835,848.3
556.375,849.6
556.915,851.6
557.455,855.5
557.995,853.6
558.535,857.1
559.075,853.5
559.614,853.4
560.154,850.8
560.693,850.4
561.232,849.7
561.772,850.6
562.311,854.2
562.85,858.0
563.388,863.7
563.927,914.1
564.466,885.5
565.004,874.7
565.543,866.9
566.081,922.5
566.619,872.2
567.157,865.0
567.695,871.5
568.233,858.7
568.771,859.5
569.309,857.9
569.846,862.8
570.384,866.0
570.921,875.6
571.458,961.6
571.995,913.1
572.532,883.2
573.069,873.4
573.606,874.8
574.143,886.8
574.68,873.1
575.216,880.5
575.753,926.4
576.289,1042.9
576.825,987.5
577.361,955.6
577.897,908.4
578.433,905.7
578.969,909.9
579.505,914.5
580.041,917.9
580.576,925.1
581.112,931.6
581.647,939.7
582.183,943.5
582.718,947.8
583.253,953.9
583.788,955.9
584.323,967.3
584.858,973.4
585.392,972.9
585.927,982.6
586.462,989.0
586.996,1002.3
587.53,1012.1
588.065,1006.6
588.599,1024.6
589.133,1026.0
589.667,1036.3
590.201,1038.9
590.735,1047.1
591.268,1054.0
591.802,1057.3
592.335,1058.5
592.869,1064.3
593.402,1064.4
593.936,1065.5
594.469,1066.1
595.002,1076.2
595.535,1085.2
596.068,1086.3
596.601,1092.4
597.133,1102.1
597.666,1114.2
598.199,1118.6
598.731,1132.8
599.264,1139.0
599.796,1145.3
600.328,1143.2
600.86,1136.2
601.393,1137.7
601.925,1132.7
602.457,1133.0
602.988,1133.5
603.52,1118.3
604.052,1106.6
604.583,1099.4
605.115,1084.5
605.646,1072.4
606.178,1064.8
606.709,1052.9
607.24,1044.7
607.771,1033.3
608.302,1029.1
608.833,1024.5
609.364,1013.6
609.895,1006.5
610.426,1005.0
610.957,1000.0
611.487,999.7
612.018,1000.4
612.548,996.4
613.078,993.8
613.609,989.3
614.139,983.4
614.669,980.6
615.199,975.6
615.729,974.4
616.259,970.9
616.789,971.9
617.319,976.8
617.849,974.3
618.378,971.4
618.908,968.7
619.437,975.9
619.967,975.7
620.496,965.2
621.025,972.3
621.555,980.9
622.084,1011.1
622.613,1010.6
623.142,973.5
623.671,960.9
624.2,963.9
624.729,958.1
625.258,967.9
625.786,968.5
626.315,1003.5
626.844,1255.2
627.372,1825.9
627.901,1481.9
628.429,1692.0
628.957,1535.3
629.486,1402.6
630.014,1276.7
630.542,1251.1
631.07,1105.5
631.598,1010.6
632.126,982.9
632.654,966.5
633.182,958.8
633.71,954.8
634.237,954.4
634.765,953.8
635.293,949.4
635.82,948.0
636.348,949.4
636.875,947.8
637.403,950.8
637.93,948.1
638.458,942.6
638.985,946.9
639.512,949.2
640.039,948.9
640.566,950.8
641.093,952.8
641.62,948.5
642.147,951.7
642.674,951.1
643.201,955.5
643.728,956.8
644.255,950.8
644.781,952.1
645.308,955.6
645.835,953.8
646.361,956.1
646.888,953.9
647.414,954.0
647.941,954.9
648.467,960.2
648.993,955.1
649.52,954.9
650.046,952.3
650.572,959.6
651.098,958.0
651.625,961.4
652.151,958.6
652.677,962.3
653.203,959.5
653.729,966.3
654.255,963.6
654.78,962.2
655.306,958.5
655.832,960.5
656.358,954.9
656.884,955.8
657.409,951.9
657.935,950.4
658.461,950.9
658.986,946.8
659.512,943.6
660.037,940.8
660.563,933.7
661.088,932.3
661.614,928.2
662.139,921.0
662.664,922.9
663.058,913.7