File: spectra/VLFR_06-PET_bio_Raman_d04bf745.csv
nm,Intensity
526.493,829.05
527.039,828.55
527.586,829.0
528.133,828.6
528.679,828.8
529.225,830.05
529.771,829.4
530.317,829.1
530.863,829.4
531.409,828.05
531.955,830.55
532.5,828.95
533.046,828.75
533.591,835.3
534.136,1716.6
534.681,1467.05
535.226,1224.75
535.771,1081.05
536.315,992.9
536.86,949.15
537.404,937.6
537.948,926.75
538.493,934.45
539.037,932.25
539.58,939.1
540.124,943.2
540.668,913.95
541.211,906.95
541.755,900.95
542.298,901.7
542.841,902.2
543.384,898.7
543.927,907.65
544.47,902.25
545.013,904.15
545.555,904.3
546.098,906.45
546.64,908.65
547.182,910.75
547.724,911.0
548.266,908.2
548.808,910.6
549.35,913.25
549.892,914.0
550.433,924.15
550.974,929.0
551.516,921.15
552.057,922.4
552.598,924.4
553.139,932.4
553.68,922.0
554.22,924.2
554.761,923.65
555.301,934.1
555.842,966.05
556.382,969.9
556.922,974.6
557.462,1061.95
558.002,991.05
558.542,983.75
559.082,959.6
559.621,941.1
560.161,938.0
560.7,937.0
561.239,943.55
561.778,946.45
562.317,958.55
562.856,968.0
563.395,967.45
563.934,958.8
564.472,964.85
565.011,992.8
565.549,1031.05
566.088,1038.55
566.626,975.5
567.164,962.95
567.702,1014.95
568.24,974.6
568.777,969.25
569.315,973.45
569.853,991.2
570.39,1021.4
570.927,1104.7
571.465,1176.6
572.002,1074.35
572.539,1007.35
573.076,990.35
573.612,990.95
574.149,1009.7
574.686,999.3
575.222,1010.15
575.759,1000.45
576.295,1015.55
576.831,1023.35
577.367,1005.35
577.903,996.2
578.439,997.85
578.975,996.0
579.511,1002.7
580.046,999.65
580.582,1006.15
581.117,1019.65
581.653,1068.45
582.188,1829.95
582.723,1051.65
583.258,1020.6
583.793,1016.9
584.328,1021.2
584.863,1028.8
585.398,1086.55
585.932,1426.05
586.467,1274.05
587.001,1059.4
587.535,1031.35
588.07,1025.75
588.604,1022.0
589.138,1023.2
589.672,1023.35
590.206,1022.25
590.739,1023.45
591.273,1023.95
591.807,1023.9
592.34,1021.4
592.873,1025.4
593.407,1022.6
593.94,1024.6
594.473,1028.35
595.006,1027.85
595.539,1028.85
596.072,1030.8
596.605,1031.8
597.138,1030.9
597.67,1029.55
598.203,1033.75
598.735,1031.65
599.268,1037.45
599.8,1035.95
600.332,1032.05
600.865,1039.3
601.397,1035.85
601.929,1033.1
602.46,1034.95
602.992,1036.05
603.524,1038.05
604.056,1044.6
604.587,1039.45
605.119,1037.7
605.65,1031.8
606.182,1033.85
606.713,1030.15
607.244,1033.6
607.775,1033.65
608.306,1032.8
608.837,1035.6
609.368,1034.85
609.899,1033.4
610.43,1039.3
610.961,1036.75
611.491,1040.1
612.022,1039.35
612.552,1039.65
613.083,1049.9
613.613,1046.8
614.143,1045.2
614.673,1046.2
615.203,1044.4
615.734,1046.5
616.263,1043.5
616.793,1050.6
617.323,1051.25
617.853,1055.0
618.383,1058.1
618.912,1050.3
619.442,1052.45
619.971,1051.45
620.501,1053.4
621.03,1049.5
621.56,1054.4
622.089,1052.6
622.618,1053.85
623.147,1057.05
623.676,1058.05
624.205,1058.25
624.734,1065.95
625.263,1066.7
625.792,1062.1
626.321,1067.35
626.849,1065.5
627.378,1064.25
627.906,1068.95
628.435,1078.1
628.963,1096.1
629.492,1096.3
630.02,1093.55
630.548,1096.45
631.077,1132.3
631.605,1208.4
632.133,1202.6
632.661,1151.2
633.189,1141.35
633.717,1132.7
634.245,1114.5
634.773,1105.1
635.3,1109.35
635.828,1146.2
636.356,1213.7
636.883,1223.8
637.411,1134.9
637.938,1121.1
638.466,1113.35
638.993,1114.75
639.521,1113.25
640.048,1115.8
640.575,1111.65
641.103,1116.5
641.63,1122.0
642.157,1125.3
642.684,1125.75
643.211,1118.1
643.738,1118.3
644.265,1114.0
644.792,1113.6
645.319,1112.1
645.845,1119.25
646.372,1120.55
646.899,1125.7
647.425,1126.7
647.952,1131.9
648.479,1126.65
649.005,1117.1
649.532,1127.85
650.058,1123.35
650.585,1126.45
651.111,1125.8
651.637,1126.15
652.164,1132.7
652.69,1125.0
653.216,1127.2
653.742,1126.4
654.268,1129.6
654.794,1123.9
655.32,1124.2
655.846,1125.8
656.372,1124.35
656.898,1122.05
657.424,1127.45
657.95,1123.55
658.476,1130.0
659.002,1122.85
659.528,1123.3
660.053,1126.45
660.579,1122.85
661.105,1122.3
661.63,1121.55
662.156,1115.25
662.681,1118.7
663.076,1117.45