File: spectra/VLFR_06-PET_bio_Raman_579f4fae.csv
nm,Intensity
528.626,1864.5
529.132,1865.2
529.637,1866.1
530.143,1864.6
530.648,1865.4
531.153,1867.9
531.658,1930.3
532.164,5216.1
532.669,1869.5
533.174,1882.5
533.679,3853.5
534.184,8906.4
534.689,6841.3
535.194,5343.0
535.699,4092.4
536.203,3260.8
536.708,3026.4
537.213,2922.0
537.717,2838.6
538.222,2831.2
538.726,2869.3
539.231,2855.4
539.735,3043.8
540.239,2904.5
540.744,2707.1
541.248,2652.9
541.752,2647.1
542.256,2622.7
542.76,2619.5
543.264,2620.2
543.768,2674.3
544.272,2640.4
544.776,2662.4
545.28,2692.7
545.784,2690.1
546.287,2689.1
546.791,2680.3
547.294,2733.0
547.798,2733.8
548.301,2738.3
548.805,2765.2
549.308,2771.6
549.811,2727.8
550.315,2889.9
550.818,3401.7
551.321,2789.5
551.824,2846.7
552.327,2878.7
552.83,3314.8
553.333,2886.1
553.835,2889.7
554.338,2911.4
554.841,2952.8
555.343,3136.7
555.846,3469.6
556.349,3500.6
556.851,3632.9
557.353,4491.3
557.856,4048.4
558.358,3728.7
558.86,3516.6
559.362,3202.0
559.864,3129.8
560.366,3134.6
560.868,3189.8
561.37,3258.4
561.872,3270.6
562.374,3444.3
562.876,3524.8
563.377,3456.6
563.879,3326.6
564.38,3403.1
564.882,3794.7
565.383,4239.4
565.885,4648.6
566.386,3813.9
566.887,3540.0
567.388,3748.9
567.889,3941.2
568.391,3565.9
568.892,3528.9
569.392,3666.4
569.893,3891.5
570.394,4306.1
570.895,5344.8
571.395,6286.8
571.896,5027.9
572.397,4179.0
572.897,3850.2
573.397,3831.6
573.898,3994.7
574.398,3877.1
574.898,3974.0
575.398,4290.2
575.898,3969.7
576.398,4298.4
576.898,4259.8
577.398,4015.5
577.898,3948.8
578.398,3967.0
578.897,3992.0
579.397,3977.9
579.896,3981.7
580.396,4078.0
580.895,4243.0
581.395,4554.0
581.894,8758.6
582.393,8456.4
582.892,4336.6
583.391,4190.3
583.89,4250.7
584.389,4332.0
584.888,4446.8
585.387,5629.5
585.886,9222.7
586.384,7486.4
586.883,4782.6
587.381,4414.7
587.88,4337.1
588.378,4361.8
588.876,4319.6
589.375,4339.8
589.873,4289.3
590.371,4290.1
590.869,4392.3
591.367,4311.4
591.865,4378.3
592.363,4404.6
592.86,4477.6
593.358,4341.7
593.856,4413.4
594.353,4418.8
594.851,4412.6
595.348,4480.8
595.845,4505.9
596.342,4509.1
596.84,4603.2
597.337,4560.7
597.834,4626.2
598.331,4602.3
598.828,4601.8
599.324,4697.0
599.821,4661.8
600.318,4711.6
600.814,4723.3
601.311,4739.4
601.807,4776.8
602.304,4800.2
602.8,4811.4
603.296,4768.0
603.792,4835.0
604.288,4982.7
604.784,4934.7
605.28,4845.2
605.776,4969.6
606.272,4972.7
606.767,4924.2
607.263,5031.9
607.759,4979.5
608.254,4982.9
608.749,5104.0
609.245,5039.5
609.74,5104.9
610.235,5180.8
610.73,5134.5
611.225,5203.3
611.72,5260.0
612.215,5124.7
612.71,5153.4
613.204,5227.1
613.699,5163.4
614.194,5252.0
614.688,5236.8
615.182,5272.2
615.677,5229.4
616.171,5356.1
616.665,5368.0
617.159,5301.6
617.653,5327.1
618.147,5463.1
618.641,5337.9
619.135,5392.6
619.628,5338.8
620.122,5348.2
620.615,5281.5
621.109,5293.7
621.602,5384.4
622.095,5296.2
622.589,5292.9
623.082,5415.3
623.575,5404.9
624.068,5394.0
624.561,5475.1
625.053,5553.2
625.546,5444.9
626.039,5468.1
626.531,5365.9
627.024,5377.3
627.516,5426.8
628.008,5512.8
628.501,5617.8
628.993,5789.6
629.485,5700.3
629.977,5728.4
630.469,5637.9
630.96,6026.6
631.452,6805.2
631.944,7040.4
632.435,6620.1
632.927,6192.2
633.418,6229.8
633.91,5943.8
634.401,5768.1
634.892,5740.8
635.383,5808.8
635.874,6373.2
636.365,7381.3
636.856,6998.5
637.346,6125.4
637.837,5698.1
638.327,5831.0
638.818,5757.1
639.308,5610.9
639.799,5605.8
640.289,5674.2
640.779,5632.5
641.269,5624.8
641.759,5732.6
642.249,5837.5
642.738,5768.5
643.228,5556.5
643.718,5736.3
644.207,5651.8
644.697,5522.2
645.186,5711.6
645.675,5712.0
646.164,5564.7
646.653,5576.4
647.142,5513.0
647.631,5686.9
648.12,5658.7
648.609,5509.3
649.098,5728.4
649.586,5459.5
650.075,5316.4
650.563,5457.0
651.051,5380.8
651.539,5610.1
652.027,5515.6
652.515,5458.0
653.003,5281.3
653.491,5355.2
653.979,5332.1
654.467,5239.3
654.954,5165.3
655.442,5412.8
655.929,5294.1
656.416,5157.9
656.904,5173.2
657.391,5125.5
657.878,5041.1
658.365,5035.1
658.851,5188.6
659.338,4867.1
659.825,4997.5
660.311,4944.8
660.798,4966.2
661.041,4934.3