File: spectra/VLFR_06-PET_nobio_Raman_3d2f4cbd.csv
nm,Intensity
526.5,829.2
527.047,827.9
527.594,828.7
528.14,827.6
528.687,827.8
529.233,827.9
529.779,826.8
530.325,828.5
530.871,829.2
531.417,829.0
531.962,836.2
532.508,830.0
533.053,829.6
533.599,833.9
534.144,1519.2
534.689,1320.0
535.234,1141.6
535.778,1031.1
536.323,964.3
536.867,939.0
537.412,931.2
537.956,925.3
538.5,929.1
539.044,927.9
539.588,937.0
540.132,941.6
540.675,917.9
541.219,912.1
541.762,913.9
542.305,910.0
542.848,915.1
543.391,912.7
543.934,919.6
544.477,918.7
545.02,917.8
545.562,922.3
546.105,925.7
546.647,925.6
547.189,927.5
547.731,928.3
548.273,932.7
548.815,933.7
549.356,931.3
549.898,937.5
550.439,948.7
550.981,945.4
551.522,939.2
552.063,947.9
552.604,952.5
553.145,963.2
553.686,958.3
554.226,955.2
554.767,954.9
555.307,962.9
555.848,988.5
556.388,994.8
556.928,1004.1
557.468,1077.2
558.008,1017.2
558.547,1012.3
559.087,992.0
559.626,977.9
560.166,976.3
560.705,983.5
561.244,984.4
561.783,982.5
562.322,1002.7
562.861,1000.4
563.4,1015.2
563.939,1007.4
564.477,1017.0
565.015,1040.5
565.554,1077.2
566.092,1076.0
566.63,1025.6
567.168,1018.7
567.706,1062.6
568.244,1029.7
568.781,1033.2
569.319,1038.9
569.857,1049.2
570.394,1075.0
570.931,1157.2
571.468,1210.5
572.005,1135.0
572.542,1074.1
573.079,1061.8
573.616,1068.4
574.153,1084.3
574.689,1079.5
575.226,1088.0
575.762,1075.9
576.298,1093.4
576.834,1109.0
577.371,1088.7
577.907,1087.7
578.442,1096.5
578.978,1087.6
579.514,1091.0
580.049,1092.4
580.585,1101.1
581.12,1119.6
581.656,1168.6
582.191,1831.6
582.726,1149.5
583.261,1122.2
583.796,1123.5
584.331,1130.8
584.865,1140.0
585.4,1197.0
585.935,1489.8
586.469,1349.3
587.004,1174.7
587.538,1150.4
588.072,1142.8
588.606,1143.4
589.14,1142.0
589.674,1136.0
590.208,1142.2
590.742,1142.3
591.275,1148.3
591.809,1152.6
592.342,1150.4
592.876,1142.4
593.409,1153.2
593.942,1147.3
594.476,1155.0
595.009,1160.1
595.542,1166.2
596.075,1165.8
596.607,1171.6
597.14,1165.4
597.673,1170.8
598.205,1172.4
598.738,1173.1
599.27,1180.7
599.803,1180.1
600.335,1177.8
600.867,1180.1
601.399,1176.8
601.931,1177.5
602.463,1173.6
602.995,1178.4
603.527,1188.4
604.058,1185.7
604.59,1186.7
605.122,1179.8
605.653,1173.2
606.184,1174.2
606.716,1170.5
607.247,1176.5
607.778,1181.0
608.309,1174.0
608.84,1188.2
609.371,1193.9
609.902,1183.9
610.433,1187.6
610.964,1183.7
611.494,1191.1
612.025,1197.5
612.556,1196.1
613.086,1198.1
613.616,1205.3
614.147,1201.3
614.677,1213.4
615.207,1203.5
615.737,1210.2
616.267,1206.7
616.797,1206.8
617.327,1223.4
617.857,1223.2
618.387,1226.3
618.917,1228.8
619.446,1221.8
619.976,1224.5
620.505,1224.9
621.035,1222.7
621.564,1227.8
622.093,1230.2
622.623,1236.7
623.152,1239.5
623.681,1246.2
624.21,1248.2
624.739,1259.8
625.268,1256.0
625.797,1249.9
626.326,1257.8
626.855,1259.7
627.383,1260.8
627.912,1267.4
628.441,1285.3
628.969,1304.8
629.498,1307.7
630.026,1298.7
630.554,1308.6
631.083,1352.3
631.611,1439.1
632.139,1437.9
632.667,1377.2
633.195,1373.2
633.724,1350.6
634.252,1349.0
634.779,1342.7
635.307,1353.0
635.835,1396.2
636.363,1478.3
636.891,1469.0
637.418,1392.7
637.946,1376.1
638.474,1361.7
639.001,1376.3
639.529,1376.5
640.056,1367.5
640.583,1389.5
641.111,1388.8
641.638,1401.2
642.165,1405.6
642.692,1398.4
643.22,1399.0
643.747,1404.7
644.274,1396.5
644.801,1410.5
645.328,1402.1
645.854,1409.4
646.381,1406.0
646.908,1418.5
647.435,1427.4
647.962,1423.0
648.488,1427.5
649.015,1423.1
649.542,1419.0
650.068,1421.1
650.595,1428.2
651.121,1426.6
651.648,1426.1
652.174,1434.0
652.7,1440.2
653.227,1438.0
653.753,1442.3
654.279,1438.8
654.805,1446.2
655.331,1446.7
655.858,1439.2
656.384,1445.4
656.91,1457.6
657.436,1450.2
657.962,1451.1
658.488,1460.5
659.013,1456.5
659.539,1450.0
660.065,1457.5
660.591,1454.5
661.117,1452.7
661.642,1449.6
662.168,1444.2
662.694,1437.4
663.088,1441.3