File: spectra/VLFR_08-PLA_nobio_Raman_f4bff320.csv
nm,Intensity
526.547,833.1
527.094,832.4
527.641,832.6
528.188,833.2
528.734,832.2
529.281,832.1
529.827,832.0
530.373,832.5
530.92,832.4
531.466,831.9
532.011,838.9
532.557,830.3
533.103,831.7
533.648,835.4
534.193,1033.8
534.738,1004.5
535.283,981.3
535.828,966.7
536.373,968.7
536.917,963.9
537.462,964.1
538.006,963.4
538.55,955.7
539.094,956.7
539.638,954.7
540.182,956.2
540.726,962.6
541.269,965.6
541.812,966.3
542.356,964.9
542.899,961.6
543.442,986.1
543.985,989.4
544.527,977.1
545.07,966.0
545.612,962.7
546.155,970.4
546.697,968.9
547.239,975.4
547.781,970.2
548.323,976.2
548.865,974.7
549.406,978.6
549.948,979.7
550.489,982.2
551.03,985.1
551.572,992.5
552.113,991.5
552.654,992.7
553.194,991.1
553.735,989.9
554.276,999.6
554.816,997.4
555.356,984.3
555.896,987.2
556.437,989.4
556.977,991.2
557.516,1001.1
558.056,1099.6
558.596,1012.9
559.135,1010.1
559.675,1008.9
560.214,1000.6
560.753,1001.6
561.292,1000.7
561.831,999.2
562.37,997.5
562.909,1007.7
563.448,1040.1
563.986,1021.6
564.525,1014.7
565.063,1033.5
565.601,1029.0
566.139,1055.3
566.677,1025.7
567.215,1017.5
567.753,1021.0
568.291,1018.1
568.828,1022.0
569.366,1020.2
569.903,1021.6
570.441,1023.6
570.978,1023.1
571.515,1036.0
572.052,1037.0
572.589,1035.7
573.126,1039.6
573.662,1040.8
574.199,1037.6
574.735,1044.7
575.272,1030.7
575.808,1039.5
576.344,1049.9
576.88,1091.7
577.416,1048.7
577.952,1036.7
578.488,1037.2
579.024,1039.0
579.559,1038.9
580.095,1035.2
580.63,1038.1
581.166,1035.5
581.701,1032.2
582.236,1036.7
582.771,1037.4
583.306,1039.6
583.841,1040.6
584.376,1042.2
584.911,1038.5
585.445,1041.4
585.98,1040.2
586.514,1064.2
587.048,1075.2
587.583,1103.5
588.117,1055.1
588.651,1045.2
589.185,1038.6
589.719,1038.5
590.253,1035.9
590.786,1041.2
591.32,1038.5
591.853,1041.8
592.387,1039.7
592.92,1036.3
593.454,1035.4
593.987,1038.9
594.52,1041.4
595.053,1042.0
595.586,1037.0
596.119,1042.1
596.651,1042.4
597.184,1037.6
597.717,1042.5
598.249,1042.6
598.782,1044.1
599.314,1050.1
599.846,1036.3
600.379,1035.2
600.911,1040.2
601.443,1038.8
601.975,1037.2
602.507,1036.6
603.038,1033.3
603.57,1039.5
604.102,1041.9
604.633,1035.2
605.165,1027.8
605.696,1033.8
606.228,1027.4
606.759,1028.5
607.29,1029.6
607.821,1027.5
608.352,1027.9
608.883,1026.8
609.414,1030.4
609.945,1029.5
610.476,1027.6
611.006,1026.7
611.537,1027.9
612.067,1025.7
612.598,1027.7
613.128,1031.8
613.659,1034.0
614.189,1035.2
614.719,1030.2
615.249,1031.1
615.779,1029.3
616.309,1027.4
616.839,1029.7
617.369,1026.7
617.899,1026.9
618.428,1030.6
618.958,1024.8
619.487,1022.2
620.017,1025.9
620.546,1023.9
621.076,1022.7
621.605,1026.2
622.134,1028.2
622.663,1031.6
623.193,1033.3
623.722,1034.8
624.251,1026.8
624.78,1023.2
625.308,1022.5
625.837,1020.7
626.366,1019.0
626.895,1022.4
627.423,1023.6
627.952,1028.9
628.48,1094.3
629.009,1076.0
629.537,1073.6
630.065,1078.3
630.594,1137.6
631.122,1466.9
631.65,1221.3
632.178,1120.2
632.706,1111.3
633.234,1201.0
633.762,1150.3
634.29,1076.1
634.818,1021.5
635.346,1011.9
635.873,1013.9
636.401,1007.1
636.929,1006.5
637.456,1004.6
637.984,1003.0
638.511,1001.4
639.039,1004.6
639.566,1004.2
640.093,1004.7
640.62,1003.9
641.148,1000.7
641.675,1001.1
642.202,1001.9
642.729,994.3
643.256,996.6
643.783,991.1
644.31,992.2
644.837,989.9
645.364,984.5
645.891,987.7
646.417,992.7
646.944,987.8
647.471,992.4
647.997,980.8
648.524,981.0
649.051,981.9
649.577,976.1
650.104,981.1
650.63,977.2
651.157,974.3
651.683,977.7
652.209,976.8
652.736,976.2
653.262,976.8
653.788,974.5
654.314,971.9
654.84,975.9
655.366,974.7
655.893,972.4
656.419,970.4
656.945,971.8
657.471,968.8
657.997,971.2
658.522,967.9
659.048,968.3
659.574,974.7
660.1,972.0
660.626,971.3
661.152,965.1
661.677,959.7
662.203,965.7
662.729,963.9
663.123,963.6