File: spectra/VLFR_08-PLA_bio_Raman_0fc1cdc9.csv
nm,Intensity
528.626,1862.8
529.132,1863.1
529.637,1864.9
530.143,1862.3
530.648,1864.0
531.153,1865.6
531.658,1906.2
532.164,4443.9
532.669,1865.9
533.174,1864.2
533.679,1948.9
534.184,2258.3
534.689,2279.8
535.194,2315.5
535.699,2368.8
536.203,2339.6
536.708,2334.7
537.213,2370.9
537.717,2345.3
538.222,2365.6
538.726,2360.9
539.231,2451.3
539.735,2360.7
540.239,2360.7
540.744,2389.3
541.248,2382.3
541.752,2401.9
542.256,2410.8
542.76,2438.2
543.264,2424.4
543.768,2493.9
544.272,2598.6
544.776,2458.4
545.28,2457.1
545.784,2483.5
546.287,2560.2
546.791,2528.8
547.294,2497.6
547.798,2514.6
548.301,2506.9
548.805,2508.9
549.308,2542.5
549.811,2561.6
550.315,2601.4
550.818,2572.7
551.321,2556.9
551.824,2633.5
552.327,2590.2
552.83,2566.6
553.333,2589.9
553.835,2596.7
554.338,2600.1
554.841,2624.7
555.343,2587.1
555.846,2614.0
556.349,2614.6
556.851,2617.2
557.353,2612.9
557.856,2668.2
558.358,2631.3
558.86,2618.8
559.362,2632.5
559.864,2649.8
560.366,2665.9
560.868,2699.8
561.37,2725.8
561.872,2943.2
562.374,4523.1
562.876,2802.5
563.377,2748.7
563.879,2712.6
564.38,2767.7
564.882,2761.9
565.383,2749.8
565.885,2786.2
566.386,2972.3
566.887,2808.1
567.388,2780.6
567.889,2783.4
568.391,2785.0
568.892,2798.4
569.392,2813.8
569.893,2805.9
570.394,2845.4
570.895,2819.5
571.395,2886.2
571.896,2887.0
572.397,2902.4
572.897,2877.0
573.397,2871.4
573.898,2858.3
574.398,2843.7
574.898,2861.7
575.398,2851.0
575.898,2866.6
576.398,2882.8
576.898,2916.3
577.398,2873.5
577.898,2861.7
578.398,2836.2
578.897,2887.6
579.397,2849.5
579.896,2892.0
580.396,2906.3
580.895,2900.5
581.395,2895.5
581.894,2907.5
582.393,2926.0
582.892,2939.9
583.391,2927.2
583.89,2935.0
584.389,2951.0
584.888,2899.7
585.387,2927.6
585.886,2909.6
586.384,2938.6
586.883,2930.3
587.381,2938.5
587.88,2945.7
588.378,2915.5
588.876,2829.9
589.375,2848.2
589.873,2883.4
590.371,2919.7
590.869,2907.6
591.367,2911.3
591.865,2915.1
592.363,2940.8
592.86,2949.5
593.358,2967.2
593.856,2938.2
594.353,2927.3
594.851,2920.8
595.348,2974.9
595.845,2946.5
596.342,2984.4
596.84,2978.5
597.337,2992.2
597.834,2970.4
598.331,2947.3
598.828,2970.7
599.324,2975.4
599.821,2975.4
600.318,2973.2
600.814,2941.8
601.311,3010.0
601.807,2975.1
602.304,2978.0
602.8,3023.7
603.296,3021.3
603.792,3004.1
604.288,2988.0
604.784,3031.2
605.28,3015.6
605.776,3001.7
606.272,2999.6
606.767,3013.7
607.263,2978.1
607.759,2988.3
608.254,2958.8
608.749,3014.2
609.245,2987.6
609.74,2998.7
610.235,2975.6
610.73,3022.7
611.225,2994.4
611.72,3043.0
612.215,2989.6
612.71,3016.3
613.204,3001.0
613.699,2992.0
614.194,2999.1
614.688,3016.5
615.182,3039.5
615.677,3021.0
616.171,2926.9
616.665,3015.2
617.159,2993.9
617.653,2979.9
618.147,3017.8
618.641,2996.3
619.135,3007.8
619.628,3020.6
620.122,3056.1
620.615,3005.7
621.109,2958.0
621.602,2989.3
622.095,2999.4
622.589,2988.0
623.082,2973.7
623.575,2980.5
624.068,3021.4
624.561,2973.9
625.053,3007.8
625.546,2958.7
626.039,2934.5
626.531,2999.8
627.024,2969.3
627.516,2957.7
628.008,2947.7
628.501,2960.8
628.993,2975.2
629.485,2972.3
629.977,2967.7
630.469,2978.2
630.96,3025.8
631.452,2976.3
631.944,2957.6
632.435,2974.9
632.927,2978.0
633.418,2971.9
633.91,2960.0
634.401,2906.7
634.892,2963.9
635.383,2917.7
635.874,2901.2
636.365,2918.2
636.856,2905.2
637.346,2895.3
637.837,2888.2
638.327,2898.8
638.818,2901.3
639.308,2896.8
639.799,2866.4
640.289,2886.3
640.779,2861.0
641.269,2885.0
641.759,2862.9
642.249,2849.8
642.738,2909.5
643.228,2867.1
643.718,2880.5
644.207,2902.7
644.697,2868.5
645.186,2917.3
645.675,2876.3
646.164,2882.9
646.653,2902.6
647.142,2883.3
647.631,2908.8
648.12,2906.6
648.609,2977.6
649.098,3039.0
649.586,3127.0
650.075,3174.2
650.563,3115.0
651.051,2990.8
651.539,2867.2
652.027,2847.0
652.515,2806.4
653.003,2780.5
653.491,2749.6
653.979,2753.1
654.467,2687.1
654.954,2692.1
655.442,2668.7
655.929,2644.5
656.416,2558.9
656.904,2614.5
657.391,2632.7
657.878,2609.3
658.365,2661.5
658.851,2607.1
659.338,2530.5
659.825,2576.5
660.311,2601.7
660.798,2586.2
661.041,2543.6