File: spectra/VLFR_02-HDPE_bio_Raman_008b6fef.csv
nm,Intensity
526.495,828.7
527.042,830.0
527.589,828.9
528.136,828.2
528.682,829.5
529.229,829.2
529.775,828.6
530.321,830.0
530.867,829.1
531.413,829.1
531.959,830.8
532.505,827.7
533.051,829.7
533.596,831.8
534.141,866.4
534.687,861.4
535.232,858.5
535.777,854.1
536.321,850.2
536.866,850.7
537.41,849.2
537.955,848.9
538.499,849.3
539.043,851.3
539.587,851.4
540.131,845.6
540.675,847.1
541.219,846.9
541.762,848.2
542.305,847.7
542.849,848.9
543.392,849.9
543.935,849.0
544.478,849.0
545.02,846.9
545.563,848.7
546.106,849.5
546.648,848.5
547.19,848.4
547.732,848.2
548.274,851.3
548.816,852.1
549.358,850.2
549.9,849.9
550.441,850.7
550.983,852.9
551.524,851.6
552.065,849.6
552.606,850.7
553.147,852.5
553.688,853.2
554.229,852.5
554.769,854.9
555.31,853.6
555.85,852.2
556.391,857.0
556.931,856.0
557.471,856.1
558.011,858.3
558.551,858.5
559.09,857.4
559.63,858.7
560.169,857.0
560.709,858.7
561.248,858.6
561.787,858.2
562.326,859.4
562.865,860.8
563.404,863.6
563.943,898.3
564.481,873.3
565.02,871.1
565.558,871.6
566.096,914.3
566.634,871.7
567.172,869.9
567.71,872.2
568.248,867.5
568.786,870.3
569.324,869.4
569.861,869.7
570.399,876.5
570.936,879.3
571.473,934.3
572.01,892.7
572.547,884.6
573.084,887.9
573.621,888.0
574.158,891.8
574.694,892.5
575.231,901.2
575.767,926.6
576.303,963.4
576.84,945.9
577.376,938.7
577.912,933.7
578.448,932.7
578.984,938.5
579.519,949.1
580.055,948.3
580.59,956.1
581.126,960.8
581.661,965.0
582.196,969.2
582.731,978.6
583.267,974.5
583.801,984.2
584.336,986.6
584.871,982.6
585.406,985.1
585.94,988.9
586.475,985.8
587.009,998.7
587.543,995.8
588.078,998.0
588.612,1002.6
589.146,996.7
589.68,997.4
590.214,999.9
590.747,1002.4
591.281,1004.6
591.815,1002.6
592.348,1010.2
592.881,1005.4
593.415,1002.1
593.948,1004.5
594.481,1003.0
595.014,1007.2
595.547,1009.3
596.08,1008.4
596.613,1004.9
597.146,1011.1
597.678,1015.3
598.211,1015.6
598.743,1022.0
599.276,1024.1
599.808,1022.8
600.34,1021.7
600.872,1015.0
601.404,1018.1
601.936,1018.1
602.468,1014.6
603.0,1015.3
603.532,1008.1
604.064,1006.4
604.595,993.4
605.127,991.0
605.658,988.4
606.189,980.9
606.721,975.7
607.252,966.8
607.783,967.2
608.314,967.8
608.845,964.9
609.376,962.6
609.907,963.8
610.438,953.5
610.968,954.8
611.499,949.5
612.029,950.8
612.56,947.9
613.09,946.0
613.621,947.1
614.151,944.7
614.681,939.6
615.211,938.6
615.741,934.9
616.271,934.6
616.801,938.5
617.331,934.7
617.861,932.7
618.39,933.0
618.92,929.1
619.45,930.5
619.979,932.7
620.509,927.9
621.038,931.2
621.567,932.7
622.096,944.2
622.626,940.8
623.155,933.7
623.684,932.3
624.213,928.7
624.742,927.3
625.271,934.2
625.799,937.4
626.328,945.4
626.857,1050.9
627.386,1240.6
627.914,1108.7
628.443,1198.5
628.971,1122.0
629.5,1088.5
630.028,1032.1
630.556,1030.9
631.084,981.6
631.613,954.6
632.141,945.0
632.669,942.2
633.197,942.9
633.725,939.6
634.253,941.2
634.781,941.2
635.308,939.5
635.836,943.3
636.364,942.1
636.891,939.3
637.419,939.5
637.947,940.9
638.474,936.6
639.002,937.6
639.529,936.7
640.056,936.3
640.584,935.2
641.111,942.7
641.638,928.3
642.165,934.0
642.692,934.8
643.219,934.8
643.746,928.0
644.273,931.9
644.8,931.3
645.327,928.6
645.854,932.4
646.381,931.2
646.908,930.0
647.434,931.7
647.961,927.8
648.488,932.6
649.014,929.4
649.541,924.9
650.067,926.4
650.594,926.4
651.12,925.4
651.646,923.0
652.173,924.9
652.699,923.4
653.225,923.2
653.752,924.8
654.278,926.0
654.804,922.6
655.33,918.8
655.856,918.1
656.382,919.5
656.908,918.3
657.434,920.8
657.96,912.7
658.486,913.3
659.012,915.9
659.538,912.9
660.064,911.0
660.589,909.3
661.115,905.7
661.641,905.0
662.166,902.1
662.692,896.2
663.086,900.4