File: spectra/VLFR_09-PET_bio_Raman_05e3bfdd.csv
nm,Intensity
526.493,829.3
527.039,829.56
527.586,828.88
528.133,829.58
528.679,828.82
529.225,829.24
529.771,829.18
530.317,828.72
530.863,829.1
531.409,829.24
531.955,831.32
532.5,829.66
533.046,829.02
533.591,830.5
534.136,945.64
534.681,936.78
535.226,923.48
535.771,919.78
536.315,914.54
536.86,913.98
537.404,914.86
537.948,916.78
538.493,918.34
539.037,921.42
539.58,922.2
540.124,925.06
540.668,923.48
541.211,922.3
541.755,924.06
542.298,925.2
542.841,925.96
543.384,929.52
543.927,930.34
544.47,929.76
545.013,931.0
545.555,933.84
546.098,933.74
546.64,935.26
547.182,936.76
547.724,936.28
548.266,937.82
548.808,938.52
549.35,939.18
549.892,943.38
550.433,943.44
550.974,943.32
551.516,945.06
552.057,944.82
552.598,945.72
553.139,948.44
553.68,948.76
554.22,948.96
554.761,948.64
555.301,950.84
555.842,953.78
556.382,954.82
556.922,956.24
557.462,966.12
558.002,960.58
558.542,958.78
559.082,956.04
559.621,957.22
560.161,958.2
560.7,960.32
561.239,961.5
561.778,961.78
562.317,966.1
562.856,964.9
563.395,967.32
563.934,968.78
564.472,971.76
565.011,982.22
565.549,981.06
566.088,979.38
566.626,976.62
567.164,972.4
567.702,980.1
568.24,978.04
568.777,978.84
569.315,980.9
569.853,983.74
570.39,985.06
570.927,994.22
571.465,1012.58
572.002,995.46
572.539,989.08
573.076,990.18
573.612,989.12
574.149,991.6
574.686,990.5
575.222,996.9
575.759,995.12
576.295,994.86
576.831,998.88
577.367,998.64
577.903,997.44
578.439,998.82
578.975,999.94
579.511,999.14
580.046,997.68
580.582,1001.16
581.117,1003.68
581.653,1009.46
582.188,1103.32
582.723,1011.54
583.258,1004.22
583.793,1007.78
584.328,1007.14
584.863,1010.54
585.398,1014.34
585.932,1055.78
586.467,1040.08
587.001,1016.66
587.535,1012.56
588.07,1009.98
588.604,1011.32
589.138,1007.52
589.672,1009.66
590.206,1010.76
590.739,1011.78
591.273,1013.08
591.807,1012.2
592.34,1011.72
592.873,1010.3
593.407,1009.26
593.94,1008.42
594.473,1010.32
595.006,1010.78
595.539,1012.44
596.072,1011.04
596.605,1015.9
597.138,1014.84
597.67,1013.9
598.203,1015.9
598.735,1015.78
599.268,1016.9
599.8,1015.5
600.332,1015.38
600.865,1015.98
601.397,1015.42
601.929,1012.52
602.46,1018.3
602.992,1018.32
603.524,1019.68
604.056,1018.78
604.587,1017.84
605.119,1016.08
605.65,1015.6
606.182,1015.18
606.713,1016.28
607.244,1017.14
607.775,1016.38
608.306,1020.04
608.837,1023.34
609.368,1023.9
609.899,1023.8
610.43,1024.8
610.961,1024.62
611.491,1024.08
612.022,1026.88
612.552,1028.96
613.083,1033.18
613.613,1035.4
614.143,1038.32
614.673,1040.32
615.203,1039.6
615.734,1040.88
616.263,1041.38
616.793,1045.52
617.323,1045.44
617.853,1049.42
618.383,1049.58
618.912,1051.54
619.442,1052.78
619.971,1054.52
620.501,1056.94
621.03,1053.86
621.56,1058.18
622.089,1058.22
622.618,1059.3
623.147,1068.54
623.676,1068.68
624.205,1068.64
624.734,1071.16
625.263,1073.58
625.792,1074.58
626.321,1078.94
626.849,1077.6
627.378,1078.22
627.906,1078.94
628.435,1082.8
628.963,1085.98
629.492,1089.12
630.02,1089.16
630.548,1089.72
631.077,1091.52
631.605,1097.94
632.133,1100.82
632.661,1099.68
633.189,1101.32
633.717,1098.26
634.245,1094.68
634.773,1096.82
635.3,1096.04
635.828,1104.82
636.356,1110.26
636.883,1112.58
637.411,1108.1
637.938,1103.48
638.466,1105.1
638.993,1109.9
639.521,1107.58
640.048,1110.12
640.575,1108.44
641.103,1111.74
641.63,1112.66
642.157,1108.66
642.684,1107.04
643.211,1110.08
643.738,1106.98
644.265,1106.44
644.792,1106.12
645.319,1101.92
645.845,1109.48
646.372,1109.7
646.899,1109.02
647.425,1109.0
647.952,1108.22
648.479,1106.76
649.005,1105.66
649.532,1108.62
650.058,1105.66
650.585,1102.62
651.111,1105.76
651.637,1105.88
652.164,1106.26
652.69,1104.66
653.216,1103.76
653.742,1106.7
654.268,1103.14
654.794,1102.08
655.32,1102.46
655.846,1104.36
656.372,1100.78
656.898,1101.18
657.424,1101.2
657.95,1101.4
658.476,1102.7
659.002,1100.62
659.528,1101.96
660.053,1100.5
660.579,1098.62
661.105,1097.42
661.63,1092.78
662.156,1090.84
662.681,1093.0
663.076,1091.8