File: spectra/VLFR_02-HDPE_nobio_Raman_acacc930.csv
nm,Intensity
526.5,828.3
527.047,828.2
527.594,828.6
528.14,829.3
528.687,829.9
529.233,830.0
529.779,830.4
530.325,829.0
530.871,828.6
531.417,829.5
531.962,831.9
532.508,830.7
533.053,828.5
533.599,829.4
534.144,874.3
534.689,866.7
535.234,858.6
535.778,850.4
536.323,848.1
536.867,845.3
537.412,843.9
537.956,843.7
538.5,842.4
539.044,840.7
539.588,840.4
540.132,838.4
540.675,838.4
541.219,838.0
541.762,838.3
542.305,838.5
542.848,837.9
543.391,837.4
543.934,837.6
544.477,837.6
545.02,836.3
545.562,837.1
546.105,839.9
546.647,837.5
547.189,837.4
547.731,839.6
548.273,836.7
548.815,838.9
549.356,839.6
549.898,839.6
550.439,839.9
550.981,839.8
551.522,841.4
552.063,840.2
552.604,841.2
553.145,841.3
553.686,840.7
554.226,842.9
554.767,843.4
555.307,842.6
555.848,845.1
556.388,846.5
556.928,847.6
557.468,850.0
558.008,850.4
558.547,851.1
559.087,851.3
559.626,851.5
560.166,852.0
560.705,848.2
561.244,850.9
561.783,850.6
562.322,852.8
562.861,852.9
563.4,859.8
563.939,923.4
564.477,873.9
565.015,869.7
565.554,867.2
566.092,986.8
566.63,867.8
567.168,860.3
567.706,859.1
568.244,855.9
568.781,855.5
569.319,854.9
569.857,856.6
570.394,857.5
570.931,865.0
571.468,970.1
572.005,875.7
572.542,858.0
573.079,852.9
573.616,853.1
574.153,863.5
574.689,852.9
575.226,858.7
575.762,924.9
576.298,924.2
576.834,900.4
577.371,877.2
577.907,856.6
578.442,852.0
578.978,849.0
579.514,851.4
580.049,848.9
580.585,850.7
581.12,848.6
581.656,850.5
582.191,850.9
582.726,850.9
583.261,847.7
583.796,848.4
584.331,848.1
584.865,846.0
585.4,848.1
585.935,852.0
586.469,848.5
587.004,848.4
587.538,847.9
588.072,848.1
588.606,850.9
589.14,848.7
589.674,847.1
590.208,847.9
590.742,847.8
591.275,848.8
591.809,849.5
592.342,850.0
592.876,848.3
593.409,846.1
593.942,848.8
594.476,849.3
595.009,849.3
595.542,849.9
596.075,851.1
596.607,850.4
597.14,850.7
597.673,852.2
598.205,854.8
598.738,853.5
599.27,851.9
599.803,855.1
600.335,853.8
600.867,851.8
601.399,852.8
601.931,852.0
602.463,854.5
602.995,851.6
603.527,853.0
604.058,853.5
604.59,854.1
605.122,852.3
605.653,851.4
606.184,852.7
606.716,850.3
607.247,850.2
607.778,852.9
608.309,851.3
608.84,852.7
609.371,849.7
609.902,852.5
610.433,853.0
610.964,856.9
611.494,856.5
612.025,853.2
612.556,853.1
613.086,855.1
613.616,851.5
614.147,851.7
614.677,852.7
615.207,853.2
615.737,853.3
616.267,853.8
616.797,855.4
617.327,857.7
617.857,859.5
618.387,857.8
618.917,856.4
619.446,860.9
619.976,858.2
620.505,860.9
621.035,861.6
621.564,863.9
622.093,877.9
622.623,876.6
623.152,859.8
623.681,860.5
624.21,858.4
624.739,858.8
625.268,863.8
625.797,866.4
626.326,881.6
626.855,1003.3
627.383,1290.9
627.912,1109.2
628.441,1196.0
628.969,1159.3
629.498,1090.8
630.026,1023.9
630.554,1010.7
631.083,925.8
631.611,877.7
632.139,868.5
632.667,862.4
633.195,856.5
633.724,855.0
634.252,852.4
634.779,853.0
635.307,851.3
635.835,850.7
636.363,851.9
636.891,849.2
637.418,848.7
637.946,846.4
638.474,843.8
639.001,847.1
639.529,844.9
640.056,845.6
640.583,845.7
641.111,846.1
641.638,845.8
642.165,846.7
642.692,845.4
643.22,845.2
643.747,844.3
644.274,846.8
644.801,844.2
645.328,844.3
645.854,844.1
646.381,844.4
646.908,844.7
647.435,844.7
647.962,843.6
648.488,844.0
649.015,846.7
649.542,842.9
650.068,843.7
650.595,842.1
651.121,845.9
651.648,843.5
652.174,845.2
652.7,844.1
653.227,843.4
653.753,843.9
654.279,842.6
654.805,843.8
655.331,844.5
655.858,844.2
656.384,843.5
656.91,844.4
657.436,842.0
657.962,844.0
658.488,845.7
659.013,844.0
659.539,843.2
660.065,841.9
660.591,845.7
661.117,841.9
661.642,843.3
662.168,842.6
662.694,841.6
663.088,840.7