File: spectra/VLFR_02-HDPE_bio_Raman_edf70904.csv
nm,Intensity
526.508,830.9
527.055,830.9
527.602,830.2
528.149,829.3
528.695,830.4
529.241,830.3
529.787,828.8
530.334,828.7
530.879,831.5
531.425,829.8
531.971,835.3
532.516,831.7
533.062,829.0
533.607,829.9
534.152,875.6
534.697,867.0
535.242,862.8
535.786,854.0
536.331,848.5
536.876,846.1
537.42,845.6
537.964,846.9
538.508,843.7
539.052,842.5
539.596,840.6
540.14,839.9
540.683,841.2
541.227,839.7
541.77,839.4
542.313,839.8
542.856,841.4
543.399,840.3
543.942,839.2
544.485,840.9
545.027,839.9
545.57,839.0
546.112,840.4
546.654,840.8
547.196,841.7
547.738,841.5
548.28,841.5
548.822,841.5
549.363,841.1
549.905,841.9
550.446,841.2
550.988,841.9
551.529,838.9
552.07,840.3
552.611,842.5
553.152,843.9
553.692,842.5
554.233,842.9
554.773,846.5
555.314,843.6
555.854,845.0
556.394,843.6
556.934,844.5
557.474,848.7
558.014,847.4
558.553,850.5
559.093,849.0
559.632,848.3
560.172,848.7
560.711,847.8
561.25,848.0
561.789,850.6
562.328,852.5
562.867,850.8
563.406,852.0
563.944,908.1
564.483,868.5
565.021,863.9
565.559,862.4
566.098,924.3
566.636,867.5
567.174,861.2
567.711,865.6
568.249,862.2
568.787,862.0
569.324,863.4
569.862,866.5
570.399,867.9
570.936,878.1
571.474,970.0
572.011,891.1
572.548,880.9
573.084,882.4
573.621,888.0
574.158,900.4
574.694,896.7
575.231,907.4
575.767,940.2
576.303,1014.4
576.84,985.4
577.376,976.5
577.912,959.1
578.447,967.1
578.983,980.2
579.519,1001.4
580.054,1012.3
580.59,1030.3
581.125,1048.9
581.661,1057.9
582.196,1082.5
582.731,1097.5
583.266,1124.0
583.801,1140.5
584.336,1158.6
584.87,1170.3
585.405,1183.5
585.94,1190.8
586.474,1205.3
587.008,1216.9
587.543,1224.6
588.077,1225.1
588.611,1229.5
589.145,1234.1
589.679,1242.8
590.213,1259.6
590.747,1252.9
591.28,1260.1
591.814,1254.9
592.347,1254.8
592.881,1246.8
593.414,1248.7
593.947,1241.5
594.48,1253.1
595.014,1251.8
595.547,1259.0
596.079,1256.2
596.612,1265.3
597.145,1271.3
597.678,1266.4
598.21,1274.3
598.743,1270.5
599.275,1271.0
599.807,1267.3
600.34,1271.3
600.872,1265.3
601.404,1263.7
601.936,1267.0
602.468,1269.4
603.0,1265.8
603.532,1259.6
604.063,1248.7
604.595,1250.4
605.126,1224.8
605.658,1214.5
606.189,1207.0
606.721,1191.9
607.252,1193.8
607.783,1193.2
608.314,1182.2
608.845,1177.7
609.376,1165.5
609.907,1158.5
610.438,1148.2
610.968,1140.4
611.499,1131.5
612.03,1124.1
612.56,1123.8
613.091,1123.5
613.621,1115.4
614.151,1112.1
614.681,1102.2
615.212,1099.6
615.742,1103.7
616.272,1090.9
616.802,1083.8
617.332,1085.0
617.861,1081.8
618.391,1080.1
618.921,1067.4
619.45,1070.2
619.98,1064.1
620.509,1069.6
621.039,1062.5
621.568,1075.0
622.097,1092.6
622.627,1087.5
623.156,1069.8
623.685,1063.8
624.214,1061.8
624.743,1061.7
625.272,1062.0
625.801,1070.9
626.33,1094.2
626.858,1289.9
627.387,1615.8
627.916,1387.4
628.444,1559.0
628.973,1401.4
629.501,1325.1
630.029,1252.9
630.558,1230.9
631.086,1158.8
631.614,1105.2
632.142,1100.7
632.67,1093.8
633.198,1098.2
633.726,1099.2
634.254,1099.4
634.782,1101.9
635.31,1100.0
635.838,1107.3
636.365,1110.4
636.893,1110.9
637.421,1115.5
637.948,1108.1
638.476,1107.5
639.003,1111.6
639.531,1104.1
640.058,1108.2
640.585,1105.3
641.113,1103.4
641.64,1104.2
642.167,1110.4
642.694,1100.5
643.221,1092.7
643.748,1091.6
644.275,1093.8
644.802,1087.8
645.329,1077.1
645.856,1077.8
646.382,1079.5
646.909,1077.9
647.436,1079.4
647.962,1072.8
648.489,1065.6
649.016,1068.7
649.542,1061.9
650.069,1055.2
650.595,1057.2
651.121,1059.6
651.648,1051.6
652.174,1049.8
652.7,1051.5
653.227,1044.4
653.753,1040.7
654.279,1035.3
654.805,1040.1
655.331,1030.0
655.857,1027.5
656.383,1026.7
656.909,1030.4
657.435,1021.5
657.961,1028.7
658.487,1026.2
659.013,1022.1
659.538,1011.5
660.064,1013.4
660.59,1011.4
661.116,1001.7
661.641,998.3
662.167,996.9
662.692,987.7
663.087,991.1