File: spectra/VLFR_08-PLA_nobio_Raman_d7121a8d.csv
cm-1,Intensity
-123.878,1861.25
-105.821,1862.1
-87.8007,1861.05
-69.8161,1859.2
-51.8675,1862.85
-33.9547,1864.95
-16.0776,1891.2
1.76388,3241.6
19.5698,1865.85
37.3403,1871.7
55.0755,2715.75
72.7754,5429.65
90.4402,5673.55
108.07,5924.6
125.665,6049.0
143.225,6130.5
160.75,6109.55
178.241,6160.75
195.697,6408.4
213.119,6485.8
230.506,6548.2
247.859,6661.1
265.178,6792.5
282.463,6847.45
299.713,6825.25
316.93,6956.15
334.113,7042.6
351.263,7173.4
368.379,7268.4
385.461,7407.15
402.51,7478.0
419.526,7406.4
436.508,7706.65
453.458,7783.85
470.374,7998.0
487.257,8063.55
504.107,8266.35
520.925,8229.05
537.71,8350.95
554.462,8614.75
571.182,8753.7
587.87,8548.65
604.525,8718.65
621.148,8643.0
637.739,9080.5
654.297,9083.75
670.824,9143.0
687.319,9286.5
703.782,9214.7
720.213,9376.15
736.613,9350.85
752.981,9447.05
769.317,9786.55
785.623,9769.2
801.897,9736.85
818.139,9857.85
834.351,9987.0
850.532,9862.75
866.681,10216.5
882.8,10418.9
898.888,10521.0
914.945,10677.0
930.972,10574.5
946.968,10769.2
962.934,10839.5
978.869,10941.4
994.774,11074.4
1010.65,11331.3
1026.49,11609.8
1042.31,11393.0
1058.09,11304.0
1073.85,11479.8
1089.57,12022.2
1105.27,12037.5
1120.93,12333.0
1136.57,12313.9
1152.18,12287.3
1167.75,12236.2
1183.3,12473.0
1198.82,12731.8
1214.31,12930.1
1229.77,12920.6
1245.2,13080.0
1260.6,13183.5
1275.97,13126.5
1291.32,13644.3
1306.63,13855.4
1321.92,13781.4
1337.18,13821.5
1352.41,13892.4
1367.61,13958.5
1382.78,13842.5
1397.93,14095.8
1413.05,14229.8
1428.14,14392.1
1443.2,14268.3
1458.23,13824.3
1473.23,14195.3
1488.21,14236.3
1503.16,14084.5
1518.08,14244.1
1532.97,14359.5
1547.84,14446.8
1562.68,14876.5
1577.49,14892.3
1592.27,14764.3
1607.03,14602.3
1621.76,14623.0
1636.46,14231.6
1651.14,14308.9
1665.78,14423.0
1680.41,14435.8
1695.0,14420.3
1709.57,14316.8
1724.11,14339.0
1738.62,14620.2
1753.11,14598.2
1767.57,14623.2
1782.01,15017.3
1796.41,14801.4
1810.8,14989.2
1825.15,14581.8
1839.48,15033.3
1853.79,14808.9
1868.06,15100.8
1882.31,15134.3
1896.54,15149.3
1910.74,15603.0
1924.91,15168.2
1939.06,15166.5
1953.19,15183.6
1967.28,15430.8
1981.35,15536.3
1995.4,15680.0
2009.42,15856.5
2023.42,16042.6
2037.39,15690.3
2051.33,15811.2
2065.25,15856.3
2079.15,15976.5
2093.01,15991.2
2106.86,16209.8
2120.68,16534.5
2134.47,16416.0
2148.24,16059.0
2161.99,16366.9
2175.71,16445.5
2189.41,16695.8
2203.08,16598.2
2216.73,16816.9
2230.35,16491.7
2243.95,16772.0
2257.52,16979.3
2271.07,16672.3
2284.6,16986.6
2298.1,17020.2
2311.58,17131.3
2325.03,16973.8
2338.46,17120.2
2351.87,17295.7
2365.25,17409.7
2378.61,17276.6
2391.94,17299.3
2405.26,17707.1
2418.54,17652.7
2431.81,18006.1
2445.05,17618.3
2458.27,17822.1
2471.46,18052.9
2484.63,17894.3
2497.78,17535.6
2510.9,18221.3
2524.0,17996.7
2537.08,18028.6
2550.14,18073.8
2563.17,17993.3
2576.18,18191.1
2589.17,18205.1
2602.13,18406.1
2615.07,18347.8
2627.99,18567.5
2640.89,18810.1
2653.76,18673.6
2666.61,18491.6
2679.44,18620.9
2692.25,18926.0
2705.03,19154.7
2717.79,18649.9
2730.53,19229.7
2743.25,18816.7
2755.94,18960.5
2768.61,19119.5
2781.27,19085.0
2793.89,18925.3
2806.5,19197.3
2819.09,19175.9
2831.65,19199.2
2844.19,19190.7
2856.71,19507.2
2869.21,19288.1
2881.69,18994.8
2894.14,19348.9
2906.58,19457.9
2918.99,19742.4
2931.38,19812.2
2943.75,19605.0
2956.1,19933.1
2968.42,19643.3
2980.73,19288.8
2993.01,19657.7
3005.28,20084.2
3017.52,19895.4
3029.74,19977.5
3041.94,19869.8
3054.12,19418.7
3066.28,19493.4
3078.42,20090.1
3090.54,19796.1
3102.63,19553.5
3114.71,20015.8
3126.77,19679.8
3138.8,19713.8
3150.82,19939.7
3162.81,19953.6
3174.78,20202.3
3186.74,19578.9
3198.67,19939.4
3210.58,19669.6
3222.47,19994.9
3234.35,19749.2
3246.2,19709.2
3258.03,20040.3
3269.84,19385.5
3281.64,19763.3
3293.41,19544.9
3305.16,19912.0
3316.89,19577.2
3328.61,19477.3
3340.3,19880.6
3351.97,19871.8
3363.63,20016.8
3375.26,19389.7
3386.88,19704.6
3398.47,19335.2
3410.05,19508.3
3421.6,19128.2
3433.14,19162.4
3444.66,19520.6
3456.15,19300.3
3467.63,18858.2
3479.09,19189.5
3490.53,18911.8
3501.96,18953.3
3513.36,18840.3
3524.74,19053.3
3536.11,18351.3
3547.45,18830.7
3558.78,18746.7
3570.09,18217.2
3581.37,18799.4
3592.64,18375.9
3603.9,17988.5
3615.13,17712.8
3626.34,17285.5
3637.54,17540.7
3648.72,18048.9
3659.87,17246.5
3665.45,17979.2