File: spectra/VLFR_08-PLA_nobio_Raman_b49e10f5.csv
nm,Intensity
526.547,832.3
527.094,833.9
527.641,832.7
528.188,833.3
528.734,832.3
529.281,832.6
529.827,832.4
530.373,831.0
530.92,831.7
531.466,832.7
532.011,843.6
532.557,833.4
533.103,832.7
533.648,836.9
534.193,1060.0
534.738,1011.4
535.283,976.7
535.828,956.0
536.373,950.8
536.917,952.0
537.462,942.9
538.006,941.9
538.55,930.3
539.094,930.9
539.638,926.9
540.182,921.5
540.726,939.7
541.269,944.4
541.812,934.3
542.356,926.9
542.899,932.7
543.442,954.0
543.985,964.4
544.527,938.3
545.07,928.0
545.612,927.0
546.155,929.6
546.697,929.3
547.239,926.1
547.781,932.8
548.323,927.8
548.865,933.8
549.406,938.7
549.948,935.6
550.489,938.5
551.03,942.5
551.572,944.3
552.113,946.4
552.654,947.8
553.194,946.6
553.735,944.4
554.276,952.6
554.816,949.7
555.356,939.4
555.896,936.0
556.437,942.2
556.977,946.0
557.516,958.6
558.056,1089.2
558.596,974.7
559.135,960.2
559.675,955.0
560.214,953.3
560.753,946.1
561.292,943.0
561.831,946.2
562.37,946.1
562.909,957.4
563.448,993.9
563.986,966.3
564.525,962.1
565.063,984.1
565.601,978.7
566.139,1011.1
566.677,973.0
567.215,958.5
567.753,965.1
568.291,965.4
568.828,966.7
569.366,967.0
569.903,962.0
570.441,965.0
570.978,963.1
571.515,984.9
572.052,985.8
572.589,975.8
573.126,978.4
573.662,990.3
574.199,978.8
574.735,986.7
575.272,967.4
575.808,971.7
576.344,989.6
576.88,1050.0
577.416,985.7
577.952,972.8
578.488,973.5
579.024,971.8
579.559,972.3
580.095,966.0
580.63,970.4
581.166,970.1
581.701,971.5
582.236,969.6
582.771,976.0
583.306,973.6
583.841,976.6
584.376,973.1
584.911,974.8
585.445,974.6
585.98,979.4
586.514,990.1
587.048,1034.0
587.583,1053.5
588.117,1000.1
588.651,979.3
589.185,976.5
589.719,975.2
590.253,974.7
590.786,973.5
591.32,972.2
591.853,971.4
592.387,973.0
592.92,969.1
593.454,967.6
593.987,971.7
594.52,969.6
595.053,974.2
595.586,974.9
596.119,972.3
596.651,973.7
597.184,976.0
597.717,972.5
598.249,971.4
598.782,974.7
599.314,974.5
599.846,975.5
600.379,978.1
600.911,973.3
601.443,971.0
601.975,968.5
602.507,970.5
603.038,970.6
603.57,970.2
604.102,970.6
604.633,972.5
605.165,967.8
605.696,965.1
606.228,967.9
606.759,967.7
607.29,964.9
607.821,961.7
608.352,966.1
608.883,966.3
609.414,962.8
609.945,963.8
610.476,965.3
611.006,963.9
611.537,961.1
612.067,961.8
612.598,963.9
613.128,969.5
613.659,965.9
614.189,965.7
614.719,966.5
615.249,964.6
615.779,967.8
616.309,965.9
616.839,964.7
617.369,967.7
617.899,964.5
618.428,962.9
618.958,962.4
619.487,964.1
620.017,967.1
620.546,962.2
621.076,960.4
621.605,961.3
622.134,965.8
622.663,975.2
623.193,975.4
623.722,969.0
624.251,966.5
624.78,966.0
625.308,966.1
625.837,963.5
626.366,962.6
626.895,956.9
627.423,964.9
627.952,980.2
628.48,1054.5
629.009,1031.6
629.537,1029.4
630.065,1036.6
630.594,1115.8
631.122,1529.6
631.65,1223.5
632.178,1091.1
632.706,1084.8
633.234,1190.8
633.762,1134.6
634.29,1027.2
634.818,979.3
635.346,963.7
635.873,961.8
636.401,956.3
636.929,953.8
637.456,953.7
637.984,949.7
638.511,951.5
639.039,947.8
639.566,950.4
640.093,951.1
640.62,947.4
641.148,952.0
641.675,948.6
642.202,946.0
642.729,949.7
643.256,943.7
643.783,941.8
644.31,942.0
644.837,937.3
645.364,938.3
645.891,940.1
646.417,942.5
646.944,934.6
647.471,938.8
647.997,937.9
648.524,935.5
649.051,934.2
649.577,934.3
650.104,929.6
650.63,931.0
651.157,929.6
651.683,931.5
652.209,928.5
652.736,925.0
653.262,930.3
653.788,926.4
654.314,926.3
654.84,929.0
655.366,929.6
655.893,926.7
656.419,929.0
656.945,929.5
657.471,925.6
657.997,931.5
658.522,928.4
659.048,922.9
659.574,922.3
660.1,927.0
660.626,920.2
661.152,921.4
661.677,923.2
662.203,919.4
662.729,920.8
663.123,920.5