File: spectra/VLFR_02-HDPE_nobio_Raman_ab8ca0bb.csv
nm,Intensity
526.508,829.8
527.055,829.7
527.602,828.5
528.149,830.2
528.695,830.3
529.241,830.8
529.787,829.5
530.334,828.6
530.879,829.5
531.425,829.4
531.971,831.6
532.516,831.6
533.062,829.5
533.607,830.0
534.152,908.8
534.697,915.2
535.242,912.2
535.786,873.7
536.331,861.9
536.876,855.3
537.42,852.9
537.964,855.9
538.508,854.1
539.052,847.5
539.596,846.9
540.14,847.3
540.683,844.7
541.227,845.7
541.77,844.7
542.313,847.1
542.856,843.1
543.399,842.8
543.942,843.7
544.485,844.4
545.027,842.0
545.57,843.4
546.112,843.4
546.654,842.5
547.196,844.9
547.738,843.1
548.28,843.7
548.822,842.5
549.363,842.4
549.905,844.2
550.446,842.5
550.988,842.8
551.529,843.0
552.07,843.9
552.611,845.5
553.152,847.9
553.692,846.5
554.233,847.3
554.773,848.3
555.314,847.0
555.854,848.4
556.394,850.2
556.934,853.7
557.474,856.2
558.014,852.5
558.553,856.0
559.093,853.3
559.632,852.1
560.172,850.9
560.711,850.8
561.25,851.0
561.789,852.3
562.328,855.0
562.867,855.0
563.406,861.0
563.944,955.9
564.483,878.9
565.021,872.3
565.559,863.8
566.098,927.2
566.636,864.9
567.174,862.0
567.711,875.6
568.249,857.0
568.787,860.3
569.324,857.2
569.862,860.5
570.399,863.4
570.936,868.9
571.474,1012.7
572.011,891.1
572.548,868.0
573.084,863.4
573.621,864.2
574.158,873.8
574.694,864.8
575.231,866.7
575.767,908.4
576.303,1045.1
576.84,967.3
577.376,938.8
577.912,880.4
578.447,873.8
578.983,868.7
579.519,876.1
580.054,873.9
580.59,875.7
581.125,877.7
581.661,880.0
582.196,881.6
582.731,881.1
583.266,883.6
583.801,886.2
584.336,887.1
584.87,890.8
585.405,895.3
585.94,893.8
586.474,898.0
587.008,901.2
587.543,899.0
588.077,905.6
588.611,903.8
589.145,908.1
589.679,909.1
590.213,914.2
590.747,916.7
591.28,912.8
591.814,916.4
592.347,917.3
592.881,917.8
593.414,916.0
593.947,918.2
594.48,921.4
595.014,918.9
595.547,922.8
596.079,923.0
596.612,924.4
597.145,920.9
597.678,923.1
598.21,930.2
598.743,928.0
599.275,929.5
599.807,931.1
600.34,930.8
600.872,930.5
601.404,928.9
601.936,933.4
602.468,926.9
603.0,926.4
603.532,924.9
604.063,926.1
604.595,920.8
605.126,917.0
605.658,911.0
606.189,910.9
606.721,909.7
607.252,908.2
607.783,907.1
608.314,906.6
608.845,903.3
609.376,906.2
609.907,901.9
610.438,898.3
610.968,905.9
611.499,897.3
612.03,897.0
612.56,899.6
613.091,896.2
613.621,898.6
614.151,895.2
614.681,895.3
615.212,898.3
615.742,897.8
616.272,897.3
616.802,903.0
617.332,910.0
617.861,908.0
618.391,907.4
618.921,910.7
619.45,913.0
619.98,914.2
620.509,913.8
621.039,920.9
621.568,941.0
622.097,990.3
622.627,984.5
623.156,927.3
623.685,910.1
624.214,910.1
624.743,910.4
625.272,914.9
625.801,925.3
626.33,980.3
626.858,1458.8
627.387,2235.1
627.916,1661.3
628.444,2118.9
628.973,1567.5
629.501,1410.1
630.029,1246.4
630.558,1208.3
631.086,1036.1
631.614,932.6
632.142,913.8
632.67,909.0
633.198,903.5
633.726,896.5
634.254,893.2
634.782,888.0
635.31,888.6
635.838,888.0
636.365,890.2
636.893,888.1
637.421,882.4
637.948,879.5
638.476,878.6
639.003,881.3
639.531,879.4
640.058,880.5
640.585,878.1
641.113,883.0
641.64,880.1
642.167,881.6
642.694,880.8
643.221,880.7
643.748,877.7
644.275,880.1
644.802,875.3
645.329,878.3
645.856,873.3
646.382,877.1
646.909,873.3
647.436,879.2
647.962,877.7
648.489,875.1
649.016,877.3
649.542,872.0
650.069,877.4
650.595,874.7
651.121,876.3
651.648,875.2
652.174,875.0
652.7,876.2
653.227,876.6
653.753,874.5
654.279,875.4
654.805,874.5
655.331,872.2
655.857,874.9
656.383,872.0
656.909,872.7
657.435,872.3
657.961,873.0
658.487,874.8
659.013,870.2
659.538,870.9
660.064,871.8
660.59,869.3
661.116,868.5
661.641,867.2
662.167,867.6
662.692,864.5
663.087,865.5