File: spectra/VLFR_01-LDPE_nobio_Raman_8904a079.csv
nm,Intensity
526.5,829.6
527.047,827.7
527.594,829.0
528.14,829.8
528.687,829.1
529.233,828.6
529.779,829.8
530.325,829.7
530.871,829.6
531.417,828.2
531.962,833.7
532.508,830.4
533.053,829.7
533.599,830.2
534.144,905.6
534.689,895.9
535.234,882.5
535.778,869.9
536.323,863.4
536.867,858.3
537.412,859.2
537.956,857.6
538.5,856.0
539.044,853.0
539.588,850.9
540.132,848.0
540.675,850.6
541.219,848.4
541.762,846.2
542.305,845.2
542.848,846.2
543.391,846.2
543.934,846.8
544.477,845.3
545.02,845.8
545.562,846.2
546.105,845.6
546.647,843.7
547.189,845.8
547.731,846.3
548.273,843.6
548.815,842.4
549.356,843.5
549.898,843.1
550.439,844.2
550.981,842.7
551.522,844.2
552.063,844.2
552.604,844.5
553.145,846.5
553.686,848.1
554.226,848.2
554.767,848.3
555.307,849.5
555.848,849.5
556.388,853.9
556.928,856.1
557.468,856.0
558.008,857.8
558.547,860.5
559.087,857.4
559.626,855.5
560.166,854.9
560.705,857.8
561.244,853.5
561.783,859.2
562.322,859.3
562.861,862.1
563.4,869.0
563.939,920.8
564.477,887.5
565.015,884.1
565.554,877.6
566.092,928.7
566.63,883.4
567.168,879.9
567.706,879.4
568.244,877.7
568.781,877.7
569.319,881.9
569.857,885.2
570.394,892.9
570.931,897.8
571.468,990.4
572.005,933.8
572.542,918.8
573.079,914.4
573.616,915.1
574.153,932.3
574.689,933.6
575.226,942.7
575.762,989.0
576.298,1105.4
576.834,1061.2
577.371,1045.4
577.907,1022.5
578.442,1032.6
578.978,1052.6
579.514,1067.0
580.049,1085.3
580.585,1105.8
581.12,1119.9
581.656,1137.5
582.191,1153.8
582.726,1171.2
583.261,1186.1
583.796,1202.8
584.331,1220.3
584.865,1244.7
585.4,1256.6
585.935,1284.6
586.469,1318.7
587.004,1344.2
587.538,1378.9
588.072,1409.4
588.606,1437.8
589.14,1476.3
589.674,1496.2
590.208,1540.1
590.742,1578.0
591.275,1595.6
591.809,1626.7
592.342,1620.3
592.876,1645.9
593.409,1657.3
593.942,1672.8
594.476,1676.3
595.009,1702.1
595.542,1696.5
596.075,1712.7
596.607,1727.4
597.14,1743.5
597.673,1751.4
598.205,1764.4
598.738,1785.6
599.27,1800.1
599.803,1794.8
600.335,1795.5
600.867,1789.6
601.399,1773.6
601.931,1771.0
602.463,1758.0
602.995,1738.6
603.527,1717.9
604.058,1677.7
604.59,1656.3
605.122,1611.6
605.653,1573.1
606.184,1539.9
606.716,1493.5
607.247,1474.0
607.778,1448.0
608.309,1436.7
608.84,1413.4
609.371,1391.3
609.902,1378.9
610.433,1360.9
610.964,1348.6
611.494,1329.0
612.025,1315.4
612.556,1309.3
613.086,1309.8
613.616,1303.0
614.147,1289.6
614.677,1281.8
615.207,1258.5
615.737,1258.7
616.267,1246.2
616.797,1237.9
617.327,1232.4
617.857,1221.1
618.387,1219.7
618.917,1208.0
619.446,1207.7
619.976,1201.3
620.505,1198.1
621.035,1193.9
621.564,1205.1
622.093,1231.6
622.623,1228.9
623.152,1198.5
623.681,1184.8
624.21,1184.1
624.739,1184.0
625.268,1188.6
625.797,1190.3
626.326,1219.1
626.855,1512.1
627.383,2015.2
627.912,1669.2
628.441,1949.4
628.969,1738.7
629.498,1619.1
630.026,1497.1
630.554,1480.4
631.083,1336.0
631.611,1257.5
632.139,1230.2
632.667,1219.4
633.195,1216.1
633.724,1221.8
634.252,1213.0
634.779,1216.8
635.307,1216.0
635.835,1237.1
636.363,1238.5
636.891,1243.9
637.418,1237.5
637.946,1248.4
638.474,1252.4
639.001,1264.4
639.529,1266.3
640.056,1279.8
640.583,1291.6
641.111,1291.3
641.638,1298.2
642.165,1309.4
642.692,1315.3
643.22,1313.6
643.747,1318.0
644.274,1331.6
644.801,1335.9
645.328,1323.1
645.854,1330.8
646.381,1331.6
646.908,1330.0
647.435,1334.8
647.962,1329.7
648.488,1336.9
649.015,1318.5
649.542,1322.4
650.068,1317.8
650.595,1310.9
651.121,1311.2
651.648,1303.7
652.174,1308.8
652.7,1300.0
653.227,1292.2
653.753,1298.5
654.279,1291.9
654.805,1292.4
655.331,1283.6
655.858,1273.2
656.384,1265.8
656.91,1256.1
657.436,1250.1
657.962,1249.2
658.488,1229.6
659.013,1222.5
659.539,1206.7
660.065,1208.1
660.591,1184.2
661.117,1175.3
661.642,1159.1
662.168,1143.5
662.694,1131.2
663.088,1123.4