File: spectra/VLFR_08-PLA_nobio_Raman_505761bc.csv
nm,Intensity
526.486,830.7
527.033,829.1
527.579,831.5
528.126,830.0
528.672,829.8
529.219,829.9
529.765,828.9
530.311,830.4
530.857,830.4
531.403,829.5
531.948,832.3
532.494,830.3
533.039,828.8
533.585,832.6
534.13,1022.9
534.675,980.3
535.22,946.5
535.764,919.0
536.309,915.6
536.854,918.9
537.398,907.9
537.942,902.6
538.486,892.9
539.03,886.5
539.574,887.1
540.118,875.8
540.662,896.9
541.205,896.3
541.749,888.3
542.292,883.0
542.835,883.5
543.378,903.8
543.921,916.3
544.464,892.7
545.006,880.4
545.549,877.1
546.091,874.7
546.634,878.0
547.176,880.4
547.718,876.9
548.26,882.1
548.802,882.4
549.343,885.4
549.885,880.0
550.426,885.3
550.968,885.3
551.509,887.7
552.05,890.9
552.591,892.8
553.132,892.8
553.673,888.9
554.214,897.5
554.754,890.1
555.295,884.1
555.835,881.9
556.375,883.0
556.915,882.4
557.455,898.3
557.995,1005.8
558.535,919.5
559.075,899.3
559.614,892.6
560.154,889.3
560.693,887.5
561.232,883.9
561.772,884.9
562.311,887.9
562.85,893.8
563.388,927.7
563.927,909.8
564.466,896.4
565.004,922.2
565.543,910.4
566.081,943.2
566.619,916.4
567.157,890.3
567.695,898.2
568.233,900.9
568.771,898.5
569.309,896.0
569.846,896.5
570.384,892.8
570.921,899.5
571.458,910.8
571.995,916.7
572.532,906.3
573.069,911.7
573.606,916.6
574.143,911.3
574.68,920.6
575.216,901.9
575.753,899.8
576.289,912.4
576.825,976.3
577.361,926.9
577.897,903.6
578.433,901.8
578.969,902.8
579.505,899.5
580.041,900.2
580.576,897.5
581.112,899.4
581.647,901.5
582.183,899.2
582.718,900.4
583.253,898.9
583.788,901.1
584.323,902.0
584.858,903.0
585.392,901.5
585.927,901.8
586.462,914.9
586.996,953.5
587.53,975.5
588.065,924.0
588.599,906.9
589.133,904.3
589.667,901.8
590.201,898.6
590.735,899.0
591.268,902.6
591.802,901.3
592.335,899.8
592.869,901.8
593.402,902.3
593.936,901.0
594.469,901.0
595.002,901.6
595.535,902.9
596.068,904.9
596.601,901.4
597.133,900.9
597.666,901.9
598.199,902.1
598.731,903.4
599.264,904.9
599.796,903.4
600.328,903.9
600.86,901.3
601.393,901.8
601.925,902.5
602.457,902.8
602.988,904.2
603.52,903.2
604.052,903.7
604.583,904.8
605.115,902.6
605.646,900.1
606.178,900.9
606.709,902.5
607.24,901.2
607.771,903.7
608.302,902.5
608.833,904.3
609.364,903.1
609.895,907.0
610.426,904.9
610.957,900.7
611.487,903.3
612.018,901.6
612.548,905.8
613.078,905.0
613.609,905.5
614.139,908.9
614.669,904.9
615.199,907.9
615.729,906.5
616.259,910.9
616.789,908.4
617.319,907.8
617.849,907.3
618.378,909.2
618.908,906.0
619.437,905.9
619.967,904.9
620.496,909.6
621.025,906.0
621.555,905.2
622.084,910.8
622.613,913.6
623.142,919.1
623.671,919.2
624.2,911.2
624.729,908.8
625.258,908.6
625.786,909.7
626.315,907.2
626.844,905.4
627.372,909.9
627.901,917.6
628.429,981.9
628.957,972.5
629.486,974.4
630.014,978.1
630.542,1034.7
631.07,1436.5
631.598,1199.1
632.126,1052.5
632.654,1020.3
633.182,1116.8
633.71,1088.7
634.237,991.7
634.765,928.7
635.293,914.2
635.82,912.0
636.348,907.2
636.875,902.9
637.403,903.0
637.93,902.6
638.458,899.4
638.985,898.4
639.512,899.6
640.039,900.2
640.566,902.7
641.093,900.8
641.62,897.8
642.147,900.3
642.674,900.2
643.201,895.0
643.728,895.7
644.255,896.0
644.781,892.0
645.308,890.9
645.835,892.1
646.361,893.3
646.888,890.5
647.414,894.1
647.941,892.2
648.467,893.3
648.993,887.9
649.52,890.3
650.046,891.9
650.572,888.0
651.098,886.4
651.625,889.2
652.151,887.7
652.677,890.4
653.203,888.8
653.729,890.0
654.255,889.2
654.78,889.3
655.306,893.9
655.832,889.1
656.358,889.0
656.884,888.2
657.409,887.2
657.935,886.7
658.461,886.7
658.986,887.3
659.512,887.8
660.037,883.9
660.563,883.9
661.088,886.0
661.614,883.4
662.139,880.4
662.664,883.5
663.058,882.9