File: spectra/VLFR_07-PET_bio_Raman_ed8fa3a6.csv
nm,Intensity
791.496,10943.4
792.594,10399.8
793.692,9924.7
794.79,9888.2
795.888,9638.0
796.986,9542.1
798.083,9581.4
799.181,9503.3
800.278,9492.2
801.375,9379.0
802.473,9377.3
803.57,9172.3
804.667,9229.6
805.764,9045.2
806.86,9064.0
807.957,9013.2
809.054,8918.5
810.15,8809.5
811.246,8931.7
812.343,8783.9
813.439,8722.3
814.535,8705.0
815.631,8623.8
816.727,8518.4
817.822,8447.3
818.918,8390.4
820.013,8334.5
821.109,8260.4
822.204,8071.6
823.299,8115.4
824.394,8044.9
825.489,8226.2
826.584,7976.8
827.679,7872.2
828.774,7821.7
829.868,7823.5
830.963,7757.3
832.057,7684.0
833.151,7600.1
834.245,7558.7
835.339,7468.7
836.433,7590.9
837.527,7479.6
838.621,7501.4
839.714,7417.7
840.808,7649.9
841.901,7485.0
842.994,7335.5
844.087,7226.9
845.18,7125.0
846.273,7099.6
847.366,6978.4
848.458,6987.0
849.551,6933.4
850.643,6905.3
851.735,6933.2
852.828,6891.9
853.92,6838.4
855.012,6706.0
856.103,6695.9
857.195,6727.1
858.287,6746.5
859.378,6830.8
860.469,6675.2
861.56,6438.6
862.651,6455.8
863.742,6520.6
864.833,6437.9
865.924,6352.1
867.014,6315.4
868.105,6281.7
869.195,6240.8
870.285,6316.3
871.376,6319.3
872.465,6497.0
873.555,6364.6
874.645,6232.1
875.735,6092.8
876.824,6022.6
877.913,6004.1
879.002,5978.2
880.092,5886.5
881.18,5885.4
882.269,5918.5
883.358,5831.7
884.446,5825.0
885.535,5810.2
886.623,5760.2
887.711,5725.4
888.799,5615.3
889.887,5574.7
890.975,5591.5
892.062,5633.2
893.15,5511.2
894.237,5462.0
895.325,5483.5
896.412,5464.1
897.499,5792.1
898.585,5797.0
899.672,5531.8
900.759,5298.7
901.845,5232.6
902.931,5215.1
904.017,5219.9
905.103,5217.6
906.189,5342.4
907.275,5524.9
908.361,5403.9
909.446,5184.4
910.531,5028.1
911.616,5027.4
912.701,4978.8
913.786,4924.9
914.871,4896.9
915.956,4850.7
917.04,4858.6
918.124,4839.8
919.209,4785.4
920.293,4766.1
921.376,4729.5
922.46,4695.3
923.544,4664.7
924.627,4647.0
925.711,4638.0
926.794,4610.6
927.877,4582.4
928.96,4495.9
930.042,4469.4
931.125,4489.1
932.207,4429.5
933.29,4428.0
934.372,4402.2
935.454,4381.0
936.536,4353.1
937.617,4316.4
938.699,4312.3
939.78,4280.0
940.861,4278.0
941.943,4238.0
943.023,4232.3
944.104,4200.1
945.185,4196.3
946.265,4182.3
947.346,4167.2
948.426,4153.2
949.506,4143.5
950.586,4113.6
951.665,4102.2
952.745,4093.0
953.824,4081.0
954.904,4062.0
955.983,4046.6
957.062,4034.6
958.141,4024.4
959.219,4012.2
960.298,3997.5
961.376,3990.3
962.454,3982.9
963.532,3974.0
964.61,3967.8
965.688,3959.8
966.765,3946.9
967.842,3930.7
968.92,3945.8
969.997,3927.4
971.074,3919.0
972.15,3906.8
973.227,3902.5
974.303,3896.9
975.379,3888.7
976.455,3882.7
977.531,3870.3
978.607,3871.3
979.683,3861.6
980.758,3863.0
981.833,3859.4
982.908,3848.5
983.983,3839.7
985.058,3836.6
986.133,3838.3
987.207,3828.4
988.281,3827.4
989.355,3813.6
990.429,3814.7
991.503,3809.3
992.577,3801.6
993.65,3801.1
994.723,3799.0
995.796,3790.8
996.869,3781.1
997.942,3781.9
999.014,3785.5
1000.09,3780.2
1001.16,3771.6
1002.23,3771.6
1003.3,3766.6
1004.37,3762.9
1005.45,3760.6
1006.52,3753.1
1007.59,3754.2
1008.66,3747.6
1009.73,3747.9
1010.8,3747.0
1011.87,3750.7
1012.94,3740.7
1014.01,3737.9
1015.08,3733.8
1016.15,3738.0
1017.22,3735.6
1018.29,3734.3
1019.36,3730.2
1020.43,3730.0
1021.5,3733.1
1022.57,3732.8
1023.64,3730.1
1024.7,3726.8
1025.77,3723.9
1026.84,3719.5
1027.91,3717.0
1028.97,3714.1
1030.04,3713.8
1031.11,3713.0
1032.18,3712.1
1033.24,3709.8
1034.31,3713.3
1035.38,3711.7
1036.44,3708.0
1037.51,3707.2
1038.58,3703.9
1039.64,3703.3
1040.71,3700.8
1041.77,3702.4
1042.84,3700.2
1043.9,3698.8
1044.97,3698.7
1046.03,3698.4
1047.1,3699.0
1048.16,3695.5
1049.22,3697.7
1050.29,3697.7
1051.35,3696.5
1052.42,3695.6
1053.48,3694.9
1054.54,3695.1
1055.61,3693.3
1056.67,3694.2
1057.73,3694.2
1058.79,3692.5
1059.86,3695.3
1060.92,3694.3
1061.98,3691.9
1063.04,3693.2
1064.1,3692.8
1065.16,3693.8
1066.22,3692.2
1067.29,3691.0
1068.08,3691.7