File: spectra/VLFR_02-HDPE_bio_Raman_61e2b184.csv
nm,Intensity
526.547,831.05
527.095,830.95
527.642,830.65
528.189,831.95
528.736,831.05
529.283,831.3
529.829,831.15
530.376,830.55
530.922,831.05
531.468,830.5
532.014,844.6
532.56,831.25
533.106,830.65
533.651,832.45
534.196,860.6
534.742,857.75
535.287,853.95
535.832,851.4
536.376,849.05
536.921,847.7
537.465,847.15
538.01,847.45
538.554,847.25
539.098,845.55
539.642,845.1
540.186,845.2
540.729,845.25
541.273,845.65
541.816,844.8
542.36,845.75
542.903,846.35
543.446,843.85
543.988,844.35
544.531,844.6
545.074,844.45
545.616,844.65
546.158,845.75
546.701,844.05
547.243,846.05
547.785,845.45
548.326,846.55
548.868,845.85
549.41,844.8
549.951,846.65
550.492,845.6
551.034,845.55
551.575,846.5
552.116,845.85
552.656,847.25
553.197,846.7
553.738,847.4
554.278,847.05
554.819,848.15
555.359,847.05
555.899,848.4
556.439,848.35
556.979,848.15
557.519,850.1
558.058,849.9
558.598,849.45
559.137,848.3
559.677,848.25
560.216,848.6
560.755,848.55
561.294,850.35
561.833,849.65
562.371,849.25
562.91,851.15
563.449,852.15
563.987,878.1
564.525,856.75
565.064,854.95
565.602,854.45
566.14,903.85
566.678,853.6
567.216,853.85
567.753,852.2
568.291,851.4
568.828,850.9
569.366,850.7
569.903,850.7
570.44,852.55
570.977,855.75
571.514,903.35
572.051,859.1
572.588,854.05
573.125,852.75
573.661,852.1
574.198,854.5
574.734,852.6
575.271,856.95
575.807,870.35
576.343,881.5
576.879,870.85
577.415,862.85
577.951,856.15
578.486,855.5
579.022,855.85
579.557,854.65
580.093,855.5
580.628,855.05
581.164,855.6
581.699,855.45
582.234,857.95
582.769,857.45
583.304,856.05
583.838,858.05
584.373,859.4
584.908,860.25
585.442,859.85
585.977,861.0
586.511,862.25
587.045,865.5
587.58,865.45
588.114,866.75
588.648,868.15
589.182,869.3
589.715,868.95
590.249,868.4
590.783,869.65
591.316,871.65
591.85,874.5
592.383,873.5
592.917,873.1
593.45,874.3
593.983,873.95
594.516,875.95
595.049,876.45
595.582,878.8
596.115,878.3
596.648,880.95
597.18,883.15
597.713,883.95
598.245,889.1
598.778,887.95
599.31,890.5
599.842,891.65
600.375,892.75
600.907,893.35
601.439,891.8
601.971,891.0
602.503,889.4
603.034,892.65
603.566,891.25
604.098,889.05
604.629,889.7
605.161,885.35
605.692,884.05
606.224,883.65
606.755,882.8
607.286,880.75
607.817,880.25
608.348,880.3
608.879,878.4
609.41,878.55
609.941,878.0
610.472,879.25
611.002,878.3
611.533,877.2
612.063,875.75
612.594,874.7
613.124,875.45
613.655,875.3
614.185,874.5
614.715,874.55
615.245,874.65
615.775,872.7
616.305,870.05
616.835,872.85
617.365,875.35
617.895,873.2
618.425,872.5
618.954,871.6
619.484,872.85
620.013,873.2
620.543,871.8
621.072,873.2
621.602,875.2
622.131,878.5
622.66,876.8
623.189,872.25
623.718,869.25
624.247,869.0
624.776,868.8
625.305,871.25
625.834,871.45
626.363,878.05
626.891,930.7
627.42,1013.5
627.949,951.9
628.477,999.05
629.006,964.75
629.534,943.6
630.062,921.2
630.591,915.1
631.119,888.8
631.647,873.75
632.175,867.2
632.703,867.55
633.231,866.15
633.759,867.85
634.287,865.1
634.815,864.75
635.343,865.95
635.871,865.3
636.398,865.25
636.926,864.05
637.454,864.25
637.981,865.65
638.509,866.8
639.036,864.7
639.564,865.5
640.091,865.75
640.618,867.3
641.146,866.15
641.673,867.15
642.2,866.5
642.727,868.5
643.254,868.3
643.781,867.15
644.308,867.4
644.835,868.3
645.362,867.75
645.889,870.2
646.416,870.6
646.942,870.1
647.469,869.65
647.996,871.9
648.522,871.45
649.049,870.35
649.576,871.05
650.102,871.0
650.629,870.65
651.155,871.45
651.682,870.65
652.208,870.7
652.734,870.2
653.261,870.65
653.787,870.25
654.313,869.65
654.839,871.6
655.365,868.6
655.892,868.95
656.418,867.35
656.944,868.25
657.47,867.05
657.996,867.35
658.522,866.45
659.048,864.65
659.574,866.35
660.099,865.55
660.625,862.55
661.151,861.75
661.677,861.75
662.203,860.75
662.728,858.8
663.123,858.45