File: spectra/VLFR_02-HDPE_nobio_Raman_5177bd72.csv
cm-1,Intensity
-123.878,1853.65
-105.821,1853.6
-87.8007,1853.85
-69.8161,1853.9
-51.8675,1853.3
-33.9547,1854.0
-16.0776,1872.55
1.76388,2731.65
19.5698,1856.2
37.3403,1858.15
55.0755,2046.55
72.7754,2573.7
90.4402,2640.9
108.07,2705.3
125.665,2735.2
143.225,2701.1
160.75,2669.45
178.241,2683.35
195.697,2698.2
213.119,2711.2
230.506,2675.1
247.859,2693.8
265.178,2668.75
282.463,2675.0
299.713,2662.65
316.93,2661.25
334.113,2654.3
351.263,2631.8
368.379,2648.45
385.461,2631.7
402.51,2633.0
419.526,2605.85
436.508,2591.85
453.458,2581.6
470.374,2577.2
487.257,2545.4
504.107,2565.9
520.925,2534.6
537.71,2551.5
554.462,2543.25
571.182,2538.65
587.87,2547.35
604.525,2520.7
621.148,2533.15
637.739,2546.5
654.297,2534.9
670.824,2546.35
687.319,2529.75
703.782,2516.3
720.213,2509.6
736.613,2508.9
752.981,2505.4
769.317,2525.95
785.623,2515.55
801.897,2490.2
818.139,2509.45
834.351,2500.35
850.532,2499.2
866.681,2524.4
882.8,2508.75
898.888,2509.05
914.945,2511.8
930.972,2525.9
946.968,2505.65
962.934,2524.4
978.869,2523.75
994.774,2540.95
1010.65,2549.25
1026.49,2583.25
1042.31,2579.15
1058.09,2793.1
1073.85,2658.75
1089.57,2664.65
1105.27,2665.55
1120.93,2766.05
1136.57,2801.5
1152.18,2702.65
1167.75,2753.15
1183.3,2746.6
1198.82,2771.6
1214.31,2796.1
1229.77,2831.35
1245.2,2863.9
1260.6,2895.65
1275.97,2971.55
1291.32,3283.4
1306.63,3120.05
1321.92,3109.25
1337.18,3104.45
1352.41,3120.75
1367.61,3206.4
1382.78,3217.2
1397.93,3333.9
1413.05,3413.35
1428.14,3551.65
1443.2,3844.85
1458.23,3747.8
1473.23,3745.3
1488.21,3704.25
1503.16,3758.35
1518.08,3863.65
1532.97,4001.2
1547.84,4090.15
1562.68,4199.65
1577.49,4304.25
1592.27,4410.75
1607.03,4468.45
1621.76,4517.35
1636.46,4667.3
1651.14,4730.95
1665.78,4825.85
1680.41,5012.05
1695.0,4988.65
1709.57,5075.25
1724.11,5206.95
1738.62,5268.5
1753.11,5363.75
1767.57,5475.35
1782.01,5652.45
1796.41,5717.3
1810.8,5849.3
1825.15,5832.0
1839.48,5979.15
1853.79,6032.85
1868.06,6182.35
1882.31,6326.7
1896.54,6297.4
1910.74,6493.65
1924.91,6499.7
1939.06,6639.7
1953.19,6700.8
1967.28,6735.25
1981.35,6777.3
1995.4,6918.45
2009.42,7113.6
2023.42,7250.3
2037.39,7312.0
2051.33,7297.0
2065.25,7437.6
2079.15,7394.75
2093.01,7502.45
2106.86,7644.5
2120.68,7501.3
2134.47,7697.85
2148.24,7504.35
2161.99,7496.35
2175.71,7498.4
2189.41,7466.4
2203.08,7326.75
2216.73,7151.6
2230.35,7013.0
2243.95,6929.35
2257.52,6894.2
2271.07,6744.25
2284.6,6628.55
2298.1,6505.3
2311.58,6426.1
2325.03,6243.75
2338.46,6164.5
2351.87,6039.5
2365.25,5927.85
2378.61,5770.6
2391.94,5698.45
2405.26,5703.85
2418.54,5490.1
2431.81,5508.9
2445.05,5410.0
2458.27,5265.05
2471.46,5229.65
2484.63,5135.7
2497.78,5058.25
2510.9,4993.7
2524.0,4970.55
2537.08,4834.6
2550.14,4796.6
2563.17,4725.75
2576.18,4700.7
2589.17,4649.4
2602.13,4571.3
2615.07,4551.8
2627.99,4510.3
2640.89,4500.95
2653.76,4498.0
2666.61,4383.85
2679.44,4421.6
2692.25,4356.55
2705.03,4428.2
2717.79,4445.1
2730.53,4360.9
2743.25,4299.0
2755.94,4218.4
2768.61,4205.55
2781.27,4170.2
2793.89,4219.6
2806.5,4160.25
2819.09,4197.75
2831.65,4389.15
2844.19,5602.35
2856.71,5418.15
2869.21,5086.5
2881.69,6187.85
2894.14,5146.9
2906.58,4820.15
2918.99,4587.55
2931.38,4514.15
2943.75,4311.0
2956.1,4241.95
2968.42,4072.45
2980.73,4135.0
2993.01,4076.7
3005.28,4064.7
3017.52,4141.7
3029.74,4036.85
3041.94,4137.5
3054.12,4056.5
3066.28,4042.75
3078.42,4028.6
3090.54,4032.95
3102.63,4038.8
3114.71,4011.8
3126.77,4064.35
3138.8,4030.75
3150.82,4060.5
3162.81,4070.8
3174.78,4060.85
3186.74,3986.6
3198.67,4041.4
3210.58,4074.9
3222.47,4056.75
3234.35,4017.8
3246.2,3996.65
3258.03,4043.7
3269.84,4059.55
3281.64,4007.9
3293.41,4060.2
3305.16,4107.9
3316.89,4013.65
3328.61,3983.35
3340.3,3962.2
3351.97,3975.5
3363.63,3982.7
3375.26,3972.4
3386.88,3906.55
3398.47,3932.95
3410.05,3897.85
3421.6,3915.5
3433.14,3856.85
3444.66,3932.35
3456.15,3830.35
3467.63,3784.55
3479.09,3805.15
3490.53,3768.9
3501.96,3753.2
3513.36,3607.0
3524.74,3659.15
3536.11,3662.8
3547.45,3623.15
3558.78,3562.45
3570.09,3513.45
3581.37,3544.2
3592.64,3450.5
3603.9,3402.05
3615.13,3342.55
3626.34,3285.0
3637.54,3238.65
3648.72,3224.45
3659.87,3167.55
3665.45,3177.65