File: spectra/VLFR_06-PET_bio_Raman_f99cdf31.csv
nm,Intensity
526.549,832.8
527.096,832.2
527.643,833.5
528.19,832.3
528.737,831.8
529.283,832.55
529.83,832.15
530.376,831.15
530.922,831.75
531.468,832.3
532.014,847.2
532.559,833.05
533.105,832.85
533.65,843.45
534.196,1612.2
534.741,1408.35
535.286,1219.0
535.83,1113.45
536.375,1041.9
536.92,1018.7
537.464,1007.3
538.008,1007.2
538.553,1014.1
539.097,1016.55
539.641,1028.1
540.184,1031.75
540.728,1013.35
541.271,1006.75
541.815,1006.05
542.358,1006.45
542.901,1010.15
543.444,1008.2
543.987,1016.45
544.53,1016.9
545.072,1016.4
545.615,1014.1
546.157,1016.4
546.699,1022.35
547.242,1019.75
547.784,1018.8
548.325,1016.3
548.867,1023.35
549.409,1022.35
549.95,1021.95
550.492,1034.75
551.033,1031.75
551.574,1024.35
552.115,1026.6
552.656,1032.05
553.197,1038.1
553.737,1034.25
554.278,1032.45
554.818,1031.65
555.358,1042.75
555.899,1067.7
556.439,1075.35
556.979,1080.15
557.518,1170.7
558.058,1089.65
558.598,1087.85
559.137,1064.25
559.677,1050.4
560.216,1050.3
560.755,1055.6
561.294,1063.35
561.833,1063.75
562.372,1070.65
562.91,1079.2
563.449,1082.0
563.987,1082.45
564.526,1086.05
565.064,1116.75
565.602,1156.2
566.14,1151.75
566.678,1103.2
567.216,1101.1
567.754,1142.75
568.291,1108.15
568.829,1109.95
569.366,1118.0
569.904,1135.35
570.441,1164.95
570.978,1239.05
571.515,1291.8
572.052,1209.95
572.589,1154.3
573.125,1142.7
573.662,1153.3
574.199,1166.15
574.735,1164.15
575.271,1186.5
575.807,1167.9
576.344,1192.35
576.88,1194.65
577.415,1184.3
577.951,1181.3
578.487,1188.1
579.023,1189.4
579.558,1191.85
580.094,1199.3
580.629,1201.15
581.164,1215.0
581.699,1272.2
582.234,1928.8
582.769,1249.45
583.304,1227.05
583.839,1224.65
584.374,1234.45
584.908,1244.2
585.443,1314.75
585.977,1595.8
586.511,1436.15
587.046,1273.75
587.58,1249.8
588.114,1243.6
588.648,1248.55
589.182,1242.85
589.716,1241.65
590.249,1244.15
590.783,1245.3
591.316,1247.85
591.85,1250.7
592.383,1255.65
592.917,1247.9
593.45,1248.8
593.983,1241.85
594.516,1253.1
595.049,1251.15
595.582,1259.75
596.115,1260.4
596.647,1258.65
597.18,1258.65
597.712,1259.45
598.245,1266.3
598.777,1263.5
599.31,1263.1
599.842,1259.45
600.374,1265.25
600.906,1261.1
601.438,1256.9
601.97,1259.7
602.502,1256.5
603.034,1258.05
603.565,1255.3
604.097,1256.0
604.628,1253.0
605.16,1255.75
605.691,1254.75
606.223,1248.0
606.754,1250.1
607.285,1250.85
607.816,1253.0
608.347,1250.95
608.878,1254.8
609.409,1255.75
609.94,1259.3
610.47,1246.65
611.001,1249.95
611.532,1250.75
612.062,1252.05
612.593,1256.8
613.123,1262.6
613.653,1264.5
614.184,1269.95
614.714,1268.4
615.244,1272.9
615.774,1270.9
616.304,1267.7
616.834,1272.3
617.364,1279.7
617.894,1281.4
618.423,1284.35
618.953,1278.3
619.482,1276.2
620.012,1278.45
620.541,1281.1
621.071,1274.55
621.6,1283.8
622.13,1284.5
622.659,1284.65
623.188,1292.35
623.717,1299.15
624.246,1302.5
624.775,1308.4
625.304,1304.5
625.833,1305.4
626.362,1305.25
626.89,1310.65
627.419,1313.8
627.948,1315.85
628.476,1327.55
629.005,1345.0
629.533,1341.55
630.061,1341.9
630.59,1345.85
631.118,1391.25
631.646,1455.65
632.175,1437.3
632.703,1399.4
633.231,1396.75
633.759,1385.3
634.287,1368.35
634.815,1370.9
635.342,1377.35
635.87,1419.85
636.398,1489.45
636.926,1471.2
637.453,1403.35
637.981,1391.25
638.509,1394.8
639.036,1385.4
639.563,1393.4
640.091,1393.5
640.618,1395.45
641.146,1409.5
641.673,1399.65
642.2,1406.55
642.727,1406.75
643.254,1403.35
643.781,1404.95
644.309,1389.45
644.836,1403.3
645.362,1400.55
645.889,1394.95
646.416,1410.7
646.943,1409.15
647.47,1409.8
647.997,1408.3
648.523,1412.25
649.05,1407.15
649.577,1403.85
650.103,1403.7
650.63,1405.7
651.156,1400.7
651.683,1404.55
652.209,1408.9
652.735,1407.05
653.262,1408.25
653.788,1398.15
654.314,1406.95
654.841,1400.5
655.367,1402.75
655.893,1400.8
656.419,1399.75
656.945,1406.55
657.471,1404.85
657.997,1400.6
658.523,1405.4
659.049,1397.8
659.575,1401.7
660.101,1398.25
660.627,1399.6
661.153,1389.0
661.679,1385.2
662.205,1377.85
662.731,1385.2
663.125,1381.0