File: spectra/VLFR_08-PLA_nobio_Raman_7f62a2e1.csv
nm,Intensity
526.508,830.3
527.055,829.5
527.602,830.3
528.149,828.4
528.695,830.6
529.241,831.9
529.787,830.0
530.334,830.4
530.879,830.1
531.425,830.5
531.971,833.5
532.516,830.4
533.062,831.3
533.607,831.6
534.152,1048.2
534.697,1011.1
535.242,973.4
535.786,956.2
536.331,952.2
536.876,949.8
537.42,943.5
537.964,941.4
538.508,933.0
539.052,933.1
539.596,932.2
540.14,924.3
540.683,937.6
541.227,941.3
541.77,933.9
542.313,927.1
542.856,932.5
543.399,949.0
543.942,958.1
544.485,940.4
545.027,934.0
545.57,927.8
546.112,931.3
546.654,933.7
547.196,932.7
547.738,935.8
548.28,933.9
548.822,937.1
549.363,943.4
549.905,940.1
550.446,938.6
550.988,941.9
551.529,952.1
552.07,949.8
552.611,949.9
553.152,954.3
553.692,950.8
554.233,955.8
554.773,952.2
555.314,945.7
555.854,945.0
556.394,943.4
556.934,947.8
557.474,970.5
558.014,1066.9
558.553,976.9
559.093,959.7
559.632,959.7
560.172,957.2
560.711,956.1
561.25,956.1
561.789,954.0
562.328,950.7
562.867,966.9
563.406,993.6
563.944,977.8
564.483,965.7
565.021,988.6
565.559,986.8
566.098,1008.3
566.636,982.8
567.174,967.9
567.711,966.9
568.249,972.2
568.787,973.4
569.324,973.4
569.862,972.9
570.399,969.3
570.936,973.9
571.474,985.7
572.011,994.9
572.548,989.1
573.084,990.3
573.621,987.0
574.158,990.5
574.694,1002.4
575.231,982.8
575.767,983.7
576.303,998.0
576.84,1050.5
577.376,1000.9
577.912,984.5
578.447,983.0
578.983,989.3
579.519,984.2
580.054,985.6
580.59,987.9
581.125,981.1
581.661,983.7
582.196,986.5
582.731,987.3
583.266,984.4
583.801,990.7
584.336,990.7
584.87,991.5
585.405,991.2
585.94,993.3
586.474,998.8
587.008,1036.7
587.543,1056.7
588.077,1010.7
588.611,994.7
589.145,989.2
589.679,993.2
590.213,995.5
590.747,987.3
591.28,992.1
591.814,988.1
592.347,986.5
592.881,986.8
593.414,985.1
593.947,986.3
594.48,992.0
595.014,989.2
595.547,991.5
596.079,988.1
596.612,989.2
597.145,989.6
597.678,993.7
598.21,989.9
598.743,986.4
599.275,992.3
599.807,989.4
600.34,990.4
600.872,990.9
601.404,987.5
601.936,985.1
602.468,990.5
603.0,988.1
603.532,984.8
604.063,990.9
604.595,990.2
605.126,984.2
605.658,983.7
606.189,980.0
606.721,979.2
607.252,979.2
607.783,983.3
608.314,980.2
608.845,988.3
609.376,980.2
609.907,983.8
610.438,982.2
610.968,981.5
611.499,982.6
612.03,982.2
612.56,979.9
613.091,982.4
613.621,983.2
614.151,986.0
614.681,985.2
615.212,982.1
615.742,983.1
616.272,987.8
616.802,980.0
617.332,983.9
617.861,984.3
618.391,983.6
618.921,984.3
619.45,987.0
619.98,979.2
620.509,977.5
621.039,980.9
621.568,978.6
622.097,979.6
622.627,987.5
623.156,990.8
623.685,993.4
624.214,985.8
624.743,987.9
625.272,980.8
625.801,980.7
626.33,982.9
626.858,976.2
627.387,983.8
627.916,993.7
628.444,1041.4
628.973,1028.5
629.501,1034.0
630.029,1034.5
630.558,1080.1
631.086,1394.0
631.614,1191.4
632.142,1080.4
632.67,1063.6
633.198,1141.3
633.726,1114.6
634.254,1031.9
634.782,988.1
635.31,977.0
635.838,972.8
636.365,972.9
636.893,967.3
637.421,969.3
637.948,966.1
638.476,964.2
639.003,965.5
639.531,965.5
640.058,963.5
640.585,964.8
641.113,962.3
641.64,960.9
642.167,962.8
642.694,959.4
643.221,954.2
643.748,954.2
644.275,958.6
644.802,958.8
645.329,947.8
645.856,952.1
646.382,952.0
646.909,951.4
647.436,947.5
647.962,946.8
648.489,948.4
649.016,947.3
649.542,946.2
650.069,945.3
650.595,945.4
651.121,946.3
651.648,943.2
652.174,948.0
652.7,943.9
653.227,941.0
653.753,939.0
654.279,942.9
654.805,940.2
655.331,941.4
655.857,942.5
656.383,940.2
656.909,945.8
657.435,942.2
657.961,935.7
658.487,939.7
659.013,940.3
659.538,939.8
660.064,936.7
660.59,935.0
661.116,935.1
661.641,930.5
662.167,932.8
662.692,931.5
663.087,930.6