File: spectra/VLFR_08-PLA_bio_Raman_8536bbe6.csv
nm,Intensity
526.532,833.45
527.079,833.55
527.625,833.15
528.172,833.55
528.718,832.6
529.265,833.15
529.811,833.6
530.357,834.7
530.903,833.2
531.449,833.25
531.994,841.75
532.54,833.1
533.085,832.95
533.63,835.7
534.176,971.35
534.721,957.95
535.266,946.2
535.81,942.35
536.355,943.45
536.9,946.85
537.444,943.55
537.988,945.0
538.533,942.35
539.077,939.75
539.621,940.95
540.165,939.4
540.708,947.15
541.252,949.65
541.795,949.5
542.339,948.2
542.882,951.65
543.425,959.35
543.968,963.45
544.511,957.1
545.054,957.8
545.597,958.0
546.139,957.4
546.682,962.6
547.224,961.25
547.766,961.4
548.308,963.95
548.85,964.25
549.392,969.0
549.934,966.9
550.475,968.45
551.017,973.9
551.558,975.25
552.1,977.4
552.641,980.95
553.182,981.1
553.723,978.85
554.264,983.05
554.804,976.8
555.345,978.35
555.885,979.6
556.426,977.0
556.966,985.0
557.506,991.65
558.046,1036.75
558.586,994.55
559.126,991.15
559.665,988.1
560.205,989.65
560.745,990.35
561.284,986.2
561.823,988.05
562.362,993.0
562.901,997.35
563.44,1010.65
563.979,1004.0
564.518,998.3
565.056,1010.9
565.595,1007.7
566.133,1021.2
566.671,1006.05
567.21,1000.6
567.748,1003.55
568.285,1005.2
568.823,1009.05
569.361,1008.8
569.899,1008.45
570.436,1009.8
570.974,1007.85
571.511,1018.1
572.048,1015.55
572.585,1018.5
573.122,1019.35
573.659,1019.35
574.196,1017.85
574.733,1022.65
575.269,1017.35
575.806,1017.55
576.342,1028.8
576.878,1048.15
577.414,1025.35
577.951,1022.45
578.486,1023.1
579.022,1019.1
579.558,1022.25
580.094,1021.8
580.629,1021.55
581.165,1018.8
581.7,1020.7
582.236,1020.9
582.771,1019.95
583.306,1025.9
583.841,1022.55
584.376,1023.85
584.911,1019.25
585.445,1027.8
585.98,1024.0
586.514,1033.8
587.049,1045.45
587.583,1052.65
588.117,1033.35
588.651,1028.15
589.186,1024.0
589.72,1022.95
590.253,1026.25
590.787,1024.1
591.321,1024.65
591.854,1019.6
592.388,1021.7
592.921,1025.75
593.455,1023.7
593.988,1021.6
594.521,1020.35
595.054,1024.25
595.587,1022.0
596.12,1020.95
596.653,1021.5
597.186,1023.05
597.718,1024.4
598.251,1025.9
598.783,1025.7
599.316,1022.8
599.848,1023.8
600.38,1024.9
600.912,1019.65
601.444,1019.55
601.976,1019.4
602.508,1018.5
603.04,1015.95
603.572,1017.4
604.103,1019.65
604.635,1019.1
605.167,1013.45
605.698,1012.4
606.229,1006.65
606.761,1008.6
607.292,1006.85
607.823,1006.55
608.354,1010.35
608.885,1009.25
609.416,1011.9
609.947,1011.85
610.477,1008.7
611.008,1006.2
611.539,1009.25
612.069,1009.0
612.6,1008.5
613.13,1009.5
613.66,1008.6
614.19,1010.4
614.721,1010.2
615.251,1012.3
615.781,1007.45
616.311,1007.5
616.841,1008.75
617.37,1007.9
617.9,1009.15
618.43,1005.15
618.96,1005.0
619.489,1007.4
620.019,1007.6
620.548,1004.1
621.077,1001.25
621.607,1004.7
622.136,1003.8
622.665,1008.0
623.194,1010.8
623.723,1004.8
624.252,1004.05
624.781,1001.65
625.31,1000.15
625.839,1001.35
626.368,998.5
626.896,1002.8
627.425,998.1
627.953,1001.9
628.482,1031.9
629.01,1021.75
629.539,1022.0
630.067,1023.6
630.596,1052.75
631.124,1199.65
631.652,1088.9
632.18,1045.25
632.708,1039.35
633.236,1074.4
633.764,1056.55
634.292,1013.95
634.82,997.75
635.348,988.1
635.876,987.7
636.403,989.65
636.931,986.0
637.459,983.65
637.986,985.4
638.514,982.7
639.041,980.95
639.568,980.15
640.096,980.35
640.623,976.95
641.15,978.7
641.678,976.95
642.205,976.0
642.732,971.25
643.259,974.25
643.786,972.45
644.313,969.75
644.84,972.6
645.367,965.15
645.894,965.95
646.421,963.55
646.948,965.55
647.474,967.3
648.001,966.4
648.528,960.85
649.054,960.3
649.581,958.05
650.108,956.65
650.634,958.25
651.161,957.25
651.687,957.55
652.214,958.5
652.74,954.1
653.266,958.55
653.793,959.6
654.319,953.85
654.845,953.65
655.371,951.9
655.897,952.6
656.424,951.95
656.95,953.3
657.476,951.3
658.002,953.55
658.528,949.55
659.054,951.6
659.58,951.6
660.106,951.6
660.631,945.65
661.157,949.55
661.683,946.5
662.209,943.5
662.735,947.0
663.129,944.05