File: spectra/VLFR_08-PLA_bio_Raman_36dac0e4.csv
nm,Intensity
528.65,1838.1
529.155,1838.4
529.66,1837.0
530.165,1837.6
530.67,1838.35
531.175,1839.05
531.68,1870.4
532.185,3549.7
532.69,1840.8
533.194,1839.85
533.699,2149.0
534.204,2906.95
534.708,2826.05
535.213,2773.6
535.717,2726.15
536.222,2671.2
536.726,2709.05
537.231,2693.7
537.735,2703.65
538.239,2677.95
538.743,2667.25
539.247,2673.25
539.751,2652.75
540.255,2673.6
540.759,2741.6
541.263,2758.75
541.767,2733.1
542.271,2763.45
542.775,2758.65
543.279,2873.6
543.782,2895.0
544.286,2835.85
544.789,2807.05
545.293,2769.75
545.796,2801.7
546.3,2802.0
546.803,2814.35
547.306,2818.8
547.81,2825.1
548.313,2833.15
548.816,2842.05
549.319,2849.55
549.822,2851.35
550.325,2873.65
550.828,2914.4
551.331,2931.2
551.834,2965.4
552.337,2969.4
552.839,2983.1
553.342,2948.8
553.844,3003.25
554.347,3026.25
554.849,2996.6
555.352,2997.15
555.854,3002.95
556.357,3019.45
556.859,3032.95
557.361,3102.15
557.863,3526.15
558.365,3357.25
558.867,3166.65
559.369,3154.55
559.871,3100.6
560.373,3084.65
560.875,3089.55
561.377,3115.3
561.878,3170.25
562.38,3150.55
562.881,3194.25
563.383,3301.7
563.884,3211.45
564.386,3166.75
564.887,3258.2
565.388,3298.75
565.89,3347.2
566.391,3346.05
566.892,3162.2
567.393,3157.25
567.894,3233.65
568.395,3223.7
568.896,3243.0
569.396,3221.75
569.897,3203.1
570.398,3206.2
570.898,3241.3
571.399,3297.6
571.9,3349.95
572.4,3305.05
572.9,3275.4
573.401,3318.35
573.901,3249.3
574.401,3321.0
574.901,3275.4
575.401,3248.2
575.901,3247.95
576.401,3469.05
576.901,3553.6
577.401,3336.5
577.901,3259.35
578.4,3224.55
578.9,3241.7
579.399,3240.55
579.899,3263.4
580.398,3290.5
580.898,3288.35
581.397,3258.4
581.896,3286.1
582.395,3267.85
582.895,3285.8
583.394,3304.4
583.893,3267.05
584.391,3291.75
584.89,3258.6
585.389,3289.65
585.888,3286.3
586.386,3299.9
586.885,3471.8
587.384,3581.9
587.882,3507.55
588.38,3326.35
588.879,3296.45
589.377,3287.2
589.875,3258.25
590.373,3265.75
590.871,3279.3
591.369,3280.1
591.867,3283.95
592.365,3288.3
592.863,3259.95
593.361,3268.4
593.858,3235.3
594.356,3240.7
594.853,3251.05
595.351,3287.45
595.848,3297.55
596.345,3275.35
596.843,3273.05
597.34,3239.15
597.837,3272.3
598.334,3257.0
598.831,3245.8
599.328,3238.35
599.824,3243.9
600.321,3242.65
600.818,3229.85
601.314,3245.25
601.811,3220.7
602.307,3248.6
602.804,3230.7
603.3,3216.45
603.796,3214.15
604.293,3222.25
604.789,3177.85
605.285,3217.7
605.781,3169.7
606.277,3184.65
606.772,3182.75
607.268,3167.3
607.764,3149.9
608.259,3182.0
608.755,3134.35
609.25,3133.15
609.746,3142.0
610.241,3156.25
610.736,3139.7
611.231,3143.45
611.727,3123.05
612.222,3098.5
612.716,3101.55
613.211,3100.5
613.706,3097.4
614.201,3078.05
614.695,3058.85
615.19,3053.05
615.684,3057.85
616.179,3057.15
616.673,3036.65
617.168,3060.45
617.662,3037.6
618.156,3033.55
618.65,3044.15
619.144,3056.3
619.638,3040.6
620.131,3012.05
620.625,3049.65
621.119,3031.15
621.612,3020.8
622.106,3005.05
622.599,3012.15
623.093,3084.85
623.586,3026.8
624.079,3024.85
624.572,2991.0
625.065,2972.35
625.558,2965.25
626.051,2964.95
626.544,2953.2
627.037,2944.0
627.529,3002.45
628.022,3043.85
628.514,3269.7
629.007,3204.05
629.499,3198.3
629.991,3213.25
630.483,3465.4
630.976,4714.4
631.468,4118.75
631.959,3456.65
632.451,3337.8
632.943,3592.6
633.435,3657.8
633.926,3410.25
634.418,3064.65
634.909,2935.7
635.401,2893.35
635.892,2854.05
636.383,2887.6
636.874,2808.2
637.365,2828.3
637.856,2788.7
638.347,2853.85
638.838,2817.15
639.329,2828.5
639.819,2811.9
640.31,2832.35
640.8,2785.0
641.291,2791.3
641.781,2797.3
642.271,2805.5
642.761,2780.2
643.251,2766.3
643.741,2769.45
644.231,2742.6
644.721,2751.3
645.211,2750.7
645.7,2726.35
646.19,2735.6
646.679,2715.85
647.169,2706.7
647.658,2735.75
648.147,2727.3
648.636,2684.45
649.125,2699.2
649.614,2665.55
650.103,2633.35
650.592,2666.0
651.08,2654.65
651.569,2607.8
652.058,2624.35
652.546,2631.5
653.034,2608.85
653.523,2575.1
654.011,2552.55
654.499,2575.0
654.987,2537.5
655.475,2532.95
655.963,2519.75
656.45,2544.0
656.938,2488.85
657.425,2470.9
657.913,2488.9
658.4,2469.1
658.888,2458.35
659.375,2418.3
659.862,2411.3
660.349,2408.85
660.836,2408.75
661.079,2419.15