File: spectra/VLFR_01-LDPE_nobio_Raman_f44fc2b9.csv
nm,Intensity
526.486,830.0
527.033,828.7
527.579,828.2
528.126,829.0
528.672,828.0
529.219,828.9
529.765,827.5
530.311,829.5
530.857,829.8
531.403,829.5
531.948,827.9
532.494,829.3
533.039,829.4
533.585,830.2
534.13,875.8
534.675,869.4
535.22,862.2
535.764,855.7
536.309,853.5
536.854,851.3
537.398,853.0
537.942,851.3
538.486,849.4
539.03,850.8
539.574,845.3
540.118,847.2
540.662,844.9
541.205,844.8
541.749,845.1
542.292,845.1
542.835,843.1
543.378,845.5
543.921,844.6
544.464,842.7
545.006,845.0
545.549,843.5
546.091,841.8
546.634,843.2
547.176,842.6
547.718,843.0
548.26,840.7
548.802,840.7
549.343,842.9
549.885,843.3
550.426,840.2
550.968,843.1
551.509,843.4
552.05,841.8
552.591,842.5
553.132,843.7
553.673,842.5
554.214,844.0
554.754,844.9
555.295,844.3
555.835,843.4
556.375,848.7
556.915,848.2
557.455,848.8
557.995,850.3
558.535,850.3
559.075,848.6
559.614,847.4
560.154,846.0
560.693,846.8
561.232,848.8
561.772,848.8
562.311,850.0
562.85,850.0
563.388,853.8
563.927,879.0
564.466,864.9
565.004,863.4
565.543,858.9
566.081,900.1
566.619,860.9
567.157,852.3
567.695,853.8
568.233,848.9
568.771,849.1
569.309,849.6
569.846,851.1
570.384,853.1
570.921,857.4
571.458,901.3
571.995,873.9
572.532,860.6
573.069,855.4
573.606,853.1
574.143,859.4
574.68,854.6
575.216,855.4
575.753,890.4
576.289,921.9
576.825,898.8
577.361,882.9
577.897,862.4
578.433,859.5
578.969,858.0
579.505,858.2
580.041,861.4
580.576,861.9
581.112,862.0
581.647,864.6
582.183,864.8
582.718,865.9
583.253,869.4
583.788,868.1
584.323,868.4
584.858,869.6
585.392,873.4
585.927,875.4
586.462,880.5
586.996,880.9
587.53,882.5
588.065,886.1
588.599,890.1
589.133,887.4
589.667,888.5
590.201,894.5
590.735,894.0
591.268,895.2
591.802,893.5
592.335,896.9
592.869,897.7
593.402,892.6
593.936,900.3
594.469,899.5
595.002,900.5
595.535,904.5
596.068,901.3
596.601,902.4
597.133,908.7
597.666,910.8
598.199,911.8
598.731,916.0
599.264,919.6
599.796,917.5
600.328,917.4
600.86,917.6
601.393,921.1
601.925,917.1
602.457,920.2
602.988,917.6
603.52,920.3
604.052,914.4
604.583,909.0
605.115,907.4
605.646,903.7
606.178,899.3
606.709,899.2
607.24,896.5
607.771,892.9
608.302,890.8
608.833,889.4
609.364,887.7
609.895,884.2
610.426,886.0
610.957,885.6
611.487,884.0
612.018,881.1
612.548,880.3
613.078,877.6
613.609,881.5
614.139,879.5
614.669,876.2
615.199,877.9
615.729,874.1
616.259,875.1
616.789,877.6
617.319,880.9
617.849,878.0
618.378,878.3
618.908,876.5
619.437,879.5
619.967,881.1
620.496,875.5
621.025,875.6
621.555,886.6
622.084,896.1
622.613,896.9
623.142,881.4
623.671,876.4
624.2,875.7
624.729,875.4
625.258,877.8
625.786,881.2
626.315,891.5
626.844,994.2
627.372,1285.8
627.901,1122.7
628.429,1200.6
628.957,1192.0
629.486,1120.5
630.014,1056.0
630.542,1043.9
631.07,958.2
631.598,908.2
632.126,891.8
632.654,880.1
633.182,877.6
633.71,873.2
634.237,869.5
634.765,871.1
635.293,871.1
635.82,870.1
636.348,865.6
636.875,869.6
637.403,866.0
637.93,867.7
638.458,867.1
638.985,868.1
639.512,867.5
640.039,867.8
640.566,868.0
641.093,868.8
641.62,869.1
642.147,870.5
642.674,870.7
643.201,870.2
643.728,872.5
644.255,870.9
644.781,869.6
645.308,872.8
645.835,871.7
646.361,869.8
646.888,873.0
647.414,872.1
647.941,874.3
648.467,871.8
648.993,871.0
649.52,873.6
650.046,871.3
650.572,871.4
651.098,869.3
651.625,871.9
652.151,875.1
652.677,875.2
653.203,872.4
653.729,870.5
654.255,873.7
654.78,874.3
655.306,874.2
655.832,875.4
656.358,873.3
656.884,875.1
657.409,873.8
657.935,870.8
658.461,871.6
658.986,868.2
659.512,868.4
660.037,869.8
660.563,867.5
661.088,865.1
661.614,864.4
662.139,863.1
662.664,863.0
663.058,859.3