File: spectra/VLFR_01-LDPE_bio_Raman_5be9db29.csv
nm,Intensity
526.547,832.85
527.095,832.9
527.642,833.15
528.189,832.55
528.736,833.5
529.283,832.7
529.829,832.1
530.376,832.2
530.922,832.4
531.468,832.9
532.014,839.9
532.56,832.4
533.106,833.2
533.651,834.1
534.196,946.45
534.742,931.5
535.287,912.85
535.832,891.15
536.376,885.95
536.921,880.3
537.465,880.35
538.01,875.5
538.554,873.55
539.098,868.0
539.642,864.2
540.186,863.45
540.729,862.8
541.273,859.85
541.816,861.9
542.36,861.0
542.903,859.25
543.446,858.7
543.988,857.6
544.531,858.8
545.074,857.5
545.616,856.15
546.158,857.15
546.701,855.65
547.243,856.95
547.785,854.9
548.326,856.15
548.868,853.9
549.41,854.45
549.951,853.7
550.492,853.7
551.034,854.65
551.575,854.95
552.116,857.2
552.656,856.55
553.197,859.15
553.738,860.2
554.278,860.3
554.819,862.1
555.359,863.65
555.899,865.9
556.439,866.35
556.979,871.35
557.519,872.3
558.058,876.65
558.598,878.25
559.137,876.25
559.677,872.6
560.216,875.15
560.755,874.6
561.294,876.15
561.833,879.8
562.371,883.9
562.91,888.8
563.449,896.65
563.987,989.95
564.525,924.05
565.064,913.45
565.602,908.0
566.14,1000.3
566.678,913.95
567.216,909.95
567.753,913.15
568.291,911.3
568.828,915.45
569.366,920.35
569.903,926.65
570.44,934.0
570.977,950.05
571.514,1114.0
572.051,1000.3
572.588,974.15
573.125,975.2
573.661,988.8
574.198,1004.05
574.734,1008.8
575.271,1029.1
575.807,1096.9
576.343,1259.25
576.879,1207.15
577.415,1176.95
577.951,1155.05
578.486,1182.45
579.022,1209.25
579.557,1241.9
580.093,1276.55
580.628,1310.15
581.164,1340.6
581.699,1371.0
582.234,1403.2
582.769,1432.65
583.304,1470.15
583.838,1499.3
584.373,1525.5
584.908,1556.05
585.442,1585.95
585.977,1627.45
586.511,1665.0
587.045,1718.95
587.58,1754.15
588.114,1795.7
588.648,1839.2
589.182,1870.5
589.715,1917.1
590.249,1971.5
590.783,2019.15
591.316,2046.35
591.85,2081.95
592.383,2093.95
592.917,2112.65
593.45,2120.0
593.983,2130.85
594.516,2145.8
595.049,2153.7
595.582,2180.05
596.115,2184.55
596.648,2213.05
597.18,2234.5
597.713,2246.8
598.245,2280.2
598.778,2306.25
599.31,2319.25
599.842,2324.3
600.375,2323.9
600.907,2302.45
601.439,2292.5
601.971,2272.0
602.503,2253.85
603.034,2224.25
603.566,2172.15
604.098,2126.7
604.629,2058.2
605.161,2001.6
605.692,1935.3
606.224,1886.2
606.755,1834.95
607.286,1803.0
607.817,1761.9
608.348,1735.5
608.879,1715.05
609.41,1673.2
609.941,1644.95
610.472,1613.65
611.002,1598.7
611.533,1584.15
612.063,1562.85
612.594,1544.95
613.124,1537.5
613.655,1523.3
614.185,1509.0
614.715,1488.1
615.245,1471.35
615.775,1454.7
616.305,1436.85
616.835,1434.65
617.365,1418.05
617.895,1405.5
618.425,1398.2
618.954,1383.15
619.484,1380.15
620.013,1369.2
620.543,1364.6
621.072,1361.05
621.602,1378.8
622.131,1404.25
622.66,1394.7
623.189,1352.4
623.718,1337.5
624.247,1338.1
624.776,1338.15
625.305,1335.75
625.834,1340.65
626.363,1385.4
626.891,1762.0
627.42,2297.95
627.949,1930.5
628.477,2317.55
629.006,1984.15
629.534,1847.35
630.062,1714.05
630.591,1685.45
631.119,1500.25
631.647,1415.05
632.175,1386.45
632.703,1374.75
633.231,1376.65
633.759,1375.35
634.287,1372.55
634.815,1377.15
635.343,1378.85
635.871,1386.6
636.398,1389.05
636.926,1398.4
637.454,1397.15
637.981,1401.65
638.509,1411.9
639.036,1414.45
639.564,1423.2
640.091,1431.95
640.618,1435.4
641.146,1442.5
641.673,1452.35
642.2,1457.9
642.727,1464.05
643.254,1470.25
643.781,1468.9
644.308,1476.5
644.835,1473.75
645.362,1469.25
645.889,1473.4
646.416,1467.35
646.942,1474.05
647.469,1479.45
647.996,1476.6
648.522,1478.25
649.049,1467.15
649.576,1460.1
650.102,1462.05
650.629,1457.25
651.155,1460.95
651.682,1460.0
652.208,1452.4
652.734,1453.2
653.261,1456.55
653.787,1457.2
654.313,1456.7
654.839,1449.15
655.365,1440.1
655.892,1431.5
656.418,1417.0
656.944,1413.2
657.47,1403.65
657.996,1381.85
658.522,1368.6
659.048,1353.8
659.574,1339.9
660.099,1320.25
660.625,1302.3
661.151,1283.0
661.677,1262.2
662.203,1244.0
662.728,1227.45
663.123,1215.95