File: spectra/VLFR_08-PLA_bio_Raman_25f413bb.csv
nm,Intensity
526.508,830.3
527.055,831.6
527.602,829.9
528.149,831.7
528.695,830.8
529.241,829.7
529.787,829.4
530.334,831.4
530.879,829.7
531.425,830.7
531.971,837.4
532.516,830.7
533.062,830.3
533.607,832.1
534.152,1085.3
534.697,1029.9
535.242,984.5
535.786,964.1
536.331,959.5
536.876,958.9
537.42,948.5
537.964,946.8
538.508,933.6
539.052,931.7
539.596,925.4
540.14,924.5
540.683,945.5
541.227,946.5
541.77,931.4
542.313,927.0
542.856,926.0
543.399,956.6
543.942,966.3
544.485,938.9
545.027,929.1
545.57,921.9
546.112,924.9
546.654,925.4
547.196,928.6
547.738,930.0
548.28,932.8
548.822,931.5
549.363,933.7
549.905,934.7
550.446,934.5
550.988,940.0
551.529,946.2
552.07,946.8
552.611,948.9
553.152,948.3
553.692,950.5
554.233,954.4
554.773,945.2
555.314,942.1
555.854,943.8
556.394,936.5
556.934,944.8
557.474,964.6
558.014,1093.4
558.553,981.3
559.093,959.6
559.632,958.2
560.172,950.3
560.711,947.3
561.25,946.8
561.789,942.9
562.328,945.2
562.867,959.1
563.406,994.2
563.944,969.3
564.483,958.7
565.021,991.2
565.559,979.6
566.098,1015.4
566.636,982.0
567.174,956.1
567.711,960.7
568.249,964.9
568.787,961.2
569.324,965.8
569.862,960.0
570.399,959.4
570.936,966.3
571.474,989.0
572.011,983.3
572.548,978.0
573.084,979.7
573.621,987.0
574.158,979.2
574.694,993.9
575.231,967.7
575.767,966.8
576.303,990.7
576.84,1061.5
577.376,997.4
577.912,972.2
578.447,972.8
578.983,968.1
579.519,966.7
580.054,967.1
580.59,967.2
581.125,968.2
581.661,966.0
582.196,968.5
582.731,966.7
583.266,969.9
583.801,970.7
584.336,974.1
584.87,974.5
585.405,971.5
585.94,981.6
586.474,989.1
587.008,1028.2
587.543,1061.0
588.077,1002.2
588.611,972.0
589.145,968.8
589.679,971.3
590.213,973.3
590.747,966.3
591.28,969.1
591.814,968.5
592.347,967.5
592.881,968.3
593.414,968.9
593.947,969.9
594.48,972.0
595.014,966.4
595.547,971.4
596.079,970.5
596.612,970.9
597.145,970.6
597.678,968.8
598.21,969.8
598.743,973.1
599.275,976.4
599.807,973.6
600.34,969.3
600.872,968.3
601.404,965.2
601.936,969.7
602.468,965.0
603.0,970.9
603.532,966.0
604.063,963.2
604.595,965.3
605.126,960.9
605.658,962.0
606.189,966.3
606.721,963.4
607.252,963.0
607.783,961.4
608.314,961.1
608.845,964.4
609.376,968.9
609.907,960.5
610.438,960.8
610.968,961.9
611.499,964.3
612.03,959.5
612.56,962.9
613.091,960.9
613.621,965.2
614.151,965.2
614.681,964.4
615.212,964.7
615.742,961.1
616.272,964.1
616.802,964.0
617.332,961.1
617.861,962.6
618.391,964.3
618.921,961.0
619.45,956.5
619.98,958.1
620.509,960.0
621.039,957.5
621.568,962.1
622.097,961.4
622.627,968.0
623.156,980.5
623.685,970.3
624.214,967.0
624.743,966.5
625.272,960.1
625.801,955.7
626.33,960.2
626.858,962.3
627.387,962.6
627.916,971.7
628.444,1059.6
628.973,1040.7
629.501,1034.4
630.029,1042.0
630.558,1113.2
631.086,1557.1
631.614,1262.6
632.142,1112.2
632.67,1092.1
633.198,1195.2
633.726,1158.6
634.254,1036.4
634.782,978.6
635.31,959.3
635.838,954.2
636.365,949.8
636.893,947.3
637.421,945.1
637.948,943.0
638.476,949.7
639.003,943.5
639.531,943.8
640.058,945.3
640.585,946.3
641.113,945.4
641.64,948.3
642.167,944.3
642.694,941.2
643.221,940.7
643.748,936.8
644.275,941.1
644.802,938.2
645.329,936.2
645.856,931.2
646.382,935.4
646.909,932.4
647.436,932.4
647.962,927.6
648.489,928.5
649.016,930.2
649.542,930.8
650.069,925.2
650.595,926.0
651.121,925.1
651.648,926.0
652.174,930.8
652.7,927.3
653.227,927.6
653.753,928.0
654.279,926.7
654.805,923.0
655.331,923.3
655.857,923.1
656.383,925.0
656.909,926.7
657.435,923.2
657.961,924.8
658.487,925.6
659.013,920.9
659.538,923.4
660.064,919.5
660.59,921.8
661.116,917.6
661.641,916.8
662.167,917.3
662.692,917.7
663.087,917.3