File: spectra/VLFR_01-LDPE_bio_Raman_8afeec81.csv
nm,Intensity
528.635,1835.6
529.14,1835.0
529.645,1834.3
530.151,1836.1
530.656,1836.5
531.161,1837.6
531.666,1865.2
532.171,3927.2
532.676,1837.5
533.181,1836.3
533.686,1960.4
534.191,2271.0
534.696,2275.7
535.201,2252.1
535.705,2209.7
536.21,2222.5
536.715,2210.3
537.219,2224.4
537.724,2214.1
538.228,2226.9
538.733,2219.7
539.237,2203.9
539.741,2214.3
540.246,2216.9
540.75,2221.6
541.254,2222.0
541.758,2210.1
542.262,2227.1
542.766,2246.1
543.27,2262.0
543.774,2238.4
544.278,2256.5
544.781,2259.9
545.285,2245.5
545.789,2257.1
546.292,2274.6
546.796,2267.5
547.299,2260.8
547.803,2260.1
548.306,2273.0
548.809,2312.9
549.313,2288.1
549.816,2273.3
550.319,2273.9
550.822,2305.2
551.325,2298.8
551.828,2313.4
552.331,2299.8
552.834,2305.0
553.337,2318.9
553.839,2319.7
554.342,2347.7
554.845,2354.2
555.347,2345.3
555.85,2352.2
556.352,2357.1
556.854,2375.9
557.357,2371.6
557.859,2398.7
558.361,2401.7
558.863,2380.5
559.365,2411.0
559.867,2405.9
560.369,2402.3
560.871,2409.0
561.373,2428.8
561.875,2403.3
562.377,2431.7
562.878,2468.4
563.38,2466.4
563.881,2695.2
564.383,2580.7
564.884,2539.3
565.386,2505.0
565.887,2638.7
566.388,2629.9
566.889,2509.7
567.391,2521.8
567.892,2531.2
568.393,2524.4
568.893,2516.1
569.394,2531.1
569.895,2571.4
570.396,2604.7
570.897,2643.9
571.397,2944.7
571.898,2777.5
572.398,2701.0
572.899,2696.2
573.399,2698.4
573.899,2708.9
574.399,2699.5
574.9,2699.9
575.4,2796.7
575.9,2929.3
576.4,3113.1
576.899,3042.9
577.399,2939.5
577.899,2860.1
578.399,2885.8
578.898,2887.9
579.398,2943.3
579.897,2979.6
580.397,3040.6
580.896,3097.4
581.396,3049.8
581.895,3083.4
582.394,3097.8
582.893,3106.5
583.392,3043.2
583.891,3047.9
584.39,3032.1
584.889,3052.7
585.387,3047.8
585.886,3101.0
586.385,3082.4
586.883,3101.4
587.382,3111.5
587.88,3096.0
588.379,3190.2
588.877,3123.3
589.375,3150.5
589.873,3211.0
590.371,3176.4
590.869,3182.0
591.367,3247.4
591.865,3287.3
592.363,3253.2
592.86,3243.8
593.358,3311.2
593.856,3285.9
594.353,3309.5
594.851,3291.4
595.348,3289.8
595.845,3332.7
596.342,3365.7
596.84,3366.7
597.337,3348.1
597.834,3385.6
598.331,3411.3
598.827,3420.7
599.324,3493.2
599.821,3440.4
600.318,3465.6
600.814,3486.6
601.311,3444.2
601.807,3455.9
602.303,3458.4
602.8,3430.3
603.296,3413.8
603.792,3340.6
604.288,3336.8
604.784,3270.7
605.28,3202.5
605.776,3165.5
606.272,3190.8
606.767,3123.3
607.263,3151.9
607.758,3044.1
608.254,3057.9
608.749,2993.2
609.244,2978.6
609.74,2983.8
610.235,2974.9
610.73,2936.7
611.225,2944.0
611.72,2910.3
612.215,2853.7
612.709,2854.7
613.204,2822.4
613.699,2825.7
614.193,2802.3
614.688,2797.2
615.182,2797.1
615.676,2782.9
616.171,2762.5
616.665,2788.1
617.159,2755.4
617.653,2776.9
618.147,2728.8
618.641,2734.4
619.134,2745.5
619.628,2745.3
620.122,2736.0
620.615,2758.1
621.109,2764.7
621.602,2786.2
622.095,2810.8
622.588,2804.4
623.082,2764.8
623.575,2705.3
624.068,2697.4
624.56,2718.6
625.053,2707.1
625.546,2711.4
626.039,2788.3
626.531,3028.8
627.024,4498.9
627.516,4402.6
628.008,4085.8
628.501,4813.2
628.993,4175.1
629.485,3903.5
629.977,3581.4
630.469,3485.6
630.961,3125.2
631.452,2820.4
631.944,2775.9
632.436,2732.8
632.927,2714.6
633.418,2677.1
633.91,2657.4
634.401,2620.6
634.892,2624.9
635.383,2613.4
635.874,2624.9
636.365,2623.4
636.856,2601.3
637.347,2573.0
637.837,2607.7
638.328,2558.3
638.818,2560.5
639.309,2514.0
639.799,2585.5
640.289,2533.8
640.78,2550.3
641.27,2556.7
641.76,2520.8
642.249,2548.2
642.739,2510.7
643.229,2526.0
643.719,2508.6
644.208,2539.5
644.698,2512.8
645.187,2498.1
645.676,2525.9
646.165,2503.2
646.655,2501.5
647.144,2493.7
647.633,2476.7
648.121,2481.9
648.61,2492.7
649.099,2466.5
649.587,2450.6
650.076,2452.8
650.564,2463.3
651.053,2440.9
651.541,2453.5
652.029,2437.2
652.517,2397.5
653.005,2423.2
653.493,2423.8
653.981,2396.3
654.468,2417.0
654.956,2405.7
655.444,2390.0
655.931,2367.5
656.418,2366.9
656.906,2357.9
657.393,2351.6
657.88,2317.8
658.367,2287.6
658.854,2304.0
659.341,2274.5
659.827,2263.2
660.314,2237.9
660.8,2248.4
661.044,2237.6