File: spectra/VLFR_07-PET_bio_Raman_8abdf619.csv
nm,Intensity
791.377,10360.3
792.477,9802.1
793.576,9243.8
794.676,8891.5
795.775,8788.5
796.874,8707.1
797.973,8744.0
799.072,8680.2
800.171,8649.4
801.27,8671.5
802.368,8582.7
803.467,8519.8
804.565,8427.7
805.664,8419.1
806.762,8234.8
807.86,8253.8
808.958,8127.3
810.056,8114.4
811.153,8012.2
812.251,7909.6
813.349,7894.9
814.446,7747.6
815.543,7733.8
816.64,7626.2
817.737,7512.7
818.834,7508.1
819.931,7431.0
821.028,7437.1
822.125,7380.2
823.221,7280.5
824.317,7129.3
825.414,7335.6
826.51,7173.5
827.606,7079.3
828.702,7059.7
829.797,7041.4
830.893,7021.8
831.988,6940.3
833.084,6791.6
834.179,6789.4
835.274,6728.3
836.369,6701.5
837.464,6844.2
838.559,6724.8
839.654,6730.5
840.748,6814.0
841.843,6923.3
842.937,6584.9
844.031,6552.7
845.125,6463.0
846.219,6298.7
847.313,6289.4
848.407,6213.1
849.5,6224.4
850.593,6192.1
851.687,6262.4
852.78,6132.8
853.873,6161.9
854.966,6071.9
856.059,6067.0
857.151,6003.6
858.244,6087.4
859.336,6169.1
860.428,6118.5
861.52,5988.7
862.612,5886.1
863.704,5893.9
864.796,5895.1
865.888,5858.0
866.979,5791.0
868.07,5712.4
869.162,5744.6
870.253,5822.0
871.344,5854.0
872.434,5953.3
873.525,6014.6
874.615,5770.3
875.706,5648.5
876.796,5583.0
877.886,5579.0
878.976,5569.5
880.066,5556.6
881.156,5500.6
882.245,5501.8
883.335,5509.2
884.424,5398.8
885.513,5488.4
886.602,5421.8
887.691,5370.5
888.78,5350.9
889.868,5333.3
890.957,5252.8
892.045,5314.6
893.133,5272.7
894.221,5185.3
895.309,5213.0
896.397,5194.6
897.484,5377.0
898.571,5795.6
899.659,5432.8
900.746,5102.4
901.833,5078.3
902.92,4984.3
904.006,5009.5
905.093,4993.0
906.179,5071.9
907.266,5299.8
908.352,5358.6
909.438,5051.1
910.523,4874.7
911.609,4833.4
912.695,4798.7
913.78,4784.9
914.865,4755.8
915.95,4738.2
917.035,4694.1
918.12,4639.8
919.204,4640.3
920.289,4626.6
921.373,4595.5
922.457,4568.2
923.541,4576.6
924.625,4534.3
925.709,4504.2
926.792,4498.3
927.876,4466.5
928.959,4442.0
930.042,4432.8
931.125,4417.2
932.208,4370.3
933.29,4357.5
934.373,4351.8
935.455,4332.1
936.537,4326.7
937.619,4294.5
938.701,4288.7
939.782,4247.9
940.864,4253.2
941.945,4220.2
943.026,4215.6
944.107,4202.0
945.188,4193.3
946.269,4179.5
947.349,4154.5
948.43,4149.7
949.51,4130.2
950.59,4125.8
951.67,4112.7
952.75,4102.7
953.829,4092.9
954.909,4075.9
955.988,4084.4
957.067,4062.6
958.146,4041.8
959.224,4054.5
960.303,4036.6
961.381,4028.8
962.459,4009.4
963.537,4011.7
964.615,4000.8
965.693,3995.8
966.771,3990.7
967.848,3981.2
968.925,3971.0
970.002,3967.1
971.079,3957.1
972.156,3952.1
973.232,3950.3
974.309,3947.3
975.385,3931.4
976.461,3929.6
977.537,3921.9
978.612,3912.1
979.688,3919.7
980.763,3910.0
981.838,3904.4
982.913,3904.3
983.988,3895.8
985.063,3893.0
986.137,3887.0
987.211,3888.2
988.285,3885.3
989.359,3878.5
990.433,3871.4
991.506,3864.1
992.58,3867.1
993.653,3862.1
994.726,3858.5
995.799,3852.4
996.872,3853.4
997.944,3851.0
999.016,3847.1
1000.09,3844.8
1001.16,3843.0
1002.23,3838.6
1003.3,3837.4
1004.38,3835.7
1005.45,3830.2
1006.52,3827.7
1007.59,3825.4
1008.66,3819.2
1009.73,3819.2
1010.8,3820.7
1011.87,3818.6
1012.94,3818.5
1014.01,3817.2
1015.08,3814.6
1016.15,3809.7
1017.22,3815.5
1018.29,3808.5
1019.36,3809.2
1020.42,3809.2
1021.49,3812.3
1022.56,3815.1
1023.63,3811.4
1024.7,3806.8
1025.76,3807.5
1026.83,3802.2
1027.9,3799.4
1028.97,3796.9
1030.03,3793.8
1031.1,3793.1
1032.17,3791.8
1033.23,3794.8
1034.3,3791.8
1035.36,3795.3
1036.43,3794.6
1037.5,3787.1
1038.56,3788.2
1039.63,3784.5
1040.69,3786.2
1041.76,3784.4
1042.82,3782.7
1043.89,3782.5
1044.95,3784.0
1046.01,3781.8
1047.08,3782.5
1048.14,3782.5
1049.2,3780.2
1050.27,3779.8
1051.33,3781.5
1052.39,3778.1
1053.46,3779.0
1054.52,3778.0
1055.58,3780.5
1056.64,3778.9
1057.7,3779.7
1058.77,3777.3
1059.83,3777.2
1060.89,3777.5
1061.95,3777.8
1063.01,3777.8
1064.07,3776.1
1065.13,3778.2
1066.19,3777.6
1067.25,3775.0
1068.05,3775.2