File: spectra/VLFR_02-HDPE_bio_Raman_db4da630.csv
nm,Intensity
526.508,830.7
527.055,829.2
527.602,829.9
528.149,829.3
528.695,828.5
529.241,829.1
529.787,829.3
530.334,829.6
530.879,828.2
531.425,827.7
531.971,835.7
532.516,831.8
533.062,829.0
533.607,829.3
534.152,852.7
534.697,850.7
535.242,848.4
535.786,844.6
536.331,842.0
536.876,843.8
537.42,843.9
537.964,842.6
538.508,842.1
539.052,843.7
539.596,843.8
540.14,839.6
540.683,840.4
541.227,842.3
541.77,840.1
542.313,841.0
542.856,842.3
543.399,842.0
543.942,842.2
544.485,840.7
545.027,841.7
545.57,843.0
546.112,842.0
546.654,840.6
547.196,841.0
547.738,841.0
548.28,841.8
548.822,841.7
549.363,843.3
549.905,844.5
550.446,842.8
550.988,842.2
551.529,843.2
552.07,841.6
552.611,841.3
553.152,844.3
553.692,843.1
554.233,843.2
554.773,845.1
555.314,843.3
555.854,842.2
556.394,845.3
556.934,844.7
557.474,847.0
558.014,846.3
558.553,846.8
559.093,845.8
559.632,845.5
560.172,847.8
560.711,847.8
561.25,848.1
561.789,849.1
562.328,849.8
562.867,850.3
563.406,851.5
563.944,870.4
564.483,857.3
565.021,856.2
565.559,855.0
566.098,896.9
566.636,858.4
567.174,853.4
567.711,855.7
568.249,853.5
568.787,854.0
569.324,856.5
569.862,856.8
570.399,859.6
570.936,860.0
571.474,892.5
572.011,867.7
572.548,862.4
573.084,862.9
573.621,864.8
574.158,870.2
574.694,869.2
575.231,871.0
575.767,897.8
576.303,898.8
576.84,892.3
577.376,892.3
577.912,885.7
578.447,890.2
578.983,889.6
579.519,896.9
580.054,903.3
580.59,905.5
581.125,908.8
581.661,921.2
582.196,926.0
582.731,931.9
583.266,938.4
583.801,947.5
584.336,947.5
584.87,957.2
585.405,967.2
585.94,968.3
586.474,980.0
587.008,981.9
587.543,996.4
588.077,1006.0
588.611,1010.4
589.145,1017.9
589.679,1023.8
590.213,1025.8
590.747,1041.7
591.28,1043.8
591.814,1058.7
592.347,1055.3
592.881,1059.8
593.414,1060.5
593.947,1062.8
594.48,1069.7
595.014,1070.3
595.547,1067.4
596.079,1062.8
596.612,1065.2
597.145,1061.5
597.678,1062.2
598.21,1063.2
598.743,1061.9
599.275,1063.6
599.807,1060.0
600.34,1062.8
600.872,1058.9
601.404,1056.3
601.936,1055.4
602.468,1052.5
603.0,1052.0
603.532,1045.1
604.063,1044.6
604.595,1042.5
605.126,1027.7
605.658,1028.5
606.189,1023.3
606.721,1017.1
607.252,1011.8
607.783,1011.5
608.314,1007.7
608.845,1000.5
609.376,1000.9
609.907,994.4
610.438,991.3
610.968,982.2
611.499,985.3
612.03,979.9
612.56,974.2
613.091,978.8
613.621,976.9
614.151,973.7
614.681,962.0
615.212,966.4
615.742,966.7
616.272,959.7
616.802,957.2
617.332,958.2
617.861,954.3
618.391,954.7
618.921,949.6
619.45,948.4
619.98,949.8
620.509,942.6
621.039,943.6
621.568,941.6
622.097,947.1
622.627,944.8
623.156,942.4
623.685,938.9
624.214,938.7
624.743,939.6
625.272,938.0
625.801,936.6
626.33,944.0
626.858,985.5
627.387,1076.5
627.916,1013.5
628.444,1052.3
628.973,1032.3
629.501,1008.9
630.029,987.5
630.558,990.8
631.086,958.6
631.614,947.4
632.142,940.2
632.67,941.5
633.198,943.2
633.726,943.2
634.254,943.6
634.782,942.7
635.31,945.7
635.838,945.5
636.365,948.2
636.893,948.3
637.421,949.2
637.948,948.8
638.476,953.2
639.003,956.0
639.531,956.6
640.058,956.1
640.585,955.7
641.113,965.7
641.64,962.6
642.167,967.4
642.694,963.8
643.221,966.0
643.748,967.0
644.275,965.4
644.802,962.6
645.329,966.9
645.856,967.9
646.382,971.1
646.909,964.1
647.436,969.7
647.962,964.4
648.489,964.0
649.016,964.3
649.542,957.4
650.069,958.9
650.595,958.8
651.121,953.8
651.648,957.6
652.174,954.5
652.7,952.7
653.227,951.5
653.753,950.6
654.279,944.1
654.805,947.4
655.331,942.4
655.857,939.4
656.383,939.3
656.909,941.0
657.435,936.7
657.961,938.0
658.487,938.5
659.013,933.7
659.538,931.4
660.064,930.1
660.59,930.9
661.116,925.1
661.641,923.4
662.167,923.1
662.692,920.5
663.087,919.7