File: spectra/VLFR_07-PET_bio_Raman_fbd5efed.csv
nm,Intensity
791.75,5637.45
792.846,5594.45
793.942,5547.0
795.037,5532.15
796.133,5502.25
797.228,5484.1
798.324,5484.4
799.419,5458.45
800.514,5499.5
801.61,5454.25
802.705,5410.2
803.8,5379.7
804.894,5414.2
805.989,5348.45
807.084,5308.75
808.178,5320.7
809.273,5250.25
810.367,5253.05
811.461,5270.55
812.556,5187.3
813.65,5151.7
814.744,5134.25
815.837,5094.55
816.931,5066.45
818.025,5044.65
819.118,5038.2
820.212,5022.65
821.305,5003.9
822.398,4953.8
823.491,4969.4
824.585,4936.3
825.677,4934.9
826.77,4891.6
827.863,4884.15
828.956,4833.05
830.048,4837.2
831.14,4843.95
832.233,4789.1
833.325,4778.0
834.417,4788.5
835.509,4761.65
836.601,4769.3
837.692,4760.95
838.784,4737.9
839.876,4715.35
840.967,4733.3
842.058,4733.15
843.149,4682.9
844.24,4651.35
845.331,4650.85
846.422,4612.05
847.513,4594.35
848.604,4619.65
849.694,4572.8
850.784,4561.65
851.875,4581.9
852.965,4558.1
854.055,4533.5
855.145,4533.4
856.235,4515.85
857.324,4514.45
858.414,4512.7
859.503,4533.3
860.593,4525.8
861.682,4478.3
862.771,4468.25
863.86,4477.3
864.949,4461.65
866.038,4435.3
867.126,4430.1
868.215,4414.35
869.303,4435.55
870.391,4420.5
871.479,4435.65
872.567,4448.4
873.655,4437.9
874.743,4432.7
875.831,4386.15
876.918,4387.7
878.006,4372.9
879.093,4361.0
880.18,4355.95
881.267,4353.4
882.354,4360.9
883.441,4328.05
884.527,4331.4
885.614,4338.7
886.7,4300.1
887.786,4313.7
888.872,4291.5
889.958,4293.15
891.044,4272.1
892.13,4271.9
893.216,4249.0
894.301,4251.75
895.386,4229.3
896.472,4225.35
897.557,4251.25
898.642,4297.4
899.726,4234.7
900.811,4173.8
901.896,4166.65
902.98,4167.95
904.064,4162.65
905.148,4150.75
906.232,4185.0
907.316,4216.4
908.4,4198.9
909.484,4138.75
910.567,4115.35
911.65,4115.85
912.734,4082.9
913.817,4077.25
914.9,4071.65
915.982,4065.6
917.065,4049.45
918.147,4047.95
919.23,4056.85
920.312,4036.5
921.394,4030.45
922.476,4023.25
923.558,4015.8
924.639,4002.65
925.721,3990.6
926.802,3992.6
927.884,3970.3
928.965,3974.25
930.046,3954.4
931.126,3952.4
932.207,3952.0
933.288,3935.75
934.368,3936.6
935.448,3920.85
936.528,3916.6
937.608,3914.8
938.688,3910.85
939.767,3901.05
940.847,3899.15
941.926,3895.65
943.005,3889.3
944.084,3883.2
945.163,3876.6
946.242,3874.6
947.321,3871.5
948.399,3862.45
949.477,3867.3
950.556,3859.85
951.634,3853.55
952.711,3852.4
953.789,3846.15
954.867,3843.2
955.944,3843.8
957.021,3841.95
958.098,3832.55
959.175,3829.4
960.252,3828.05
961.328,3828.05
962.405,3825.35
963.481,3820.65
964.557,3822.2
965.633,3818.55
966.709,3814.5
967.785,3814.75
968.86,3813.15
969.936,3809.7
971.011,3805.6
972.086,3806.3
973.161,3802.7
974.235,3799.3
975.31,3799.6
976.384,3795.85
977.459,3796.35
978.533,3793.0
979.607,3792.75
980.68,3794.75
981.754,3791.0
982.827,3790.95
983.901,3788.6
984.974,3783.45
986.047,3784.35
987.119,3785.45
988.192,3782.6
989.264,3784.0
990.337,3778.0
991.409,3776.65
992.481,3777.25
993.553,3775.75
994.624,3774.55
995.696,3776.4
996.767,3772.9
997.838,3769.3
998.909,3772.35
999.98,3770.6
1001.05,3768.1
1002.12,3768.35
1003.19,3765.45
1004.26,3765.3
1005.33,3762.9
1006.4,3761.95
1007.47,3762.35
1008.54,3761.55
1009.61,3759.05
1010.68,3761.1
1011.75,3757.35
1012.82,3757.85
1013.88,3758.75
1014.95,3757.4
1016.02,3757.9
1017.09,3756.15
1018.16,3753.65
1019.22,3755.55
1020.29,3753.8
1021.36,3755.15
1022.43,3755.6
1023.49,3755.85
1024.56,3753.7
1025.63,3752.5
1026.69,3751.2
1027.76,3750.45
1028.83,3749.8
1029.89,3750.0
1030.96,3748.0
1032.02,3747.15
1033.09,3748.3
1034.15,3748.8
1035.22,3747.15
1036.28,3748.85
1037.35,3745.9
1038.41,3746.95
1039.48,3746.55
1040.54,3746.5
1041.6,3744.75
1042.67,3743.95
1043.73,3744.85
1044.79,3744.1
1045.86,3745.05
1046.92,3745.05
1047.98,3742.55
1049.05,3743.8
1050.11,3742.55
1051.17,3742.85
1052.23,3742.75
1053.29,3743.55
1054.36,3741.2
1055.42,3743.6
1056.48,3742.45
1057.54,3743.1
1058.6,3741.05
1059.66,3741.75
1060.72,3741.2
1061.78,3742.9
1062.84,3741.6
1063.9,3742.15
1064.96,3742.3
1066.02,3741.8
1067.08,3740.75
1067.88,3741.1