File: spectra/VLFR_07-PET_nobio_Raman_1668c9e5.csv
nm,Intensity
791.75,14536.7
792.846,13462.2
793.942,13139.4
795.037,12919.8
796.133,12582.0
797.228,12657.5
798.324,12572.0
799.419,12432.2
800.514,12471.0
801.61,12522.5
802.705,12212.0
803.8,11867.8
804.894,11865.5
805.989,11815.6
807.084,11589.4
808.178,11453.6
809.273,11336.7
810.367,11329.3
811.461,11353.7
812.556,11240.5
813.65,11084.1
814.744,10874.5
815.837,10942.7
816.931,10735.0
818.025,10765.3
819.118,10661.1
820.212,10546.1
821.305,10513.8
822.398,10375.5
823.491,10272.8
824.585,10182.8
825.677,10456.2
826.77,9939.05
827.863,9932.8
828.956,9888.75
830.048,9820.3
831.14,9748.95
832.233,9627.2
833.325,9359.25
834.417,9264.5
835.509,9269.1
836.601,9391.0
837.692,9311.75
838.784,9152.2
839.876,9122.7
840.967,9463.85
842.058,9103.15
843.149,8925.75
844.24,8842.0
845.331,8577.15
846.422,8464.3
847.513,8454.35
848.604,8366.4
849.694,8359.4
850.784,8368.3
851.875,8300.25
852.965,8269.85
854.055,8220.8
855.145,8114.95
856.235,8058.4
857.324,8152.55
858.414,8183.15
859.503,8283.35
860.593,8067.2
861.682,7919.1
862.771,7744.45
863.86,7951.1
864.949,7796.05
866.038,7709.7
867.126,7614.6
868.215,7543.4
869.303,7531.65
870.391,7680.8
871.479,7867.95
872.567,7955.1
873.655,7879.15
874.743,7428.1
875.831,7276.65
876.918,7260.0
878.006,7197.45
879.093,7135.35
880.18,7041.85
881.267,7068.2
882.354,6942.85
883.441,6943.6
884.527,6934.4
885.614,6934.55
886.7,6698.35
887.786,6722.05
888.872,6590.6
889.958,6611.3
891.044,6661.9
892.13,6499.85
893.216,6416.15
894.301,6383.75
895.386,6319.25
896.472,6351.45
897.557,6983.3
898.642,6987.55
899.726,6294.25
900.811,6043.3
901.896,5976.1
902.98,5906.15
904.064,6009.0
905.148,5991.45
906.232,6151.75
907.316,6526.2
908.4,6166.4
909.484,5817.05
910.567,5667.65
911.65,5580.7
912.734,5543.4
913.817,5457.35
914.9,5396.4
915.982,5398.4
917.065,5369.6
918.147,5307.0
919.23,5288.55
920.312,5255.2
921.394,5175.6
922.476,5126.65
923.558,5128.65
924.639,5085.2
925.721,5028.45
926.802,5010.25
927.884,4965.1
928.965,4928.75
930.046,4902.15
931.126,4852.55
932.207,4839.85
933.288,4799.05
934.368,4740.8
935.448,4719.85
936.528,4701.85
937.608,4673.05
938.688,4626.15
939.767,4604.35
940.847,4611.25
941.926,4549.75
943.005,4532.1
944.084,4523.1
945.163,4475.55
946.242,4473.55
947.321,4459.05
948.399,4434.1
949.477,4399.65
950.556,4361.8
951.634,4362.3
952.711,4333.7
953.789,4305.05
954.867,4297.8
955.944,4272.8
957.021,4278.05
958.098,4253.2
959.175,4232.45
960.252,4213.9
961.328,4197.25
962.405,4185.4
963.481,4181.45
964.557,4139.75
965.633,4131.3
966.709,4122.25
967.785,4109.05
968.86,4104.45
969.936,4079.65
971.011,4066.35
972.086,4057.4
973.161,4040.3
974.235,4025.85
975.31,4033.95
976.384,4011.1
977.459,4002.25
978.533,3983.4
979.607,3978.6
980.68,3968.4
981.754,3967.5
982.827,3948.1
983.901,3939.85
984.974,3942.0
986.047,3927.05
987.119,3911.95
988.192,3911.5
989.264,3909.65
990.337,3901.15
991.409,3884.4
992.481,3878.95
993.553,3872.6
994.624,3863.0
995.696,3868.55
996.767,3856.1
997.838,3847.95
998.909,3838.6
999.98,3842.35
1001.05,3833.4
1002.12,3823.85
1003.19,3822.55
1004.26,3819.1
1005.33,3808.95
1006.4,3808.75
1007.47,3806.0
1008.54,3797.7
1009.61,3789.6
1010.68,3791.9
1011.75,3790.65
1012.82,3784.05
1013.88,3778.8
1014.95,3777.45
1016.02,3778.4
1017.09,3772.45
1018.16,3768.05
1019.22,3768.95
1020.29,3769.15
1021.36,3774.25
1022.43,3774.0
1023.49,3768.3
1024.56,3758.95
1025.63,3756.7
1026.69,3749.85
1027.76,3747.0
1028.83,3740.35
1029.89,3739.25
1030.96,3738.1
1032.02,3738.2
1033.09,3739.8
1034.15,3743.45
1035.22,3743.85
1036.28,3737.75
1037.35,3730.3
1038.41,3727.4
1039.48,3726.35
1040.54,3727.05
1041.6,3722.4
1042.67,3721.4
1043.73,3721.3
1044.79,3716.4
1045.86,3716.55
1046.92,3717.95
1047.98,3715.75
1049.05,3714.9
1050.11,3716.5
1051.17,3714.05
1052.23,3713.45
1053.29,3714.85
1054.36,3713.8
1055.42,3712.65
1056.48,3711.4
1057.54,3711.55
1058.6,3710.9
1059.66,3710.55
1060.72,3712.5
1061.78,3708.9
1062.84,3710.45
1063.9,3710.75
1064.96,3708.85
1066.02,3709.85
1067.08,3708.55
1067.88,3707.4