File: spectra/VLFR_02-HDPE_bio_Raman_a3166cab.csv
nm,Intensity
526.494,835.2
527.041,834.4
527.588,834.4
528.135,832.6
528.682,833.2
529.229,834.5
529.775,834.4
530.321,834.3
530.868,834.9
531.414,835.5
531.96,843.8
532.506,835.4
533.051,833.3
533.597,835.0
534.142,877.5
534.687,877.5
535.232,875.9
535.777,859.1
536.322,852.2
536.867,853.3
537.411,851.6
537.956,850.8
538.5,851.9
539.044,849.3
539.588,847.7
540.132,847.4
540.676,844.9
541.22,847.5
541.763,846.7
542.306,847.4
542.85,847.3
543.393,847.1
543.936,847.6
544.479,845.9
545.021,846.2
545.564,846.8
546.106,847.6
546.649,847.5
547.191,846.2
547.733,846.5
548.275,845.6
548.817,846.6
549.359,845.2
549.9,846.5
550.442,848.5
550.983,848.5
551.524,847.1
552.066,847.6
552.607,845.1
553.148,848.6
553.688,849.6
554.229,849.0
554.77,848.9
555.31,850.2
555.85,848.1
556.39,851.2
556.931,852.2
557.471,854.0
558.01,851.4
558.55,855.0
559.09,852.0
559.629,852.5
560.169,851.2
560.708,853.3
561.247,853.3
561.786,853.8
562.325,852.4
562.864,854.8
563.403,854.7
563.941,905.9
564.48,865.6
565.018,862.6
565.557,859.1
566.095,896.2
566.633,862.5
567.171,859.2
567.709,859.8
568.247,853.7
568.784,853.9
569.322,855.1
569.859,855.7
570.397,857.3
570.934,859.5
571.471,940.0
572.008,870.8
572.545,858.7
573.082,857.8
573.619,854.8
574.155,863.0
574.692,853.6
575.228,856.0
575.765,881.6
576.301,955.7
576.837,907.5
577.373,889.9
577.909,861.6
578.445,855.7
578.981,859.0
579.516,856.4
580.052,858.6
580.587,853.7
581.123,854.2
581.658,857.3
582.193,856.6
582.728,858.4
583.263,856.0
583.798,856.7
584.333,857.6
584.868,858.7
585.402,858.2
585.937,857.9
586.471,861.1
587.005,861.4
587.54,862.5
588.074,862.7
588.608,864.7
589.142,861.6
589.676,863.3
590.21,864.9
590.743,866.0
591.277,864.8
591.81,868.1
592.344,868.4
592.877,865.0
593.411,865.7
593.944,867.5
594.477,866.0
595.01,867.2
595.543,866.5
596.076,869.2
596.608,867.5
597.141,867.3
597.674,870.5
598.206,870.8
598.739,868.9
599.271,867.9
599.803,868.4
600.335,869.5
600.868,868.8
601.4,870.5
601.931,871.7
602.463,874.2
602.995,872.4
603.527,871.8
604.058,870.5
604.59,870.2
605.121,871.1
605.653,869.6
606.184,870.0
606.715,868.9
607.246,869.6
607.778,868.9
608.309,870.5
608.839,870.6
609.37,869.8
609.901,868.5
610.432,869.6
610.962,867.0
611.493,869.8
612.023,869.1
612.554,871.9
613.084,869.0
613.614,868.1
614.145,868.6
614.675,869.1
615.205,871.5
615.735,870.4
616.265,869.5
616.795,874.4
617.324,876.1
617.854,877.2
618.384,875.6
618.913,872.7
619.443,878.4
619.972,878.1
620.502,878.1
621.031,882.0
621.56,892.5
622.089,915.9
622.618,909.1
623.147,885.7
623.676,879.4
624.205,875.1
624.734,877.9
625.263,878.6
625.792,885.7
626.32,907.3
626.849,1127.4
627.377,1471.7
627.906,1210.4
628.434,1428.6
628.963,1233.4
629.491,1140.2
630.019,1051.1
630.547,1028.7
631.076,941.1
631.604,891.3
632.132,879.6
632.66,878.8
633.188,874.2
633.715,872.3
634.243,871.1
634.771,862.8
635.299,867.2
635.826,865.4
636.354,865.7
636.881,864.7
637.409,861.7
637.936,860.6
638.464,861.8
638.991,862.7
639.518,860.6
640.045,859.4
640.573,861.0
641.1,859.5
641.627,862.0
642.154,861.3
642.681,859.6
643.208,861.8
643.735,862.5
644.261,860.2
644.788,857.7
645.315,858.8
645.842,859.4
646.368,858.1
646.895,858.8
647.421,860.8
647.948,859.1
648.474,860.9
649.001,859.6
649.527,859.4
650.054,858.0
650.58,858.3
651.106,860.1
651.633,857.5
652.159,861.0
652.685,859.0
653.211,858.1
653.737,858.3
654.263,857.8
654.789,858.2
655.315,857.9
655.841,857.8
656.367,858.2
656.893,858.0
657.419,857.5
657.945,855.8
658.47,858.0
658.996,858.3
659.522,857.7
660.047,860.5
660.573,856.5
661.099,856.1
661.624,856.8
662.15,854.9
662.675,854.4
663.07,856.1