File: spectra/VLFR_07-PET_bio_Raman_4bf1557c.csv
nm,Intensity
791.75,9652.25
792.846,9411.3
793.942,9215.05
795.037,9056.05
796.133,9144.9
797.228,9029.9
798.324,9025.1
799.419,9017.85
800.514,8909.85
801.61,9064.8
802.705,8887.6
803.8,8897.4
804.894,8742.8
805.989,8675.85
807.084,8622.0
808.178,8564.95
809.273,8479.95
810.367,8366.8
811.461,8362.1
812.556,8246.8
813.65,8177.5
814.744,8133.05
815.837,8105.25
816.931,8137.55
818.025,7961.7
819.118,7958.15
820.212,7886.55
821.305,7836.45
822.398,7769.1
823.491,7729.25
824.585,7637.9
825.677,7684.8
826.77,7528.5
827.863,7502.8
828.956,7434.65
830.048,7403.6
831.14,7352.95
832.233,7272.8
833.325,7225.3
834.417,7060.0
835.509,7086.1
836.601,7069.45
837.692,7042.25
838.784,6969.6
839.876,6959.0
840.967,6927.25
842.058,7015.05
843.149,6843.65
844.24,6725.75
845.331,6644.75
846.422,6547.1
847.513,6622.95
848.604,6486.3
849.694,6477.5
850.784,6435.05
851.875,6464.6
852.965,6455.15
854.055,6381.5
855.145,6315.4
856.235,6334.25
857.324,6232.55
858.414,6356.25
859.503,6342.3
860.593,6286.9
861.682,6266.65
862.771,6132.65
863.86,6197.2
864.949,6157.65
866.038,6028.75
867.126,6052.35
868.215,6035.05
869.303,6039.85
870.391,6026.95
871.479,6065.35
872.567,6198.55
873.655,6112.75
874.743,5985.75
875.831,5922.8
876.918,5909.0
878.006,5880.6
879.093,5773.0
880.18,5828.4
881.267,5785.3
882.354,5704.9
883.441,5758.9
884.527,5705.1
885.614,5717.9
886.7,5655.35
887.786,5561.05
888.872,5550.6
889.958,5549.5
891.044,5489.35
892.13,5517.45
893.216,5453.65
894.301,5366.7
895.386,5394.55
896.472,5382.0
897.557,5449.0
898.642,5599.4
899.726,5410.85
900.811,5229.7
901.896,5142.05
902.98,5143.05
904.064,5095.05
905.148,5154.0
906.232,5184.7
907.316,5243.75
908.4,5238.7
909.484,5072.6
910.567,4964.4
911.65,4924.9
912.734,4870.9
913.817,4819.7
914.9,4812.35
915.982,4826.15
917.065,4772.4
918.147,4769.0
919.23,4692.05
920.312,4698.6
921.394,4640.65
922.476,4647.95
923.558,4603.25
924.639,4586.75
925.721,4565.9
926.802,4523.8
927.884,4502.1
928.965,4495.6
930.046,4451.05
931.126,4444.25
932.207,4427.85
933.288,4377.05
934.368,4352.5
935.448,4381.55
936.528,4318.65
937.608,4316.95
938.688,4301.35
939.767,4278.0
940.847,4279.1
941.926,4239.45
943.005,4242.75
944.084,4202.3
945.163,4188.3
946.242,4183.95
947.321,4173.5
948.399,4162.35
949.477,4153.0
950.556,4125.45
951.634,4122.0
952.711,4114.0
953.789,4088.2
954.867,4086.65
955.944,4077.45
957.021,4063.55
958.098,4060.7
959.175,4042.8
960.252,4043.2
961.328,4026.7
962.405,4010.65
963.481,4003.95
964.557,3988.25
965.633,3980.95
966.709,3982.9
967.785,3976.5
968.86,3976.35
969.936,3952.85
971.011,3951.05
972.086,3949.4
973.161,3934.2
974.235,3928.8
975.31,3919.2
976.384,3923.2
977.459,3916.7
978.533,3906.7
979.607,3899.65
980.68,3889.3
981.754,3891.45
982.827,3889.55
983.901,3883.5
984.974,3867.75
986.047,3875.6
987.119,3866.25
988.192,3865.65
989.264,3856.9
990.337,3853.85
991.409,3843.5
992.481,3846.55
993.553,3837.55
994.624,3835.4
995.696,3830.9
996.767,3827.3
997.838,3822.65
998.909,3822.1
999.98,3818.2
1001.05,3813.7
1002.12,3812.9
1003.19,3806.45
1004.26,3805.55
1005.33,3803.1
1006.4,3801.8
1007.47,3796.7
1008.54,3795.7
1009.61,3790.9
1010.68,3788.75
1011.75,3786.75
1012.82,3785.1
1013.88,3785.75
1014.95,3783.0
1016.02,3780.95
1017.09,3779.25
1018.16,3775.2
1019.22,3775.15
1020.29,3777.8
1021.36,3776.15
1022.43,3774.9
1023.49,3774.1
1024.56,3771.1
1025.63,3767.45
1026.69,3764.35
1027.76,3762.55
1028.83,3759.95
1029.89,3759.05
1030.96,3758.55
1032.02,3757.9
1033.09,3758.65
1034.15,3759.35
1035.22,3755.4
1036.28,3754.55
1037.35,3754.75
1038.41,3750.35
1039.48,3750.75
1040.54,3751.05
1041.6,3750.2
1042.67,3748.8
1043.73,3746.6
1044.79,3746.15
1045.86,3745.1
1046.92,3746.95
1047.98,3746.0
1049.05,3745.65
1050.11,3744.5
1051.17,3745.75
1052.23,3744.8
1053.29,3744.2
1054.36,3743.25
1055.42,3743.2
1056.48,3741.4
1057.54,3742.65
1058.6,3743.4
1059.66,3742.6
1060.72,3742.25
1061.78,3741.0
1062.84,3741.85
1063.9,3741.05
1064.96,3741.05
1066.02,3740.35
1067.08,3739.3
1067.88,3739.75