File: spectra/VLFR_02-HDPE_bio_Raman_c6eaac63.csv
nm,Intensity
526.549,830.9
527.096,831.85
527.643,831.55
528.19,831.25
528.737,832.45
529.283,831.45
529.83,830.5
530.376,832.0
530.922,831.7
531.468,831.95
532.014,844.15
532.559,831.0
533.105,830.85
533.65,832.6
534.196,886.55
534.741,884.35
535.286,878.95
535.83,861.3
536.375,858.45
536.92,852.3
537.464,854.25
538.008,853.3
538.553,851.3
539.097,851.55
539.641,848.6
540.184,850.7
540.728,848.0
541.271,848.7
541.815,848.05
542.358,849.75
542.901,846.95
543.444,847.6
543.987,848.65
544.53,847.5
545.072,847.8
545.615,849.1
546.157,850.25
546.699,848.2
547.242,849.25
547.784,849.0
548.325,848.25
548.867,848.7
549.409,849.0
549.95,848.85
550.492,849.7
551.033,849.95
551.574,851.45
552.115,850.7
552.656,849.6
553.197,850.8
553.737,851.2
554.278,852.05
554.818,853.55
555.358,851.75
555.899,854.2
556.439,853.7
556.979,855.35
557.518,857.1
558.058,856.85
558.598,857.15
559.137,855.4
559.677,856.25
560.216,855.85
560.755,855.9
561.294,855.4
561.833,855.8
562.372,856.95
562.91,860.2
563.449,859.95
563.987,933.35
564.526,875.45
565.064,868.55
565.602,866.5
566.14,928.45
566.678,866.4
567.216,864.45
567.754,866.35
568.291,859.45
568.829,862.2
569.366,864.3
569.904,863.7
570.441,866.25
570.978,872.45
571.515,994.65
572.052,885.3
572.589,873.1
573.125,870.3
573.662,870.05
574.199,879.0
574.735,873.45
575.271,878.3
575.807,907.5
576.344,996.1
576.88,944.05
577.415,921.25
577.951,891.9
578.487,891.0
579.023,894.45
579.558,896.9
580.094,898.7
580.629,899.0
581.164,900.15
581.699,901.45
582.234,901.85
582.769,903.05
583.304,900.85
583.839,902.05
584.374,902.35
584.908,899.3
585.443,902.8
585.977,900.15
586.511,901.5
587.046,901.4
587.58,902.25
588.114,902.45
588.648,901.4
589.182,899.65
589.716,900.15
590.249,902.4
590.783,903.05
591.316,904.55
591.85,901.9
592.383,902.75
592.917,903.05
593.45,903.1
593.983,900.5
594.516,900.7
595.049,901.6
595.582,900.85
596.115,902.95
596.647,906.55
597.18,905.05
597.712,905.15
598.245,908.55
598.777,909.7
599.31,909.95
599.842,907.55
600.374,910.5
600.906,910.65
601.438,910.25
601.97,912.8
602.502,912.7
603.034,910.25
603.565,909.35
604.097,910.8
604.628,909.8
605.16,907.85
605.691,902.3
606.223,900.25
606.754,902.2
607.285,899.05
607.816,898.9
608.347,896.75
608.878,897.7
609.409,897.05
609.94,895.15
610.47,893.45
611.001,894.7
611.532,893.35
612.062,893.9
612.593,894.05
613.123,891.45
613.653,890.75
614.184,891.95
614.714,890.3
615.244,893.2
615.774,887.75
616.304,892.5
616.834,898.35
617.364,897.1
617.894,898.4
618.423,900.5
618.953,897.5
619.482,902.2
620.012,903.8
620.541,902.15
621.071,908.65
621.6,918.95
622.13,944.85
622.659,936.75
623.188,910.95
623.717,905.55
624.246,903.55
624.775,906.55
625.304,906.95
625.833,915.55
626.362,949.6
626.89,1213.4
627.419,1532.4
627.948,1267.95
628.476,1555.55
629.005,1234.7
629.533,1166.65
630.061,1082.9
630.59,1064.5
631.118,972.3
631.646,919.75
632.175,912.55
632.703,906.5
633.231,905.65
633.759,902.8
634.287,900.6
634.815,898.7
635.342,897.5
635.87,899.35
636.398,896.75
636.926,898.15
637.453,894.55
637.981,893.6
638.509,892.1
639.036,892.15
639.563,893.5
640.091,891.1
640.618,889.9
641.146,891.4
641.673,892.1
642.2,889.7
642.727,890.3
643.254,890.25
643.781,889.7
644.309,889.3
644.836,888.95
645.362,888.8
645.889,890.4
646.416,889.35
646.943,890.45
647.47,886.75
647.997,888.9
648.523,889.0
649.05,888.85
649.577,886.75
650.103,887.55
650.63,887.4
651.156,888.0
651.683,887.75
652.209,888.8
652.735,888.3
653.262,887.8
653.788,889.05
654.314,887.25
654.841,886.8
655.367,887.6
655.893,888.3
656.419,887.15
656.945,888.05
657.471,885.7
657.997,887.25
658.523,886.05
659.049,886.35
659.575,888.55
660.101,888.7
660.627,884.75
661.153,881.45
661.679,884.3
662.205,882.25
662.731,882.55
663.125,879.85