File: spectra/VLFR_07-PET_bio_Raman_d102cc86.csv
nm,Intensity
528.637,2225.1
529.143,2238.7
529.648,2215.0
530.153,2241.0
530.659,2216.5
531.164,2242.6
531.669,2314.0
532.174,4050.0
532.679,2288.9
533.184,2339.8
533.689,8637.5
534.194,26223.3
534.699,27918.1
535.203,29209.4
535.708,30065.1
536.213,30422.1
536.717,32366.4
537.222,33951.7
537.726,35743.9
538.231,35823.2
538.735,37265.0
539.24,38819.3
539.744,40408.5
540.248,42111.3
540.752,43757.1
541.256,44716.3
541.761,46939.9
542.265,48904.3
542.769,50401.2
543.272,54157.4
543.776,53583.4
544.28,56795.0
544.784,57151.9
545.288,61217.3
545.791,62549.3
546.295,63529.7
546.798,65002.8
547.302,65169.7
547.805,65535.0
548.308,65535.0
548.812,65535.0
549.315,65535.0
549.818,65535.0
550.321,65535.0
550.824,65535.0
551.327,65535.0
551.83,65535.0
552.333,65535.0
552.836,65535.0
553.339,65535.0
553.842,65535.0
554.344,65535.0
554.847,65535.0
555.349,65535.0
555.852,65535.0
556.354,65535.0
556.857,65535.0
557.359,65535.0
557.861,65535.0
558.363,65535.0
558.866,65535.0
559.368,65535.0
559.87,65535.0
560.372,65535.0
560.873,65535.0
561.375,65535.0
561.877,65535.0
562.379,65535.0
562.88,65535.0
563.382,65535.0
563.883,65535.0
564.385,65535.0
564.886,65535.0
565.388,65535.0
565.889,65535.0
566.39,65535.0
566.891,65535.0
567.392,65535.0
567.893,65535.0
568.394,65535.0
568.895,65535.0
569.396,65535.0
569.897,65535.0
570.398,65535.0
570.898,65535.0
571.399,65535.0
571.899,65535.0
572.4,65535.0
572.9,65535.0
573.4,65535.0
573.901,65535.0
574.401,65535.0
574.901,65535.0
575.401,65535.0
575.901,65535.0
576.401,65535.0
576.901,65535.0
577.401,65535.0
577.9,65535.0
578.4,65535.0
578.9,65535.0
579.399,65535.0
579.899,65535.0
580.398,65535.0
580.897,65535.0
581.397,65535.0
581.896,65535.0
582.395,65535.0
582.894,65535.0
583.393,65535.0
583.892,65535.0
584.391,65535.0
584.889,65535.0
585.388,65535.0
585.887,65535.0
586.385,65535.0
586.884,65535.0
587.382,65535.0
587.881,65535.0
588.379,65535.0
588.877,65535.0
589.375,65535.0
589.874,65535.0
590.372,65535.0
590.87,65535.0
591.367,65535.0
591.865,65535.0
592.363,65535.0
592.861,65535.0
593.358,65535.0
593.856,65535.0
594.353,65535.0
594.851,65535.0
595.348,65535.0
595.845,65535.0
596.342,65535.0
596.84,65535.0
597.337,65535.0
597.833,65535.0
598.33,65535.0
598.827,65535.0
599.324,65535.0
599.821,65535.0
600.317,65535.0
600.814,65535.0
601.31,65535.0
601.807,65535.0
602.303,65535.0
602.799,65535.0
603.295,65535.0
603.791,65535.0
604.287,65535.0
604.783,65535.0
605.279,65535.0
605.775,65535.0
606.271,65535.0
606.766,65535.0
607.262,65535.0
607.757,65535.0
608.253,65535.0
608.748,65535.0
609.243,65535.0
609.738,65535.0
610.233,65535.0
610.729,65535.0
611.223,65535.0
611.718,65535.0
612.213,65535.0
612.708,65535.0
613.202,65535.0
613.697,65535.0
614.192,65535.0
614.686,65535.0
615.18,65535.0
615.675,65535.0
616.169,65535.0
616.663,65535.0
617.157,65535.0
617.651,65535.0
618.145,65535.0
618.638,65535.0
619.132,65535.0
619.626,65535.0
620.119,65535.0
620.613,65535.0
621.106,65535.0
621.599,65535.0
622.093,65535.0
622.586,65535.0
623.079,65535.0
623.572,65535.0
624.065,65535.0
624.558,65535.0
625.05,65535.0
625.543,65535.0
626.036,65535.0
626.528,65535.0
627.02,65535.0
627.513,65535.0
628.005,65535.0
628.497,65535.0
628.989,65535.0
629.481,65535.0
629.973,65535.0
630.465,65535.0
630.957,65535.0
631.449,65535.0
631.94,65535.0
632.432,65535.0
632.923,65535.0
633.414,65535.0
633.906,65535.0
634.397,65535.0
634.888,65535.0
635.379,65535.0
635.87,65535.0
636.361,65535.0
636.852,65535.0
637.342,65535.0
637.833,65535.0
638.323,65535.0
638.814,65535.0
639.304,65535.0
639.794,65535.0
640.285,65535.0
640.775,65535.0
641.265,65535.0
641.755,65535.0
642.244,65535.0
642.734,65535.0
643.224,65535.0
643.713,65535.0
644.203,65535.0
644.692,65535.0
645.181,65535.0
645.671,65535.0
646.16,65535.0
646.649,65535.0
647.138,65535.0
647.627,65535.0
648.115,65535.0
648.604,65535.0
649.093,65535.0
649.581,65535.0
650.07,65535.0
650.558,65535.0
651.046,65535.0
651.534,65535.0
652.023,65535.0
652.511,65535.0
652.998,65535.0
653.486,65535.0
653.974,65535.0
654.462,65535.0
654.949,65535.0
655.437,65535.0
655.924,65535.0
656.411,65535.0
656.898,65535.0
657.385,65535.0
657.872,65535.0
658.359,65535.0
658.846,65535.0
659.333,65535.0
659.82,65535.0
660.306,65535.0
660.793,65535.0
661.036,65535.0