File: spectra/VLFR_09-PET_bio_Raman_1b88fd26.csv
nm,Intensity
526.549,832.7
527.096,831.3
527.643,831.4
528.19,832.6
528.737,832.45
529.283,832.6
529.83,833.05
530.376,832.35
530.922,832.7
531.468,832.5
532.014,840.1
532.559,833.2
533.105,833.25
533.65,855.9
534.196,2482.5
534.741,2255.0
535.286,1989.25
535.83,1892.8
536.375,1792.05
536.92,1766.3
537.464,1728.25
538.008,1732.65
538.553,1741.9
539.097,1744.6
539.641,1782.9
540.184,1829.45
540.728,1794.4
541.271,1788.1
541.815,1796.5
542.358,1805.85
542.901,1818.0
543.444,1833.3
543.987,1861.95
544.53,1859.3
545.072,1880.6
545.615,1890.5
546.157,1902.2
546.699,1922.0
547.242,1922.85
547.784,1928.1
548.325,1939.8
548.867,1982.95
549.409,1977.8
549.95,1976.85
550.492,2044.7
551.033,2020.15
551.574,2023.6
552.115,2048.7
552.656,2062.45
553.197,2068.15
553.737,2077.7
554.278,2093.65
554.818,2105.35
555.358,2132.0
555.899,2177.4
556.439,2193.8
556.979,2224.3
557.518,2575.35
558.058,2307.65
558.598,2242.9
559.137,2217.95
559.677,2217.55
560.216,2243.6
560.755,2268.95
561.294,2287.2
561.833,2356.65
562.372,2390.5
562.91,2341.35
563.449,2350.75
563.987,2370.15
564.526,2450.65
565.064,2725.7
565.602,2616.05
566.14,2583.5
566.678,2460.55
567.216,2435.6
567.754,2558.7
568.291,2493.9
568.829,2489.7
569.366,2515.0
569.904,2563.45
570.441,2635.1
570.978,2955.3
571.515,3380.45
572.052,2858.7
572.589,2670.45
573.125,2649.6
573.662,2639.9
574.199,2679.15
574.735,2673.4
575.271,2767.3
575.807,2750.7
576.344,2736.7
576.88,2802.2
577.415,2782.45
577.951,2750.3
578.487,2767.15
579.023,2767.4
579.558,2763.1
580.094,2789.2
580.629,2812.15
581.164,2861.8
581.699,3155.5
582.234,6265.4
582.769,3050.9
583.304,2909.7
583.839,2899.55
584.374,2908.15
584.908,2940.65
585.443,3129.55
585.977,4456.7
586.511,3707.6
587.046,3068.25
587.58,3011.25
588.114,2963.6
588.648,2963.2
589.182,2955.85
589.716,2974.7
590.249,2965.15
590.783,2981.95
591.316,3005.45
591.85,3003.0
592.383,3016.7
592.917,2990.45
593.45,3000.6
593.983,3002.4
594.516,3031.65
595.049,3040.3
595.582,3056.85
596.115,3071.4
596.647,3081.95
597.18,3091.75
597.712,3100.2
598.245,3119.85
598.777,3131.95
599.31,3164.15
599.842,3163.05
600.374,3156.25
600.906,3158.8
601.438,3153.5
601.97,3162.7
602.502,3187.4
603.034,3218.65
603.565,3221.55
604.097,3236.15
604.628,3232.9
605.16,3206.4
605.691,3222.3
606.223,3199.95
606.754,3223.8
607.285,3270.4
607.816,3286.7
608.347,3296.5
608.878,3338.4
609.409,3348.15
609.94,3361.15
610.47,3364.55
611.001,3384.95
611.532,3424.45
612.062,3457.95
612.593,3517.35
613.123,3564.85
613.653,3594.9
614.184,3636.85
614.714,3659.75
615.244,3662.1
615.774,3690.1
616.304,3716.75
616.834,3748.65
617.364,3794.1
617.894,3837.25
618.423,3891.6
618.953,3901.3
619.482,3895.65
620.012,3930.15
620.541,3950.95
621.071,3968.0
621.6,4007.95
622.13,4046.4
622.659,4073.35
623.188,4131.9
623.717,4167.6
624.246,4215.8
624.775,4261.8
625.304,4276.85
625.833,4294.05
626.362,4300.5
626.89,4340.1
627.419,4362.25
627.948,4384.8
628.476,4439.0
629.005,4476.3
629.533,4548.15
630.061,4557.45
630.59,4605.95
631.118,4656.9
631.646,4778.6
632.175,4823.05
632.703,4757.55
633.231,4786.35
633.759,4754.75
634.287,4728.45
634.815,4725.5
635.342,4788.35
635.87,4902.85
636.398,5121.6
636.926,5072.05
637.453,4918.25
637.981,4896.45
638.509,4910.55
639.036,4937.6
639.563,4942.25
640.091,4964.0
640.618,4994.3
641.146,4995.6
641.673,5031.45
642.2,5058.2
642.727,5061.25
643.254,5027.7
643.781,5007.0
644.309,5017.2
644.836,4993.65
645.362,5011.15
645.889,5029.65
646.416,5061.3
646.943,5104.2
647.47,5113.25
647.997,5101.05
648.523,5097.1
649.05,5099.4
649.577,5113.3
650.103,5090.5
650.63,5091.2
651.156,5084.0
651.683,5120.15
652.209,5156.3
652.735,5150.4
653.262,5136.55
653.788,5189.25
654.314,5198.25
654.841,5147.95
655.367,5177.25
655.893,5169.85
656.419,5186.0
656.945,5199.85
657.471,5218.65
657.997,5221.3
658.523,5228.0
659.049,5226.95
659.575,5256.05
660.101,5267.55
660.627,5231.5
661.153,5218.3
661.679,5182.05
662.205,5152.3
662.731,5192.9
663.125,5167.9