File: spectra/VLFR_08-PLA_nobio_Raman_edb0ce1f.csv
nm,Intensity
526.532,829.8
527.079,830.033
527.625,830.567
528.172,830.833
528.718,830.433
529.265,830.333
529.811,829.867
530.357,830.533
530.903,829.767
531.449,830.4
531.994,834.9
532.54,830.833
533.085,830.3
533.63,833.367
534.176,1015.5
534.721,973.3
535.266,937.8
535.81,920.0
536.355,914.333
536.9,914.967
537.444,907.0
537.988,901.533
538.533,892.333
539.077,891.3
539.621,888.333
540.165,881.633
540.708,897.867
541.252,899.667
541.795,889.5
542.339,885.3
542.882,889.367
543.425,907.9
543.968,913.567
544.511,895.267
545.054,884.9
545.597,879.967
546.139,881.133
546.682,880.367
547.224,882.233
547.766,883.733
548.308,883.2
548.85,883.533
549.392,883.1
549.934,884.9
550.475,886.4
551.017,889.7
551.558,890.767
552.1,892.6
552.641,892.133
553.182,893.4
553.723,891.7
554.264,898.133
554.804,891.467
555.345,885.833
555.885,884.767
556.426,884.267
556.966,887.4
557.506,906.967
558.046,1019.93
558.586,916.033
559.126,899.433
559.665,896.067
560.205,892.833
560.745,891.767
561.284,887.167
561.823,888.533
562.362,888.767
562.901,900.367
563.44,926.8
563.979,908.533
564.518,900.767
565.056,919.467
565.595,916.1
566.133,945.567
566.671,911.6
567.21,895.267
567.748,901.533
568.285,900.733
568.823,902.567
569.361,901.667
569.899,898.733
570.436,900.767
570.974,901.0
571.511,917.633
572.048,918.567
572.585,910.733
573.122,913.633
573.659,916.1
574.196,912.333
574.733,919.667
575.269,900.167
575.806,904.033
576.342,924.333
576.878,975.4
577.414,921.233
577.951,903.8
578.486,903.2
579.022,904.267
579.558,901.5
580.094,902.433
580.629,901.967
581.165,901.433
581.7,903.633
582.236,902.6
582.771,903.8
583.306,905.1
583.841,906.233
584.376,905.0
584.911,906.4
585.445,905.6
585.98,907.667
586.514,921.033
587.049,951.833
587.583,972.867
588.117,926.5
588.651,908.4
589.186,907.167
589.72,905.533
590.253,904.267
590.787,906.6
591.321,905.433
591.854,904.1
592.388,906.1
592.921,902.633
593.455,904.5
593.988,903.533
594.521,904.767
595.054,903.967
595.587,904.067
596.12,903.067
596.653,905.967
597.186,906.8
597.718,905.267
598.251,906.0
598.783,907.167
599.316,905.3
599.848,905.1
600.38,906.033
600.912,906.7
601.444,904.633
601.976,903.633
602.508,906.567
603.04,907.133
603.572,904.067
604.103,903.567
604.635,905.333
605.167,905.6
605.698,902.4
606.229,901.667
606.761,900.5
607.292,899.233
607.823,903.967
608.354,903.133
608.885,900.967
609.416,903.533
609.947,903.4
610.477,903.733
611.008,901.033
611.539,902.267
612.069,902.167
612.6,903.967
613.13,905.1
613.66,903.7
614.19,903.233
614.721,906.0
615.251,904.067
615.781,903.7
616.311,907.733
616.841,905.267
617.37,906.367
617.9,906.133
618.43,904.967
618.96,904.633
619.489,904.533
620.019,904.6
620.548,904.767
621.077,902.767
621.607,905.433
622.136,906.833
622.665,915.3
623.194,918.433
623.723,913.833
624.252,910.033
624.781,907.367
625.31,905.433
625.839,906.933
626.368,904.367
626.896,905.233
627.425,909.367
627.953,915.067
628.482,973.833
629.01,958.533
629.539,961.333
630.067,966.0
630.596,1021.13
631.124,1354.63
631.652,1116.67
632.18,1016.17
632.708,1004.13
633.236,1082.03
633.764,1043.7
634.292,962.433
634.82,922.433
635.348,908.0
635.876,904.5
636.403,903.533
636.931,900.667
637.459,899.7
637.986,900.1
638.514,898.0
639.041,899.033
639.568,896.7
640.096,897.5
640.623,899.3
641.15,899.767
641.678,898.267
642.205,898.367
642.732,897.067
643.259,894.333
643.786,894.567
644.313,892.3
644.84,891.567
645.367,890.367
645.894,890.567
646.421,891.7
646.948,891.567
647.474,890.833
648.001,889.633
648.528,889.7
649.054,887.067
649.581,887.0
650.108,888.0
650.634,888.467
651.161,885.7
651.687,887.433
652.214,887.833
652.74,886.467
653.266,884.833
653.793,886.233
654.319,886.667
654.845,886.233
655.371,887.5
655.897,884.4
656.424,885.2
656.95,886.133
657.476,887.767
658.002,884.5
658.528,883.633
659.054,883.367
659.58,884.1
660.106,884.367
660.631,881.7
661.157,883.367
661.683,883.8
662.209,881.9
662.735,883.4
663.129,882.433