File: spectra/VLFR_06-PET_bio_Raman_044a2b98.csv
nm,Intensity
526.508,829.1
527.055,828.9
527.602,828.8
528.149,830.2
528.695,830.3
529.241,828.7
529.787,828.6
530.334,830.7
530.879,829.9
531.425,831.2
531.971,833.4
532.516,830.7
533.062,829.1
533.607,838.5
534.152,1919.1
534.697,1620.9
535.242,1320.6
535.786,1141.2
536.331,1034.8
536.876,987.5
537.42,974.1
537.964,962.8
538.508,972.9
539.052,965.3
539.596,976.8
540.14,982.0
540.683,950.7
541.227,943.9
541.77,938.1
542.313,940.5
542.856,938.3
543.399,937.3
543.942,948.9
544.485,946.2
545.027,948.5
545.57,944.7
546.112,948.2
546.654,953.8
547.196,955.8
547.738,957.3
548.28,956.4
548.822,957.4
549.363,956.9
549.905,966.9
550.446,973.8
550.988,986.3
551.529,976.8
552.07,972.2
552.611,978.6
553.152,998.0
553.692,984.4
554.233,986.2
554.773,985.5
555.314,999.9
555.854,1042.2
556.394,1050.3
556.934,1063.2
557.474,1182.7
558.014,1081.0
558.553,1075.8
559.093,1036.7
559.632,1012.4
560.172,1019.8
560.711,1015.7
561.25,1027.4
561.789,1027.1
562.328,1039.2
562.867,1056.0
563.406,1058.1
563.944,1048.6
564.483,1060.9
565.021,1097.6
565.559,1157.4
566.098,1157.8
566.636,1075.5
567.174,1065.2
567.711,1137.4
568.249,1081.9
568.787,1074.6
569.324,1079.6
569.862,1100.2
570.399,1146.2
570.936,1255.1
571.474,1372.8
572.011,1232.8
572.548,1133.0
573.084,1109.8
573.621,1109.8
574.158,1144.0
574.694,1122.7
575.231,1147.1
575.767,1133.7
576.303,1154.0
576.84,1170.6
577.376,1141.2
577.912,1137.9
578.447,1135.1
578.983,1141.1
579.519,1144.2
580.054,1152.0
580.59,1155.9
581.125,1168.8
581.661,1250.4
582.196,2286.6
582.731,1222.1
583.266,1179.3
583.801,1180.7
584.336,1183.7
584.87,1197.9
585.405,1290.6
585.94,1765.0
586.474,1529.1
587.008,1241.2
587.543,1205.4
588.077,1202.4
588.611,1187.2
589.145,1192.6
589.679,1194.8
590.213,1204.2
590.747,1197.1
591.28,1202.3
591.814,1197.5
592.347,1205.5
592.881,1196.4
593.414,1204.6
593.947,1205.2
594.48,1207.6
595.014,1210.1
595.547,1220.4
596.079,1216.4
596.612,1209.7
597.145,1221.7
597.678,1212.2
598.21,1223.5
598.743,1223.2
599.275,1222.9
599.807,1223.2
600.34,1221.0
600.872,1216.1
601.404,1229.8
601.936,1227.4
602.468,1221.0
603.0,1228.9
603.532,1232.8
604.063,1228.2
604.595,1229.2
605.126,1227.5
605.658,1219.4
606.189,1221.0
606.721,1222.4
607.252,1222.0
607.783,1226.1
608.314,1228.0
608.845,1229.1
609.376,1230.8
609.907,1231.0
610.438,1221.2
610.968,1235.2
611.499,1229.3
612.03,1229.7
612.56,1240.7
613.091,1239.5
613.621,1253.9
614.151,1256.5
614.681,1254.7
615.212,1247.1
615.742,1253.0
616.272,1259.9
616.802,1265.0
617.332,1262.5
617.861,1273.7
618.391,1274.1
618.921,1262.9
619.45,1268.4
619.98,1259.2
620.509,1266.7
621.039,1263.0
621.568,1267.0
622.097,1271.8
622.627,1273.4
623.156,1277.1
623.685,1294.2
624.214,1295.9
624.743,1292.5
625.272,1304.8
625.801,1300.5
626.33,1302.3
626.858,1303.7
627.387,1303.5
627.916,1311.4
628.444,1329.9
628.973,1345.9
629.501,1355.9
630.029,1351.7
630.558,1356.9
631.086,1409.6
631.614,1543.6
632.142,1532.2
632.67,1467.2
633.198,1436.1
633.726,1424.7
634.254,1403.0
634.782,1391.2
635.31,1400.8
635.838,1456.5
636.365,1577.6
636.893,1587.1
637.421,1442.2
637.948,1419.8
638.476,1417.7
639.003,1410.9
639.531,1424.2
640.058,1414.7
640.585,1428.5
641.113,1427.7
641.64,1436.3
642.167,1448.6
642.694,1441.5
643.221,1440.2
643.748,1440.5
644.275,1439.2
644.802,1435.7
645.329,1443.3
645.856,1445.3
646.382,1449.7
646.909,1457.8
647.436,1451.1
647.962,1467.3
648.489,1468.8
649.016,1458.4
649.542,1456.7
650.069,1460.0
650.595,1469.2
651.121,1464.7
651.648,1462.6
652.174,1476.3
652.7,1469.8
653.227,1486.6
653.753,1482.5
654.279,1480.1
654.805,1484.7
655.331,1484.9
655.857,1485.6
656.383,1486.9
656.909,1487.7
657.435,1490.0
657.961,1486.4
658.487,1483.4
659.013,1492.2
659.538,1493.6
660.064,1490.1
660.59,1488.8
661.116,1483.0
661.641,1483.5
662.167,1489.7
662.692,1476.4
663.087,1468.4