File: spectra/VLFR_01-LDPE_bio_Raman_53c47a77.csv
nm,Intensity
526.495,829.5
527.042,830.8
527.589,829.4
528.136,829.2
528.682,829.0
529.229,828.6
529.775,829.2
530.321,828.0
530.867,829.1
531.413,828.7
531.959,828.4
532.505,831.7
533.051,829.2
533.596,830.0
534.141,907.5
534.687,893.8
535.232,879.2
535.777,868.9
536.321,863.6
536.866,860.2
537.41,861.1
537.955,858.8
538.499,857.8
539.043,853.0
539.587,850.9
540.131,847.5
540.675,847.9
541.219,846.1
541.762,846.0
542.305,843.1
542.849,847.2
543.392,847.1
543.935,847.4
544.478,844.7
545.02,842.7
545.563,844.8
546.106,841.8
546.648,843.4
547.19,843.9
547.732,843.9
548.274,841.6
548.816,841.9
549.358,842.6
549.9,841.0
550.441,844.0
550.983,843.7
551.524,842.3
552.065,842.7
552.606,843.2
553.147,844.0
553.688,844.7
554.229,847.0
554.769,846.5
555.31,847.3
555.85,852.7
556.391,849.9
556.931,854.0
557.471,856.2
558.011,859.1
558.551,862.5
559.09,855.9
559.63,854.9
560.169,854.9
560.709,855.8
561.248,856.3
561.787,858.0
562.326,859.6
562.865,866.6
563.404,870.0
563.943,931.0
564.481,889.8
565.02,885.5
565.558,881.5
566.096,964.0
566.634,884.8
567.172,879.3
567.71,882.8
568.248,880.6
568.786,878.4
569.324,880.4
569.861,886.5
570.399,892.7
570.936,905.9
571.473,1009.7
572.01,946.2
572.547,922.9
573.084,917.8
573.621,928.9
574.158,942.7
574.694,939.9
575.231,953.3
575.767,1021.1
576.303,1119.3
576.84,1080.1
577.376,1060.5
577.912,1037.9
578.448,1054.4
578.984,1080.7
579.519,1098.1
580.055,1124.1
580.59,1143.3
581.126,1171.0
581.661,1187.3
582.196,1212.6
582.731,1232.2
583.267,1254.0
583.801,1272.4
584.336,1277.9
584.871,1292.3
585.406,1306.6
585.94,1322.9
586.475,1339.9
587.009,1352.7
587.543,1367.0
588.078,1373.3
588.612,1385.9
589.146,1400.8
589.68,1410.7
590.214,1422.8
590.747,1448.9
591.281,1464.7
591.815,1458.1
592.348,1465.3
592.881,1466.8
593.415,1468.4
593.948,1468.7
594.481,1472.3
595.014,1485.9
595.547,1487.8
596.08,1493.7
596.613,1501.1
597.146,1510.2
597.678,1523.6
598.211,1551.0
598.743,1541.0
599.276,1565.1
599.808,1568.5
600.34,1563.2
600.872,1566.7
601.404,1557.0
601.936,1533.7
602.468,1540.4
603.0,1514.0
603.532,1496.6
604.064,1484.8
604.595,1458.4
605.127,1416.6
605.658,1389.8
606.189,1363.4
606.721,1338.0
607.252,1325.9
607.783,1309.1
608.314,1292.3
608.845,1279.3
609.376,1267.6
609.907,1251.0
610.438,1240.1
610.968,1223.1
611.499,1217.6
612.029,1212.1
612.56,1205.5
613.09,1199.7
613.621,1194.5
614.151,1184.9
614.681,1172.2
615.211,1168.0
615.741,1162.4
616.271,1145.0
616.801,1154.1
617.331,1143.3
617.861,1145.5
618.39,1132.5
618.92,1131.4
619.45,1133.2
619.979,1123.9
620.509,1125.2
621.038,1125.9
621.567,1134.8
622.096,1157.4
622.626,1155.7
623.155,1131.0
623.684,1119.3
624.213,1120.3
624.742,1123.2
625.271,1127.8
625.799,1140.3
626.328,1161.7
626.857,1392.5
627.386,1853.8
627.914,1577.2
628.443,1805.7
628.971,1676.8
629.5,1557.3
630.028,1460.9
630.556,1434.6
631.084,1285.3
631.613,1210.2
632.141,1199.7
632.669,1182.1
633.197,1178.1
633.725,1174.8
634.253,1177.3
634.781,1176.9
635.308,1171.6
635.836,1188.7
636.364,1185.7
636.891,1187.2
637.419,1180.9
637.947,1188.8
638.474,1186.1
639.002,1183.3
639.529,1185.7
640.056,1184.0
640.584,1192.2
641.111,1188.0
641.638,1195.7
642.165,1197.3
642.692,1191.3
643.219,1198.6
643.746,1192.2
644.273,1190.7
644.8,1198.9
645.327,1182.5
645.854,1187.6
646.381,1189.9
646.908,1187.3
647.434,1189.5
647.961,1188.4
648.488,1185.7
649.014,1184.4
649.541,1180.7
650.067,1181.8
650.594,1179.5
651.12,1173.6
651.646,1180.2
652.173,1173.9
652.699,1175.3
653.225,1173.5
653.752,1173.1
654.278,1173.6
654.804,1167.1
655.33,1165.7
655.856,1159.9
656.382,1146.4
656.908,1152.8
657.434,1142.2
657.96,1141.9
658.486,1136.6
659.012,1119.9
659.538,1112.6
660.064,1102.3
660.589,1093.7
661.115,1084.7
661.641,1070.5
662.166,1061.6
662.692,1058.0
663.086,1051.9