File: spectra/VLFR_07-PET_bio_Raman_f9a0848e.csv
nm,Intensity
791.377,17314.5
792.477,15371.9
793.576,14248.9
794.676,13820.6
795.775,13345.8
796.874,13292.3
797.973,13052.9
799.072,13250.2
800.171,12802.1
801.27,12928.9
802.368,12686.3
803.467,12382.5
804.565,12242.9
805.664,11977.8
806.762,11797.1
807.86,11732.4
808.958,11608.5
810.056,11498.0
811.153,11360.2
812.251,11283.6
813.349,11284.1
814.446,10997.9
815.543,11052.8
816.64,10818.3
817.737,10892.6
818.834,10592.9
819.931,10633.5
821.028,10462.6
822.125,10330.9
823.221,10223.4
824.317,10196.0
825.414,10327.5
826.51,10152.3
827.606,9788.1
828.702,9746.78
829.797,9542.36
830.893,9847.56
831.988,9504.12
833.084,9437.24
834.179,9322.82
835.274,9146.22
836.369,9195.9
837.464,9232.66
838.559,9164.52
839.654,9166.48
840.748,9367.72
841.843,9338.66
842.937,9000.24
844.031,8910.3
845.125,8677.96
846.219,8369.3
847.313,8450.66
848.407,8274.22
849.5,8316.7
850.593,8175.64
851.687,8170.54
852.78,8109.18
853.873,8082.48
854.966,7987.1
856.059,7886.5
857.151,7871.54
858.244,8063.04
859.336,7957.72
860.428,8122.14
861.52,7807.88
862.612,7614.28
863.704,7489.8
864.796,7596.42
865.888,7557.08
866.979,7322.44
868.07,7354.36
869.162,7284.96
870.253,7402.68
871.344,7444.66
872.434,7813.56
873.525,7771.0
874.615,7306.44
875.706,7148.96
876.796,7018.38
877.886,6947.78
878.976,6808.76
880.066,6769.28
881.156,6807.08
882.245,6810.46
883.335,6651.32
884.424,6688.8
885.513,6670.12
886.602,6522.62
887.691,6500.94
888.78,6389.8
889.868,6341.7
890.957,6339.36
892.045,6288.66
893.133,6220.98
894.221,6148.88
895.309,6097.38
896.397,6136.54
897.484,6454.96
898.571,7161.78
899.659,6495.12
900.746,5966.28
901.833,5881.76
902.92,5822.98
904.006,5793.94
905.093,5735.04
906.179,5882.52
907.266,6308.76
908.352,6469.36
909.438,5974.14
910.523,5640.3
911.609,5507.66
912.695,5474.92
913.78,5347.92
914.865,5363.64
915.95,5280.9
917.035,5285.62
918.12,5245.04
919.204,5165.58
920.289,5178.84
921.373,5178.38
922.457,5097.32
923.541,5063.88
924.625,5041.74
925.709,4998.86
926.792,4952.08
927.876,4978.16
928.959,4892.28
930.042,4863.84
931.125,4854.54
932.208,4811.52
933.29,4784.0
934.373,4778.14
935.455,4754.32
936.537,4695.86
937.619,4667.7
938.701,4639.26
939.782,4627.84
940.864,4628.66
941.945,4573.68
943.026,4562.08
944.107,4530.86
945.188,4511.64
946.269,4486.16
947.349,4490.34
948.43,4447.46
949.51,4414.46
950.59,4417.96
951.67,4395.98
952.75,4381.76
953.829,4337.42
954.909,4347.62
955.988,4321.94
957.067,4290.22
958.146,4301.72
959.224,4274.74
960.303,4256.98
961.381,4234.6
962.459,4233.16
963.537,4223.76
964.615,4196.68
965.693,4196.06
966.771,4173.22
967.848,4172.34
968.925,4146.14
970.002,4141.96
971.079,4128.54
972.156,4130.22
973.232,4104.22
974.309,4099.78
975.385,4091.38
976.461,4082.12
977.537,4070.32
978.612,4059.4
979.688,4041.92
980.763,4044.22
981.838,4036.76
982.913,4031.6
983.988,4015.42
985.063,4010.44
986.137,4004.64
987.211,3997.3
988.285,3989.06
989.359,3977.08
990.433,3973.2
991.506,3963.88
992.58,3957.84
993.653,3948.44
994.726,3943.7
995.799,3936.84
996.872,3929.96
997.944,3930.3
999.016,3924.86
1000.09,3913.54
1001.16,3916.58
1002.23,3909.92
1003.3,3895.96
1004.38,3892.3
1005.45,3896.06
1006.52,3888.56
1007.59,3882.4
1008.66,3875.42
1009.73,3872.62
1010.8,3867.58
1011.87,3865.6
1012.94,3863.66
1014.01,3860.66
1015.08,3857.02
1016.15,3858.4
1017.22,3853.86
1018.29,3850.44
1019.36,3847.48
1020.42,3847.78
1021.49,3853.76
1022.56,3858.22
1023.63,3851.8
1024.7,3844.26
1025.76,3838.2
1026.83,3832.48
1027.9,3829.7
1028.97,3824.26
1030.03,3818.2
1031.1,3817.66
1032.17,3817.04
1033.23,3816.78
1034.3,3820.04
1035.36,3822.36
1036.43,3821.94
1037.5,3812.14
1038.56,3807.2
1039.63,3804.34
1040.69,3803.26
1041.76,3801.56
1042.82,3798.8
1043.89,3798.62
1044.95,3796.16
1046.01,3795.5
1047.08,3795.94
1048.14,3793.8
1049.2,3793.0
1050.27,3792.54
1051.33,3792.96
1052.39,3792.14
1053.46,3792.36
1054.52,3790.62
1055.58,3789.44
1056.64,3790.1
1057.7,3788.42
1058.77,3789.16
1059.83,3788.42
1060.89,3787.9
1061.95,3786.8
1063.01,3787.1
1064.07,3787.0
1065.13,3785.82
1066.19,3785.82
1067.25,3786.0
1068.05,3784.06