File: spectra/VLFR_01-LDPE_bio_Raman_e1d382c4.csv
nm,Intensity
528.65,1836.95
529.155,1837.7
529.66,1836.95
530.165,1837.0
530.67,1838.55
531.175,1837.2
531.68,1854.95
532.185,2371.65
532.69,1837.3
533.194,1837.7
533.699,1928.9
534.204,2075.05
534.708,2059.05
535.213,2019.9
535.717,1990.25
536.222,1960.9
536.726,1953.8
537.231,1954.65
537.735,1958.0
538.239,1948.4
538.743,1938.4
539.247,1932.2
539.751,1933.35
540.255,1926.2
540.759,1928.55
541.263,1919.25
541.767,1922.05
542.271,1921.8
542.775,1924.2
543.279,1921.6
543.782,1928.8
544.286,1927.45
544.789,1916.25
545.293,1915.1
545.796,1921.6
546.3,1916.0
546.803,1921.5
547.306,1925.05
547.81,1915.8
548.313,1921.55
548.816,1918.15
549.319,1916.75
549.822,1917.1
550.325,1910.7
550.828,1916.65
551.331,1912.05
551.834,1917.5
552.337,1916.65
552.839,1920.4
553.342,1935.05
553.844,1932.35
554.347,1931.7
554.849,1944.5
555.352,1943.45
555.854,1946.75
556.357,1957.2
556.859,1965.7
557.361,1976.2
557.863,1986.75
558.365,1997.95
558.867,1986.2
559.369,1972.8
559.871,1973.0
560.373,1964.85
560.875,1972.45
561.377,1970.15
561.878,1973.55
562.38,1992.0
562.881,2008.95
563.383,2035.6
563.884,2321.45
564.386,2126.8
564.887,2089.65
565.388,2057.4
565.89,2279.45
566.391,2217.6
566.892,2045.65
567.393,2059.65
567.894,2025.2
568.395,2026.45
568.896,2030.45
569.396,2043.35
569.897,2044.7
570.398,2076.9
570.898,2122.55
571.399,2607.95
571.9,2279.3
572.4,2169.15
572.9,2131.6
573.401,2146.85
573.901,2209.55
574.401,2182.75
574.901,2197.85
575.401,2446.35
575.901,2550.5
576.401,2813.9
576.901,2689.7
577.401,2501.4
577.901,2468.3
578.4,2483.35
578.9,2563.5
579.399,2632.8
579.899,2701.85
580.398,2732.7
580.898,2827.9
581.397,2898.35
581.896,2950.1
582.395,3027.25
582.895,3096.1
583.394,3153.6
583.893,3186.75
584.391,3254.1
584.89,3362.45
585.389,3365.65
585.888,3424.65
586.386,3516.9
586.885,3554.05
587.384,3623.0
587.882,3665.35
588.38,3768.4
588.879,3776.95
589.377,3821.1
589.875,3852.6
590.373,3852.9
590.871,3942.75
591.369,4018.45
591.867,4052.65
592.365,4000.55
592.863,4085.2
593.361,4072.85
593.858,4061.2
594.356,4105.65
594.853,4149.45
595.351,4106.35
595.848,4238.1
596.345,4201.8
596.843,4277.05
597.34,4273.75
597.837,4417.55
598.334,4375.2
598.831,4414.2
599.328,4520.7
599.824,4504.75
600.321,4561.15
600.818,4561.6
601.314,4587.7
601.811,4499.6
602.307,4520.65
602.804,4455.05
603.3,4441.75
603.796,4364.6
604.293,4233.2
604.789,4227.15
605.285,4091.8
605.781,4022.5
606.277,3918.3
606.772,3873.7
607.268,3801.2
607.764,3725.35
608.259,3698.5
608.755,3621.95
609.25,3654.3
609.746,3572.9
610.241,3502.3
610.736,3499.8
611.231,3446.5
611.727,3391.85
612.222,3340.45
612.716,3285.85
613.211,3281.5
613.706,3245.4
614.201,3243.75
614.695,3196.0
615.19,3161.9
615.684,3095.4
616.179,3094.1
616.673,3047.35
617.168,3070.3
617.662,3073.55
618.156,3023.2
618.65,2979.9
619.144,2988.15
619.638,2952.55
620.131,2923.45
620.625,2952.0
621.119,2925.75
621.612,2969.35
622.106,3010.2
622.599,2999.65
623.093,2893.95
623.586,2852.05
624.079,2862.65
624.572,2814.25
625.065,2835.65
625.558,2862.4
626.051,2898.55
626.544,3255.8
627.037,5128.65
627.529,4885.4
628.022,4523.25
628.514,5633.0
629.007,4696.45
629.499,4329.6
629.991,3926.45
630.483,3830.5
630.976,3342.5
631.468,3052.55
631.959,2965.1
632.451,2896.9
632.943,2883.25
633.435,2903.65
633.926,2862.4
634.418,2858.15
634.909,2855.65
635.401,2873.85
635.892,2856.2
636.383,2842.75
636.874,2863.25
637.365,2881.35
637.856,2895.7
638.347,2888.7
638.838,2865.05
639.329,2906.35
639.819,2903.65
640.31,2916.05
640.8,2893.3
641.291,2905.35
641.781,2920.5
642.271,2955.55
642.761,2914.9
643.251,2930.45
643.741,2926.4
644.231,2940.8
644.721,2898.05
645.211,2949.85
645.7,2922.4
646.19,2923.9
646.679,2928.6
647.169,2935.1
647.658,2876.8
648.147,2919.4
648.636,2831.25
649.125,2896.95
649.614,2843.35
650.103,2867.75
650.592,2861.7
651.08,2850.45
651.569,2796.95
652.058,2789.1
652.546,2809.15
653.034,2787.2
653.523,2775.3
654.011,2816.75
654.499,2768.6
654.987,2798.5
655.475,2769.95
655.963,2766.45
656.45,2722.35
656.938,2724.15
657.425,2689.35
657.913,2663.35
658.4,2621.75
658.888,2619.75
659.375,2581.9
659.862,2598.0
660.349,2536.6
660.836,2499.5
661.079,2490.05