File: spectra/VLFR_01-LDPE_nobio_Raman_d0639b17.csv
nm,Intensity
526.547,833.3
527.094,833.5
527.641,833.2
528.188,833.4
528.734,831.2
529.281,831.3
529.827,832.9
530.373,832.8
530.92,832.5
531.466,832.0
532.011,836.4
532.557,832.2
533.103,831.6
533.648,833.9
534.193,930.8
534.738,921.6
535.283,915.3
535.828,904.6
536.373,900.6
536.917,901.6
537.462,895.6
538.006,894.4
538.55,896.3
539.094,891.9
539.638,889.3
540.182,889.6
540.726,889.5
541.269,887.4
541.812,885.1
542.356,886.1
542.899,885.7
543.442,884.2
543.985,884.9
544.527,886.2
545.07,886.3
545.612,885.0
546.155,888.1
546.697,888.1
547.239,885.0
547.781,885.0
548.323,886.4
548.865,884.3
549.406,881.8
549.948,881.3
550.489,882.2
551.03,884.9
551.572,882.4
552.113,883.4
552.654,885.1
553.194,888.2
553.735,887.8
554.276,885.9
554.816,890.4
555.356,891.5
555.896,891.6
556.437,888.4
556.977,892.9
557.516,895.6
558.056,895.1
558.596,899.0
559.135,898.3
559.675,897.1
560.214,895.7
560.753,899.8
561.292,904.7
561.831,901.7
562.37,908.1
562.909,910.4
563.448,913.4
563.986,947.9
564.525,927.0
565.063,926.0
565.601,922.2
566.139,957.9
566.677,920.8
567.215,919.6
567.753,917.7
568.291,921.9
568.828,922.0
569.366,925.2
569.903,926.3
570.441,934.3
570.978,932.2
571.515,997.4
572.052,947.5
572.589,939.5
573.126,938.3
573.662,943.8
574.199,948.2
574.735,945.0
575.272,946.6
575.808,970.8
576.344,1027.6
576.88,1001.9
577.416,981.5
577.952,969.7
578.488,972.9
579.024,976.2
579.559,980.7
580.095,988.0
580.63,994.4
581.166,993.4
581.701,1006.0
582.236,1013.5
582.771,1021.5
583.306,1030.0
583.841,1047.9
584.376,1056.8
584.911,1063.6
585.445,1082.1
585.98,1101.3
586.514,1117.5
587.048,1138.1
587.583,1160.8
588.117,1177.8
588.651,1191.9
589.185,1213.8
589.719,1228.8
590.253,1262.9
590.786,1279.8
591.32,1292.6
591.853,1322.9
592.387,1333.6
592.92,1359.3
593.454,1378.7
593.987,1398.3
594.52,1427.6
595.053,1449.6
595.586,1486.1
596.119,1521.3
596.651,1555.8
597.184,1579.2
597.717,1616.6
598.249,1645.8
598.782,1690.8
599.314,1713.0
599.846,1735.8
600.379,1733.5
600.911,1744.0
601.443,1741.4
601.975,1725.0
602.507,1714.8
603.038,1693.2
603.57,1672.6
604.102,1642.5
604.633,1602.7
605.165,1556.6
605.696,1519.1
606.228,1490.4
606.759,1450.8
607.29,1435.6
607.821,1410.6
608.352,1398.1
608.883,1365.1
609.414,1351.6
609.945,1334.0
610.476,1318.2
611.006,1304.9
611.537,1295.5
612.067,1293.2
612.598,1276.8
613.128,1269.0
613.659,1265.1
614.189,1252.8
614.719,1237.2
615.249,1224.8
615.779,1218.2
616.309,1207.4
616.839,1194.8
617.369,1192.0
617.899,1183.1
618.428,1186.7
618.958,1169.5
619.487,1165.0
620.017,1166.9
620.546,1163.5
621.076,1150.5
621.605,1147.3
622.134,1159.5
622.663,1150.9
623.193,1133.2
623.722,1125.8
624.251,1116.3
624.78,1119.7
625.308,1116.0
625.837,1113.2
626.366,1121.1
626.895,1255.2
627.423,1445.4
627.952,1312.3
628.48,1459.9
629.009,1322.4
629.537,1263.5
630.065,1227.1
630.594,1197.6
631.122,1128.3
631.65,1095.2
632.178,1079.0
632.706,1076.1
633.234,1070.0
633.762,1065.8
634.29,1067.5
634.818,1071.1
635.346,1067.2
635.873,1070.1
636.401,1070.6
636.929,1072.2
637.456,1070.5
637.984,1074.2
638.511,1081.2
639.039,1081.9
639.566,1087.7
640.093,1093.6
640.62,1094.8
641.148,1107.0
641.675,1105.1
642.202,1108.1
642.729,1114.2
643.256,1118.5
643.783,1121.7
644.31,1116.1
644.837,1119.7
645.364,1125.9
645.891,1132.8
646.417,1137.2
646.944,1137.7
647.471,1146.0
647.997,1145.6
648.524,1153.9
649.051,1154.4
649.577,1150.9
650.104,1163.6
650.63,1159.0
651.157,1165.8
651.683,1168.7
652.209,1175.5
652.736,1169.7
653.262,1180.8
653.788,1178.6
654.314,1188.5
654.84,1182.9
655.366,1179.5
655.893,1178.6
656.419,1169.6
656.945,1170.1
657.471,1162.3
657.997,1159.2
658.522,1152.7
659.048,1141.7
659.574,1136.6
660.1,1120.3
660.626,1102.9
661.152,1105.2
661.677,1088.7
662.203,1073.4
662.729,1070.1
663.123,1058.3