File: spectra/VLFR_06-PET_nobio_Raman_c2fa14d1.csv
nm,Intensity
526.486,831.2
527.033,830.4
527.579,831.2
528.126,829.2
528.672,830.9
529.219,830.7
529.765,828.8
530.311,830.5
530.857,829.6
531.403,831.5
531.948,833.2
532.494,832.3
533.039,830.6
533.585,839.3
534.13,2365.6
534.675,1974.0
535.22,1550.2
535.764,1292.8
536.309,1130.7
536.854,1071.1
537.398,1044.4
537.942,1036.1
538.486,1046.4
539.03,1044.0
539.574,1055.9
540.118,1070.1
540.662,1019.0
541.205,1010.1
541.749,1011.8
542.292,1003.1
542.835,1003.4
543.378,1009.2
543.921,1016.6
544.464,1017.4
545.006,1017.3
545.549,1026.9
546.091,1025.0
546.634,1027.6
547.176,1030.0
547.718,1032.7
548.26,1041.6
548.802,1042.0
549.343,1042.7
549.885,1044.2
550.426,1066.9
550.968,1085.7
551.509,1055.8
552.05,1062.4
552.591,1072.9
553.132,1101.2
553.673,1079.5
554.214,1084.1
554.754,1087.3
555.295,1101.5
555.835,1164.8
556.375,1166.7
556.915,1181.0
557.455,1343.3
557.995,1231.2
558.535,1220.0
559.075,1167.3
559.614,1132.0
560.154,1133.2
560.693,1135.4
561.232,1151.6
561.772,1154.0
562.311,1175.1
562.85,1194.7
563.388,1193.7
563.927,1181.3
564.466,1191.8
565.004,1260.0
565.543,1341.0
566.081,1350.6
566.619,1240.7
567.157,1220.0
567.695,1324.7
568.233,1241.2
568.771,1222.6
569.309,1241.3
569.846,1275.4
570.384,1340.4
570.921,1486.6
571.458,1644.9
571.995,1451.6
572.532,1327.4
573.069,1304.9
573.606,1303.3
574.143,1343.7
574.68,1320.7
575.216,1351.5
575.753,1345.6
576.289,1369.7
576.825,1397.3
577.361,1360.2
577.897,1350.4
578.433,1366.6
578.969,1364.3
579.505,1366.8
580.041,1368.5
580.576,1398.2
581.112,1412.8
581.647,1499.2
582.183,2911.8
582.718,1498.6
583.253,1425.8
583.788,1427.2
584.323,1442.5
584.858,1455.0
585.392,1572.5
585.927,2222.4
586.462,1951.2
586.996,1535.1
587.53,1483.5
588.065,1467.0
588.599,1471.1
589.133,1468.5
589.667,1469.0
590.201,1471.2
590.735,1486.4
591.268,1481.5
591.802,1477.0
592.335,1489.8
592.869,1487.1
593.402,1495.0
593.936,1493.9
594.469,1497.8
595.002,1502.3
595.535,1507.6
596.068,1514.0
596.601,1520.8
597.133,1518.0
597.666,1518.4
598.199,1532.5
598.731,1537.6
599.264,1532.6
599.796,1548.4
600.328,1530.1
600.86,1545.5
601.393,1548.0
601.925,1542.8
602.457,1545.7
602.988,1557.4
603.52,1556.8
604.052,1557.7
604.583,1560.6
605.115,1551.7
605.646,1539.0
606.178,1548.5
606.709,1534.6
607.24,1536.6
607.771,1551.6
608.302,1556.5
608.833,1561.5
609.364,1566.0
609.895,1551.0
610.426,1554.0
610.957,1568.2
611.487,1569.2
612.018,1578.1
612.548,1591.5
613.078,1594.5
613.609,1591.7
614.139,1612.2
614.669,1605.7
615.199,1610.3
615.729,1619.8
616.259,1620.1
616.789,1626.8
617.319,1632.6
617.849,1643.1
618.378,1639.5
618.908,1647.2
619.437,1646.6
619.967,1639.5
620.496,1641.1
621.025,1647.3
621.555,1648.3
622.084,1660.6
622.613,1665.6
623.142,1682.9
623.671,1681.8
624.2,1693.4
624.729,1701.9
625.258,1725.1
625.786,1709.8
626.315,1716.0
626.844,1726.8
627.372,1723.9
627.901,1746.0
628.429,1773.6
628.957,1807.9
629.486,1813.4
630.014,1818.5
630.542,1823.5
631.07,1896.2
631.598,2058.8
632.126,2066.8
632.654,1972.8
633.182,1942.3
633.71,1934.6
634.237,1903.9
634.765,1894.1
635.293,1905.0
635.82,1983.0
636.348,2141.7
636.875,2185.0
637.403,2010.2
637.93,1964.0
638.458,1975.8
638.985,1969.9
639.512,1989.6
640.039,1990.6
640.566,1994.2
641.093,2004.1
641.62,2008.5
642.147,2040.4
642.674,2048.1
643.201,2021.1
643.728,2020.0
644.255,2035.0
644.781,2021.7
645.308,2037.5
645.835,2047.9
646.361,2059.4
646.888,2052.5
647.414,2058.6
647.941,2085.4
648.467,2077.0
648.993,2083.6
649.52,2079.9
650.046,2082.8
650.572,2078.1
651.098,2074.9
651.625,2094.2
652.151,2085.8
652.677,2110.0
653.203,2120.0
653.729,2108.7
654.255,2122.3
654.78,2104.2
655.306,2113.2
655.832,2119.4
656.358,2126.5
656.884,2129.8
657.409,2118.4
657.935,2126.2
658.461,2127.6
658.986,2129.9
659.512,2125.9
660.037,2139.2
660.563,2127.8
661.088,2120.1
661.614,2115.7
662.139,2096.6
662.664,2098.3
663.058,2094.0