File: spectra/VLFR_07-PET_nobio_Raman_897ab508.csv
cm-1,Intensity
109.24,8512.25
126.699,7930.75
144.108,7593.25
161.468,7425.4
178.779,7384.75
196.04,7344.85
213.253,7325.6
230.417,7321.2
247.532,7285.35
264.599,7288.05
281.618,7190.9
298.59,7117.5
315.513,7062.9
332.389,7053.2
349.218,6926.2
365.999,6863.55
382.734,6778.35
399.422,6830.75
416.064,6786.5
432.659,6687.7
449.208,6616.4
465.711,6533.2
482.168,6517.6
498.579,6436.4
514.946,6391.0
531.267,6412.9
547.542,6333.55
563.773,6276.95
579.96,6228.15
596.102,6161.1
612.199,6173.4
628.252,6314.9
644.261,6118.95
660.227,6031.0
676.149,5962.2
692.027,6016.05
707.862,5998.4
723.654,5905.65
739.403,5878.85
755.109,5857.8
770.773,5786.9
786.394,5839.65
801.973,5851.25
817.509,5830.5
833.004,5810.35
848.457,5971.2
863.868,5889.85
879.238,5808.7
894.567,5661.05
909.854,5630.9
925.1,5521.9
940.306,5543.2
955.471,5480.55
970.595,5459.95
985.679,5454.75
1000.72,5450.85
1015.73,5396.1
1030.69,5426.85
1045.61,5339.3
1060.5,5314.8
1075.34,5340.25
1090.15,5372.25
1104.92,5418.15
1119.64,5386.75
1134.33,5251.8
1148.98,5223.8
1163.6,5256.65
1178.17,5241.65
1192.7,5109.8
1207.2,5137.75
1221.66,5129.9
1236.08,5147.75
1250.46,5167.95
1264.81,5256.6
1279.12,5341.9
1293.39,5287.05
1307.62,5152.35
1321.82,5076.85
1335.98,5026.3
1350.11,5032.75
1364.19,4986.35
1378.24,4954.6
1392.26,4956.85
1406.24,4936.95
1420.18,4928.05
1434.08,4933.05
1447.96,4924.55
1461.79,4867.45
1475.59,4823.8
1489.35,4859.9
1503.08,4790.9
1516.78,4808.25
1530.44,4755.85
1544.06,4764.45
1557.65,4731.85
1571.2,4728.95
1584.72,4683.45
1598.21,4947.75
1611.66,5131.3
1625.08,4811.05
1638.46,4600.95
1651.81,4594.55
1665.13,4574.7
1678.41,4562.4
1691.66,4599.7
1704.88,4710.75
1718.06,4857.6
1731.21,4829.35
1744.32,4610.5
1757.41,4460.5
1770.46,4446.65
1783.48,4402.15
1796.46,4420.45
1809.42,4365.85
1822.34,4367.45
1835.23,4375.65
1848.08,4323.7
1860.91,4323.85
1873.7,4302.35
1886.46,4297.9
1899.19,4266.25
1911.89,4284.05
1924.56,4234.4
1937.19,4223.05
1949.8,4218.8
1962.37,4180.25
1974.91,4182.95
1987.42,4159.55
1999.9,4124.55
2012.36,4125.0
2024.78,4123.4
2037.16,4090.05
2049.52,4086.3
2061.85,4061.9
2074.15,4058.0
2086.42,4064.6
2098.66,4042.65
2110.87,4036.25
2123.05,4029.55
2135.2,4010.25
2147.32,4003.8
2159.41,4001.95
2171.47,3990.05
2183.51,3984.0
2195.51,3970.65
2207.49,3967.6
2219.43,3961.35
2231.35,3949.0
2243.24,3944.55
2255.1,3931.35
2266.93,3925.4
2278.73,3921.05
2290.51,3912.45
2302.26,3913.6
2313.97,3907.45
2325.67,3900.0
2337.33,3900.0
2348.96,3892.65
2360.57,3875.55
2372.15,3885.25
2383.7,3876.35
2395.23,3872.35
2406.73,3867.3
2418.2,3868.6
2429.64,3864.7
2441.06,3859.3
2452.45,3849.45
2463.81,3846.9
2475.15,3843.7
2486.46,3838.65
2497.74,3837.15
2509.0,3831.0
2520.23,3829.55
2531.43,3830.1
2542.61,3825.3
2553.76,3823.7
2564.88,3819.65
2575.98,3816.55
2587.06,3815.5
2598.1,3815.15
2609.13,3809.6
2620.12,3810.3
2631.09,3808.55
2642.04,3802.2
2652.96,3801.5
2663.85,3800.65
2674.72,3800.0
2685.57,3792.65
2696.39,3789.7
2707.18,3788.3
2717.95,3789.4
2728.69,3786.85
2739.41,3783.9
2750.11,3782.25
2760.78,3782.75
2771.43,3775.65
2782.05,3776.35
2792.65,3773.75
2803.22,3771.75
2813.77,3772.6
2824.3,3770.25
2834.8,3767.65
2845.27,3765.6
2855.73,3763.85
2866.16,3764.15
2876.56,3763.7
2886.95,3764.7
2897.3,3762.4
2907.64,3761.5
2917.95,3758.55
2928.24,3758.6
2938.51,3761.05
2948.75,3763.0
2958.97,3763.25
2969.17,3762.5
2979.34,3760.3
2989.49,3757.7
2999.62,3752.75
3009.72,3753.1
3019.81,3751.2
3029.87,3747.7
3039.9,3748.85
3049.92,3748.45
3059.91,3750.85
3069.88,3750.4
3079.83,3750.5
3089.76,3748.85
3099.66,3746.2
3109.54,3744.85
3119.4,3744.0
3129.24,3742.25
3139.06,3741.9
3148.85,3741.7
3158.62,3738.65
3168.38,3739.75
3178.11,3739.15
3187.81,3737.8
3197.5,3738.3
3207.17,3737.45
3216.81,3737.9
3226.44,3738.5
3236.04,3738.95
3245.62,3737.15
3255.18,3737.9
3264.72,3737.95
3274.24,3736.35
3283.73,3736.95
3293.21,3736.25
3302.67,3736.75
3312.1,3735.4
3321.52,3736.1
3330.91,3735.2
3340.29,3735.45
3349.64,3737.15
3358.97,3736.15
3368.29,3735.15
3375.26,3736.15