File: spectra/VLFR_08-PLA_nobio_Raman_9c88f778.csv
nm,Intensity
526.508,830.0
527.055,830.5
527.602,830.267
528.149,830.2
528.695,829.8
529.241,829.667
529.787,830.767
530.334,830.133
530.879,830.1
531.425,829.667
531.971,832.7
532.516,830.067
533.062,830.167
533.607,830.8
534.152,926.533
534.697,909.933
535.242,893.6
535.786,886.667
536.331,884.767
536.876,884.067
537.42,877.867
537.964,880.1
538.508,874.033
539.052,874.7
539.596,873.167
540.14,870.1
540.683,876.4
541.227,875.9
541.77,875.1
542.313,871.4
542.856,872.033
543.399,880.5
543.942,884.7
544.485,875.3
545.027,872.2
545.57,870.7
546.112,870.0
546.654,870.8
547.196,870.867
547.738,872.233
548.28,873.1
548.822,872.467
549.363,874.8
549.905,873.5
550.446,874.533
550.988,875.4
551.529,876.233
552.07,878.4
552.611,878.067
553.152,878.767
553.692,878.133
554.233,881.333
554.773,877.9
555.314,875.667
555.854,875.333
556.394,875.133
556.934,875.9
557.474,883.867
558.014,927.033
558.553,891.267
559.093,883.8
559.632,882.0
560.172,880.733
560.711,878.933
561.25,880.167
561.789,881.033
562.328,881.3
562.867,885.7
563.406,899.167
563.944,890.8
564.483,886.5
565.021,895.133
565.559,896.1
566.098,907.467
566.636,895.667
567.174,885.833
567.711,886.9
568.249,890.8
568.787,891.433
569.324,890.9
569.862,890.233
570.399,889.133
570.936,890.867
571.474,897.733
572.011,899.3
572.548,896.067
573.084,897.333
573.621,899.833
574.158,896.5
574.694,902.267
575.231,893.0
575.767,891.467
576.303,899.7
576.84,923.733
577.376,902.233
577.912,892.667
578.447,891.9
578.983,893.633
579.519,893.967
580.054,892.167
580.59,890.767
581.125,894.233
581.661,893.4
582.196,892.267
582.731,892.467
583.266,893.067
583.801,896.133
584.336,894.133
584.87,895.167
585.405,893.8
585.94,894.4
586.474,899.7
587.008,913.1
587.543,922.033
588.077,903.8
588.611,896.533
589.145,893.567
589.679,894.333
590.213,893.367
590.747,892.533
591.28,895.4
591.814,894.6
592.347,895.033
592.881,894.0
593.414,894.233
593.947,892.167
594.48,893.0
595.014,894.633
595.547,894.8
596.079,895.767
596.612,896.633
597.145,894.033
597.678,896.567
598.21,896.2
598.743,895.233
599.275,897.7
599.807,896.4
600.34,898.2
600.872,897.0
601.404,897.0
601.936,896.8
602.468,895.633
603.0,897.1
603.532,898.367
604.063,897.4
604.595,897.933
605.126,898.4
605.658,897.433
606.189,898.9
606.721,898.633
607.252,899.033
607.783,901.333
608.314,901.1
608.845,899.5
609.376,901.667
609.907,901.333
610.438,901.267
610.968,901.6
611.499,901.833
612.03,903.4
612.56,904.267
613.091,906.833
613.621,907.333
614.151,908.133
614.681,907.133
615.212,906.333
615.742,908.033
616.272,906.2
616.802,906.7
617.332,910.5
617.861,907.6
618.391,908.8
618.921,907.767
619.45,909.9
619.98,910.167
620.509,911.3
621.039,909.533
621.568,908.233
622.097,909.867
622.627,913.9
623.156,915.4
623.685,915.833
624.214,912.633
624.743,909.1
625.272,911.333
625.801,909.333
626.33,908.767
626.858,912.1
627.387,910.8
627.916,912.3
628.444,938.233
628.973,936.767
629.501,934.0
630.029,936.2
630.558,957.1
631.086,1094.6
631.614,1005.33
632.142,957.433
632.67,946.033
633.198,985.4
633.726,968.133
634.254,933.0
634.782,913.1
635.31,907.567
635.838,904.9
636.365,903.967
636.893,905.0
637.421,901.233
637.948,901.067
638.476,900.367
639.003,901.0
639.531,898.3
640.058,900.633
640.585,899.167
641.113,901.4
641.64,898.333
642.167,897.4
642.694,898.733
643.221,897.733
643.748,894.933
644.275,893.367
644.802,894.633
645.329,892.5
645.856,893.8
646.382,894.133
646.909,891.533
647.436,891.167
647.962,889.6
648.489,891.567
649.016,891.2
649.542,890.667
650.069,890.033
650.595,889.667
651.121,887.433
651.648,888.733
652.174,887.333
652.7,885.733
653.227,888.3
653.753,889.267
654.279,886.4
654.805,887.567
655.331,887.433
655.857,886.3
656.383,886.533
656.909,884.9
657.435,885.167
657.961,884.933
658.487,884.267
659.013,883.333
659.538,884.933
660.064,883.8
660.59,884.367
661.116,883.567
661.641,881.833
662.167,883.433
662.692,881.967
663.087,880.667