File: spectra/VLFR_08-PLA_nobio_Raman_762d101f.csv
nm,Intensity
526.532,830.167
527.079,830.5
527.625,830.4
528.172,830.4
528.718,830.6
529.265,830.2
529.811,829.8
530.357,830.567
530.903,830.5
531.449,830.433
531.994,837.033
532.54,830.5
533.085,829.8
533.63,834.033
534.176,1050.43
534.721,996.033
535.266,954.767
535.81,934.9
536.355,926.967
536.9,925.633
537.444,916.067
537.988,912.233
538.533,901.133
539.077,897.467
539.621,892.9
540.165,887.633
540.708,908.3
541.252,908.0
541.795,897.2
542.339,891.9
542.882,893.8
543.425,918.533
543.968,926.6
544.511,901.633
545.054,890.967
545.597,886.5
546.139,883.533
546.682,887.6
547.224,888.7
547.766,885.8
548.308,887.067
548.85,888.4
549.392,891.7
549.934,888.633
550.475,890.867
551.017,895.033
551.558,895.333
552.1,897.0
552.641,900.333
553.182,898.933
553.723,896.967
554.264,905.433
554.804,897.167
555.345,891.267
555.885,887.033
556.426,889.8
556.966,894.267
557.506,911.167
558.046,1047.83
558.586,924.5
559.126,906.933
559.665,902.2
560.205,899.5
560.745,894.8
561.284,891.267
561.823,891.567
562.362,894.933
562.901,906.033
563.44,942.467
563.979,915.8
564.518,906.533
565.056,930.7
565.595,924.667
566.133,958.433
566.671,918.333
567.21,899.8
567.748,906.833
568.285,908.4
568.823,907.567
569.361,906.267
569.899,903.433
570.436,908.7
570.974,905.933
571.511,926.033
572.048,927.333
572.585,919.333
573.122,921.333
573.659,924.633
574.196,919.433
574.733,932.4
575.269,908.567
575.806,909.1
576.342,932.633
576.878,997.267
577.414,930.567
577.951,909.5
578.486,910.233
579.022,909.833
579.558,906.333
580.094,905.867
580.629,906.467
581.165,907.9
581.7,906.9
582.236,909.333
582.771,910.267
583.306,910.1
583.841,912.567
584.376,913.033
584.911,913.067
585.445,912.833
585.98,914.533
586.514,928.2
587.049,968.067
587.583,991.067
588.117,933.233
588.651,915.233
589.186,911.5
589.72,911.3
590.253,907.7
590.787,911.267
591.321,910.733
591.854,910.767
592.388,908.767
592.921,908.367
593.455,907.6
593.988,911.8
594.521,909.2
595.054,912.133
595.587,911.567
596.12,909.4
596.653,909.8
597.186,909.067
597.718,909.967
598.251,909.6
598.783,911.467
599.316,909.933
599.848,911.4
600.38,910.767
600.912,909.9
601.444,908.7
601.976,909.6
602.508,909.6
603.04,909.267
603.572,910.067
604.103,910.3
604.635,910.7
605.167,909.867
605.698,910.033
606.229,906.833
606.761,907.833
607.292,906.1
607.823,907.167
608.354,908.533
608.885,907.467
609.416,907.767
609.947,908.2
610.477,907.667
611.008,907.167
611.539,908.067
612.069,909.633
612.6,910.767
613.13,910.967
613.66,909.1
614.19,911.667
614.721,909.3
615.251,910.767
615.781,908.433
616.311,911.433
616.841,911.167
617.37,910.0
617.9,910.2
618.43,910.133
618.96,906.867
619.489,911.167
620.019,910.033
620.548,907.867
621.077,910.9
621.607,910.3
622.136,910.833
622.665,920.7
623.194,927.367
623.723,920.733
624.252,915.733
624.781,912.133
625.31,909.9
625.839,908.867
626.368,909.4
626.896,911.533
627.425,912.4
627.953,926.2
628.482,1003.07
629.01,978.4
629.539,979.7
630.067,987.8
630.596,1061.47
631.124,1491.67
631.652,1183.67
632.18,1056.0
632.708,1038.67
633.236,1142.63
633.764,1087.2
634.292,983.933
634.82,932.167
635.348,916.2
635.876,911.267
636.403,908.333
636.931,904.033
637.459,903.233
637.986,902.167
638.514,901.333
639.041,902.4
639.568,904.767
640.096,901.367
640.623,899.333
641.15,903.4
641.678,903.233
642.205,905.933
642.732,902.733
643.259,901.2
643.786,898.333
644.313,896.467
644.84,896.067
645.367,894.767
645.894,895.8
646.421,895.333
646.948,892.033
647.474,891.967
648.001,894.4
648.528,893.733
649.054,893.033
649.581,891.967
650.108,891.267
650.634,891.6
651.161,891.0
651.687,890.0
652.214,891.8
652.74,888.733
653.266,890.3
653.793,889.767
654.319,888.033
654.845,888.633
655.371,889.2
655.897,889.2
656.424,890.033
656.95,890.6
657.476,890.033
658.002,889.733
658.528,886.133
659.054,888.333
659.58,886.867
660.106,888.9
660.631,888.733
661.157,885.667
661.683,883.667
662.209,883.8
662.735,885.667
663.129,883.533