File: spectra/VLFR_08-PLA_bio_Raman_40ca4d60.csv
nm,Intensity
528.626,1866.4
529.132,1869.2
529.637,1868.2
530.143,1867.3
530.648,1867.1
531.153,1870.7
531.658,1925.7
532.164,4675.5
532.669,1869.3
533.174,1871.8
533.679,2203.7
534.184,3376.8
534.689,3495.0
535.194,3595.1
535.699,3697.5
536.203,3732.8
536.708,3792.5
537.213,3820.5
537.717,3949.2
538.222,3989.5
538.726,4045.4
539.231,4154.5
539.735,4205.8
540.239,4248.9
540.744,4427.5
541.248,4393.8
541.752,4493.3
542.256,4595.1
542.76,4720.1
543.264,4682.8
543.768,4837.5
544.272,4853.5
544.776,4983.6
545.28,4942.0
545.784,5070.7
546.287,5163.8
546.791,5310.9
547.294,5257.4
547.798,5357.7
548.301,5434.3
548.805,5568.3
549.308,5591.0
549.811,5618.7
550.315,5687.7
550.818,5880.5
551.321,5831.9
551.824,6004.5
552.327,6041.9
552.83,5992.7
553.333,6080.9
553.835,6267.6
554.338,6236.1
554.841,6353.6
555.343,6347.6
555.846,6471.4
556.349,6411.0
556.851,6404.2
557.353,6521.1
557.856,6593.4
558.358,6767.3
558.86,6782.5
559.362,6895.9
559.864,6859.5
560.366,6874.1
560.868,6964.5
561.37,6988.7
561.872,7059.6
562.374,7118.1
562.876,7062.4
563.377,7077.4
563.879,7079.1
564.38,7271.3
564.882,7301.5
565.383,7275.2
565.885,7429.3
566.386,7390.0
566.887,7384.9
567.388,7484.8
567.889,7522.7
568.391,7482.6
568.892,7482.3
569.392,7654.4
569.893,7629.0
570.394,7630.9
570.895,7603.9
571.395,7675.5
571.896,7691.5
572.397,7630.7
572.897,7711.9
573.397,7881.8
573.898,7700.1
574.398,7808.6
574.898,7848.4
575.398,7781.2
575.898,7840.9
576.398,7766.0
576.898,7995.4
577.398,7785.5
577.898,7877.3
578.398,7805.1
578.897,7722.3
579.397,7841.9
579.896,7854.3
580.396,7945.6
580.895,7928.3
581.395,7915.4
581.894,7834.5
582.393,7812.9
582.892,7888.5
583.391,7878.4
583.89,7888.7
584.389,7959.5
584.888,7845.2
585.387,7849.7
585.886,7943.0
586.384,7947.8
586.883,7923.6
587.381,8060.6
587.88,7959.0
588.378,7989.2
588.876,7999.7
589.375,7840.6
589.873,7877.9
590.371,8068.1
590.869,8028.3
591.367,8026.0
591.865,8065.1
592.363,8180.3
592.86,8195.2
593.358,8156.1
593.856,8097.4
594.353,8190.2
594.851,8152.2
595.348,8269.9
595.845,8366.9
596.342,8455.4
596.84,8532.6
597.337,8511.0
597.834,8514.3
598.331,8554.1
598.828,8622.4
599.324,8648.6
599.821,8727.7
600.318,8895.9
600.814,8883.8
601.311,8918.1
601.807,9066.0
602.304,9094.6
602.8,9054.8
603.296,9169.7
603.792,9213.6
604.288,9337.6
604.784,9405.2
605.28,9324.0
605.776,9514.2
606.272,9745.6
606.767,9696.1
607.263,9816.0
607.759,9864.6
608.254,9932.4
608.749,10126.2
609.245,10158.1
609.74,10118.5
610.235,10226.0
610.73,10365.1
611.225,10557.9
611.72,10488.3
612.215,10492.9
612.71,10783.5
613.204,11013.6
613.699,10893.3
614.194,11150.4
614.688,11207.1
615.182,11265.3
615.677,11186.2
616.171,11543.5
616.665,11502.3
617.159,11593.5
617.653,11462.1
618.147,11767.9
618.641,11921.2
619.135,11944.5
619.628,11926.2
620.122,12179.4
620.615,12080.2
621.109,12229.9
621.602,12095.7
622.095,12266.9
622.589,12372.8
623.082,12563.8
623.575,12572.1
624.068,12642.1
624.561,12719.7
625.053,12846.8
625.546,12637.6
626.039,12653.1
626.531,12776.1
627.024,12764.7
627.516,12737.8
628.008,13314.1
628.501,13107.5
628.993,12999.3
629.485,13055.2
629.977,12972.6
630.469,13097.4
630.96,13123.5
631.452,13306.9
631.944,13246.0
632.435,13235.8
632.927,13294.5
633.418,13366.0
633.91,13170.1
634.401,13336.1
634.892,13192.4
635.383,13123.9
635.874,13171.9
636.365,13110.6
636.856,12961.1
637.346,13280.7
637.837,13168.0
638.327,13084.7
638.818,13101.8
639.308,13048.4
639.799,12891.0
640.289,13245.0
640.779,12748.4
641.269,12989.1
641.759,12866.3
642.249,12836.9
642.738,12661.3
643.228,12570.0
643.718,12505.8
644.207,12504.3
644.697,12384.6
645.186,12616.0
645.675,12573.3
646.164,12233.0
646.653,12273.1
647.142,12249.4
647.631,11926.2
648.12,12098.4
648.609,11940.5
649.098,11802.7
649.586,11828.8
650.075,11579.1
650.563,11415.1
651.051,11706.1
651.539,11473.7
652.027,11560.8
652.515,11122.9
653.003,10965.7
653.491,10744.4
653.979,10752.3
654.467,10586.6
654.954,10717.0
655.442,10524.3
655.929,10485.0
656.416,10794.6
656.904,10302.8
657.391,10281.3
657.878,10105.4
658.365,9913.2
658.851,9849.1
659.338,9719.6
659.825,9660.7
660.311,9527.4
660.798,9577.6
661.041,9417.8