File: spectra/VLFR_06-PET_bio_Raman_fd25e5cc.csv
nm,Intensity
528.65,1851.75
529.155,1849.85
529.66,1851.2
530.165,1850.8
530.67,1850.6
531.175,1851.75
531.68,1864.55
532.185,2589.8
532.69,1851.3
533.194,1850.35
533.699,1970.3
534.204,2330.1
534.708,2266.5
535.213,2242.65
535.717,2227.0
536.222,2192.3
536.726,2188.75
537.231,2192.9
537.735,2192.45
538.239,2194.4
538.743,2230.85
539.247,2219.65
539.751,2224.7
540.255,2238.55
540.759,2247.8
541.263,2251.85
541.767,2245.4
542.271,2248.35
542.775,2257.0
543.279,2263.65
543.782,2263.3
544.286,2275.0
544.789,2276.75
545.293,2288.9
545.796,2300.0
546.3,2283.65
546.803,2306.4
547.306,2289.55
547.81,2300.15
548.313,2293.15
548.816,2300.45
549.319,2309.2
549.822,2311.55
550.325,2307.6
550.828,2318.65
551.331,2318.3
551.834,2347.35
552.337,2334.2
552.839,2337.6
553.342,2320.55
553.844,2323.6
554.347,2350.85
554.849,2357.6
555.352,2362.8
555.854,2365.2
556.357,2372.2
556.859,2367.5
557.361,2401.05
557.863,2394.3
558.365,2382.55
558.867,2368.55
559.369,2374.2
559.871,2387.6
560.373,2394.55
560.875,2414.05
561.377,2394.4
561.878,2423.3
562.38,2410.35
562.881,2428.35
563.383,2424.5
563.884,2443.7
564.386,2434.9
564.887,2491.45
565.388,2487.5
565.89,2482.85
566.391,2476.45
566.892,2487.9
567.393,2493.05
567.894,2494.05
568.395,2494.65
568.896,2485.05
569.396,2500.55
569.897,2526.65
570.398,2527.25
570.898,2558.8
571.399,2612.4
571.9,2564.5
572.4,2566.5
572.9,2540.65
573.401,2560.35
573.901,2564.5
574.401,2552.65
574.901,2571.3
575.401,2577.45
575.901,2592.1
576.401,2607.85
576.901,2620.75
577.401,2593.9
577.901,2618.8
578.4,2601.45
578.9,2594.85
579.399,2639.55
579.899,2614.4
580.398,2659.55
580.898,2650.55
581.397,2667.4
581.896,2799.5
582.395,2764.9
582.895,2657.15
583.394,2683.5
583.893,2684.95
584.391,2680.95
584.89,2680.2
585.389,2716.95
585.888,2820.85
586.386,2752.35
586.885,2698.7
587.384,2682.75
587.882,2671.55
588.38,2689.65
588.879,2692.15
589.377,2679.6
589.875,2672.1
590.373,2662.15
590.871,2675.0
591.369,2698.75
591.867,2719.35
592.365,2702.9
592.863,2707.7
593.361,2690.9
593.858,2703.1
594.356,2688.75
594.853,2665.1
595.351,2717.6
595.848,2694.2
596.345,2713.8
596.843,2677.4
597.34,2719.3
597.837,2723.9
598.334,2701.25
598.831,2717.55
599.328,2699.8
599.824,2718.25
600.321,2726.45
600.818,2701.95
601.314,2719.3
601.811,2729.65
602.307,2724.1
602.804,2686.8
603.3,2719.85
603.796,2711.2
604.293,2696.7
604.789,2693.2
605.285,2690.35
605.781,2706.45
606.277,2725.85
606.772,2710.9
607.268,2698.2
607.764,2678.3
608.259,2717.2
608.755,2689.8
609.25,2684.25
609.746,2705.95
610.241,2699.2
610.736,2698.35
611.231,2681.7
611.727,2683.25
612.222,2681.9
612.716,2699.65
613.211,2675.2
613.706,2671.5
614.201,2682.7
614.695,2716.5
615.19,2702.85
615.684,2662.3
616.179,2690.9
616.673,2720.85
617.168,2665.75
617.662,2698.95
618.156,2707.65
618.65,2684.4
619.144,2681.4
619.638,2694.55
620.131,2689.6
620.625,2710.35
621.119,2698.2
621.612,2685.4
622.106,2702.4
622.599,2714.8
623.093,2650.45
623.586,2707.8
624.079,2702.75
624.572,2686.25
625.065,2712.25
625.558,2687.1
626.051,2701.9
626.544,2710.4
627.037,2706.15
627.529,2741.35
628.022,2695.0
628.514,2737.05
629.007,2715.05
629.499,2758.15
629.991,2721.4
630.483,2733.95
630.976,2749.85
631.468,2748.55
631.959,2764.5
632.451,2773.4
632.943,2793.15
633.435,2764.3
633.926,2775.05
634.418,2770.65
634.909,2759.65
635.401,2772.6
635.892,2759.5
636.383,2816.65
636.874,2831.75
637.365,2761.2
637.856,2770.9
638.347,2746.95
638.838,2730.8
639.329,2741.05
639.819,2743.4
640.31,2771.85
640.8,2742.25
641.291,2731.5
641.781,2746.65
642.271,2733.95
642.761,2718.45
643.251,2740.75
643.741,2719.6
644.231,2734.8
644.721,2710.05
645.211,2734.95
645.7,2742.7
646.19,2750.9
646.679,2722.35
647.169,2726.15
647.658,2711.05
648.147,2722.05
648.636,2702.4
649.125,2734.7
649.614,2692.75
650.103,2659.45
650.592,2683.95
651.08,2690.4
651.569,2647.35
652.058,2690.85
652.546,2643.15
653.034,2645.3
653.523,2643.4
654.011,2641.0
654.499,2604.35
654.987,2637.95
655.475,2595.7
655.963,2600.15
656.45,2576.3
656.938,2568.0
657.425,2569.05
657.913,2580.55
658.4,2547.9
658.888,2545.8
659.375,2544.2
659.862,2535.0
660.349,2523.25
660.836,2532.1
661.079,2498.5