File: spectra/VLFR_08-PLA_nobio_Raman_d8eecd7d.csv
nm,Intensity
526.508,829.9
527.055,831.1
527.602,830.8
528.149,830.8
528.695,829.9
529.241,830.6
529.787,829.4
530.334,829.7
530.879,829.0
531.425,830.1
531.971,836.1
532.516,831.8
533.062,831.2
533.607,832.2
534.152,1050.4
534.697,1015.6
535.242,976.3
535.786,955.7
536.331,948.6
536.876,951.5
537.42,937.2
537.964,940.2
538.508,930.8
539.052,928.2
539.596,922.9
540.14,921.9
540.683,937.1
541.227,937.4
541.77,925.5
542.313,925.9
542.856,928.8
543.399,943.9
543.942,956.9
544.485,934.1
545.027,928.5
545.57,922.3
546.112,926.4
546.654,923.1
547.196,923.0
547.738,926.4
548.28,924.5
548.822,926.7
549.363,929.9
549.905,928.5
550.446,930.6
550.988,935.2
551.529,936.9
552.07,939.1
552.611,943.8
553.152,943.8
553.692,939.0
554.233,945.8
554.773,937.2
555.314,937.0
555.854,936.0
556.394,933.3
556.934,939.9
557.474,954.1
558.014,1067.5
558.553,970.2
559.093,950.4
559.632,948.2
560.172,945.8
560.711,943.0
561.25,942.5
561.789,943.1
562.328,942.1
562.867,955.5
563.406,983.2
563.944,967.2
564.483,953.9
565.021,974.5
565.559,965.9
566.098,998.8
566.636,972.8
567.174,952.8
567.711,953.8
568.249,954.7
568.787,961.7
569.324,958.6
569.862,957.7
570.399,957.3
570.936,964.3
571.474,978.1
572.011,981.5
572.548,977.8
573.084,975.4
573.621,976.1
574.158,974.1
574.694,986.5
575.231,965.3
575.767,966.7
576.303,984.0
576.84,1043.8
577.376,989.7
577.912,966.7
578.447,969.8
578.983,965.4
579.519,963.3
580.054,966.1
580.59,962.7
581.125,966.8
581.661,968.4
582.196,965.7
582.731,969.4
583.266,974.7
583.801,965.8
584.336,970.7
584.87,967.2
585.405,969.0
585.94,972.3
586.474,993.0
587.008,1018.1
587.543,1045.6
588.077,994.6
588.611,974.4
589.145,970.6
589.679,971.8
590.213,973.1
590.747,971.9
591.28,974.2
591.814,968.7
592.347,970.9
592.881,970.0
593.414,967.7
593.947,972.7
594.48,969.3
595.014,970.7
595.547,973.7
596.079,972.0
596.612,971.3
597.145,973.2
597.678,970.2
598.21,976.4
598.743,971.3
599.275,977.2
599.807,968.6
600.34,971.6
600.872,968.8
601.404,974.3
601.936,967.8
602.468,967.3
603.0,974.2
603.532,972.9
604.063,966.6
604.595,967.9
605.126,967.6
605.658,962.5
606.189,966.3
606.721,963.5
607.252,967.4
607.783,963.9
608.314,965.2
608.845,962.5
609.376,962.5
609.907,965.1
610.438,965.8
610.968,964.5
611.499,962.7
612.03,961.3
612.56,966.1
613.091,964.5
613.621,967.2
614.151,966.4
614.681,968.7
615.212,967.7
615.742,965.8
616.272,963.9
616.802,963.6
617.332,967.4
617.861,967.2
618.391,969.0
618.921,970.0
619.45,964.0
619.98,972.6
620.509,969.4
621.039,964.8
621.568,962.9
622.097,967.2
622.627,973.1
623.156,979.0
623.685,972.3
624.214,970.4
624.743,967.2
625.272,969.8
625.801,965.7
626.33,962.9
626.858,961.8
627.387,967.9
627.916,974.5
628.444,1032.3
628.973,1022.8
629.501,1018.4
630.029,1024.0
630.558,1079.9
631.086,1424.6
631.614,1204.6
632.142,1084.0
632.67,1062.1
633.198,1151.8
633.726,1111.9
634.254,1026.3
634.782,980.6
635.31,963.8
635.838,958.3
636.365,959.6
636.893,960.0
637.421,952.5
637.948,949.1
638.476,947.8
639.003,953.8
639.531,953.3
640.058,948.4
640.585,956.1
641.113,951.5
641.64,951.0
642.167,948.8
642.694,952.3
643.221,948.2
643.748,940.5
644.275,944.5
644.802,940.4
645.329,942.7
645.856,940.6
646.382,940.7
646.909,936.6
647.436,939.1
647.962,937.0
648.489,935.2
649.016,939.3
649.542,935.8
650.069,941.0
650.595,935.2
651.121,932.6
651.648,933.2
652.174,935.5
652.7,931.4
653.227,933.4
653.753,930.7
654.279,933.7
654.805,933.2
655.331,930.5
655.857,930.2
656.383,930.1
656.909,934.6
657.435,932.8
657.961,931.0
658.487,928.4
659.013,927.7
659.538,931.5
660.064,932.5
660.59,924.9
661.116,931.2
661.641,927.3
662.167,923.2
662.692,924.0
663.087,924.6