File: spectra/VLFR_08-PLA_nobio_Raman_bf9f6ea1.csv
nm,Intensity
526.508,832.4
527.055,830.7
527.602,829.5
528.149,830.0
528.695,830.1
529.241,830.8
529.787,831.2
530.334,829.3
530.879,829.8
531.425,829.4
531.971,833.3
532.516,830.2
533.062,830.7
533.607,831.7
534.152,1015.0
534.697,993.8
535.242,961.5
535.786,953.6
536.331,945.5
536.876,949.9
537.42,936.9
537.964,940.5
538.508,931.5
539.052,929.2
539.596,929.0
540.14,926.3
540.683,938.2
541.227,939.6
541.77,932.9
542.313,931.6
542.856,936.6
543.399,949.1
543.942,955.8
544.485,937.8
545.027,938.6
545.57,935.4
546.112,938.9
546.654,938.7
547.196,937.9
547.738,937.7
548.28,940.2
548.822,945.1
549.363,940.8
549.905,947.9
550.446,944.6
550.988,950.6
551.529,950.9
552.07,951.8
552.611,954.7
553.152,953.1
553.692,955.2
554.233,963.5
554.773,958.7
555.314,952.5
555.854,952.0
556.394,956.4
556.934,957.8
557.474,965.2
558.014,1051.8
558.553,984.6
559.093,967.1
559.632,965.0
560.172,966.3
560.711,963.5
561.25,955.6
561.789,960.7
562.328,964.8
562.867,975.9
563.406,1002.2
563.944,984.0
564.483,977.7
565.021,991.5
565.559,991.5
566.098,1014.8
566.636,995.8
567.174,977.7
567.711,984.2
568.249,982.7
568.787,984.2
569.324,987.6
569.862,987.4
570.399,987.1
570.936,987.0
571.474,1001.4
572.011,1002.7
572.548,998.9
573.084,998.1
573.621,1002.7
574.158,1001.0
574.694,1011.6
575.231,995.7
575.767,996.3
576.303,1012.1
576.84,1063.6
577.376,1012.0
577.912,1001.2
578.447,1001.7
578.983,996.7
579.519,999.4
580.054,996.4
580.59,999.9
581.125,993.0
581.661,998.3
582.196,1002.7
582.731,1000.8
583.266,1001.8
583.801,1004.2
584.336,1001.2
584.87,1000.1
585.405,1004.2
585.94,1002.3
586.474,1018.8
587.008,1047.8
587.543,1062.3
588.077,1018.0
588.611,1009.1
589.145,1004.7
589.679,1002.8
590.213,1007.3
590.747,1004.6
591.28,1012.6
591.814,1006.8
592.347,1006.2
592.881,1006.4
593.414,1007.0
593.947,1008.0
594.48,1005.0
595.014,1010.7
595.547,1011.3
596.079,1008.8
596.612,1013.1
597.145,1012.4
597.678,1006.9
598.21,1017.9
598.743,1017.5
599.275,1015.1
599.807,1015.5
600.34,1011.5
600.872,1017.9
601.404,1008.5
601.936,1014.7
602.468,1012.1
603.0,1016.8
603.532,1014.9
604.063,1017.7
604.595,1020.8
605.126,1015.4
605.658,1016.2
606.189,1015.6
606.721,1011.8
607.252,1012.2
607.783,1014.7
608.314,1018.1
608.845,1018.1
609.376,1024.2
609.907,1020.8
610.438,1020.9
610.968,1014.9
611.499,1020.5
612.03,1022.8
612.56,1022.7
613.091,1027.9
613.621,1027.3
614.151,1031.7
614.681,1027.6
615.212,1025.3
615.742,1029.4
616.272,1030.1
616.802,1030.6
617.332,1030.0
617.861,1030.7
618.391,1033.7
618.921,1031.3
619.45,1029.5
619.98,1032.0
620.509,1027.5
621.039,1032.7
621.568,1033.0
622.097,1027.7
622.627,1031.6
623.156,1044.1
623.685,1039.9
624.214,1033.9
624.743,1026.9
625.272,1028.3
625.801,1035.8
626.33,1027.6
626.858,1038.5
627.387,1029.4
627.916,1040.3
628.444,1096.2
628.973,1085.0
629.501,1087.9
630.029,1083.7
630.558,1135.8
631.086,1440.5
631.614,1238.7
632.142,1138.4
632.67,1113.7
633.198,1189.7
633.726,1161.1
634.254,1084.6
634.782,1048.0
635.31,1026.0
635.838,1025.0
636.365,1024.9
636.893,1021.6
637.421,1015.9
637.948,1017.3
638.476,1016.8
639.003,1011.5
639.531,1017.5
640.058,1004.2
640.585,1017.5
641.113,1013.9
641.64,1008.5
642.167,1014.3
642.694,1009.0
643.221,1006.8
643.748,1007.2
644.275,1001.6
644.802,996.9
645.329,999.3
645.856,998.1
646.382,1000.9
646.909,1001.1
647.436,996.1
647.962,994.9
648.489,993.3
649.016,994.4
649.542,992.9
650.069,987.4
650.595,984.4
651.121,986.3
651.648,987.1
652.174,984.4
652.7,979.7
653.227,986.0
653.753,987.5
654.279,985.4
654.805,981.3
655.331,985.9
655.857,981.9
656.383,981.7
656.909,983.7
657.435,980.9
657.961,978.7
658.487,979.3
659.013,979.8
659.538,977.8
660.064,978.2
660.59,977.3
661.116,977.0
661.641,976.2
662.167,976.7
662.692,972.6
663.087,970.7