File: spectra/VLFR_02-HDPE_nobio_Raman_925cc3c8.csv
nm,Intensity
526.5,829.5
527.047,829.4
527.594,828.7
528.14,829.2
528.687,828.3
529.233,829.4
529.779,828.3
530.325,829.8
530.871,829.4
531.417,829.4
531.962,834.0
532.508,830.4
533.053,828.8
533.599,830.8
534.144,914.4
534.689,911.7
535.234,904.8
535.778,898.4
536.323,893.6
536.867,889.6
537.412,889.8
537.956,887.9
538.5,883.9
539.044,882.9
539.588,882.4
540.132,881.2
540.675,878.2
541.219,877.8
541.762,875.3
542.305,874.7
542.848,874.9
543.391,874.6
543.934,875.3
544.477,873.4
545.02,876.6
545.562,874.3
546.105,871.5
546.647,874.3
547.189,873.4
547.731,871.8
548.273,872.5
548.815,873.8
549.356,872.8
549.898,873.5
550.439,871.9
550.981,872.5
551.522,875.0
552.063,874.2
552.604,875.5
553.145,875.8
553.686,880.7
554.226,882.5
554.767,879.9
555.307,881.8
555.848,882.0
556.388,887.7
556.928,886.4
557.468,888.2
558.008,895.2
558.547,897.4
559.087,896.4
559.626,902.9
560.166,906.2
560.705,912.3
561.244,915.3
561.783,920.5
562.322,928.6
562.861,930.2
563.4,943.9
563.939,988.9
564.477,962.3
565.015,966.1
565.554,975.1
566.092,1035.0
566.63,994.0
567.168,1003.4
567.706,1014.5
568.244,1026.4
568.781,1042.4
569.319,1055.3
569.857,1075.7
570.394,1096.0
570.931,1124.3
571.468,1225.3
572.005,1188.5
572.542,1208.3
573.079,1254.7
573.616,1305.6
574.153,1357.1
574.689,1414.7
575.226,1484.1
575.762,1584.2
576.298,1723.9
576.834,1784.8
577.371,1871.3
577.907,1947.9
578.442,2074.6
578.978,2199.1
579.514,2322.5
580.049,2442.9
580.585,2582.8
581.12,2689.9
581.656,2791.5
582.191,2935.5
582.726,3035.0
583.261,3140.3
583.796,3239.7
584.331,3291.9
584.865,3328.8
585.4,3383.5
585.935,3448.0
586.469,3538.3
587.004,3606.6
587.538,3642.5
588.072,3665.8
588.606,3730.6
589.14,3751.7
589.674,3804.9
590.208,3858.8
590.742,3934.4
591.275,3987.0
591.809,4021.8
592.342,4058.3
592.876,4044.2
593.409,4056.8
593.942,4072.9
594.476,4088.2
595.009,4079.2
595.542,4101.6
596.075,4084.3
596.607,4094.3
597.14,4077.6
597.673,4040.9
598.205,4044.1
598.738,4040.8
599.27,4032.1
599.803,4007.8
600.335,3968.0
600.867,3914.1
601.399,3870.7
601.931,3839.0
602.463,3785.1
602.995,3744.8
603.527,3703.8
604.058,3651.6
604.59,3561.9
605.122,3465.8
605.653,3383.2
606.184,3294.9
606.716,3224.2
607.247,3194.3
607.778,3120.0
608.309,3089.7
608.84,3039.6
609.371,2981.0
609.902,2913.7
610.433,2866.5
610.964,2795.4
611.494,2769.2
612.025,2730.5
612.556,2715.2
613.086,2696.6
613.616,2670.3
614.147,2627.9
614.677,2601.1
615.207,2548.6
615.737,2511.7
616.267,2478.7
616.797,2467.2
617.327,2433.5
617.857,2412.4
618.387,2381.8
618.917,2359.1
619.446,2343.8
619.976,2313.6
620.505,2295.2
621.035,2274.2
621.564,2286.6
622.093,2296.4
622.623,2295.7
623.152,2273.1
623.681,2272.8
624.21,2272.5
624.739,2286.2
625.268,2293.1
625.797,2298.6
626.326,2318.7
626.855,2513.2
627.383,2799.8
627.912,2642.8
628.441,2807.7
628.969,2687.8
629.498,2623.0
630.026,2580.9
630.554,2574.0
631.083,2532.2
631.611,2502.2
632.139,2515.5
632.667,2506.1
633.195,2541.7
633.724,2550.2
634.252,2554.0
634.779,2569.4
635.307,2581.4
635.835,2604.7
636.363,2613.7
636.891,2615.1
637.418,2610.6
637.946,2625.7
638.474,2638.6
639.001,2650.2
639.529,2663.4
640.056,2657.0
640.583,2660.9
641.111,2679.1
641.638,2696.6
642.165,2717.1
642.692,2692.8
643.22,2673.8
643.747,2658.3
644.274,2670.2
644.801,2661.7
645.328,2647.4
645.854,2648.3
646.381,2631.6
646.908,2625.6
647.435,2609.4
647.962,2606.7
648.488,2603.5
649.015,2550.2
649.542,2551.0
650.068,2515.0
650.595,2480.4
651.121,2467.1
651.648,2447.2
652.174,2449.1
652.7,2408.8
653.227,2395.9
653.753,2381.1
654.279,2359.3
654.805,2341.3
655.331,2319.3
655.858,2293.3
656.384,2267.5
656.91,2258.7
657.436,2243.9
657.962,2219.7
658.488,2200.2
659.013,2173.8
659.539,2136.7
660.065,2112.4
660.591,2080.3
661.117,2055.8
661.642,2029.6
662.168,1990.9
662.694,1953.3
663.088,1935.4