File: spectra/VLFR_06-PET_bio_Raman_742b656d.csv
nm,Intensity
526.493,828.35
527.039,827.95
527.586,829.1
528.133,828.75
528.679,829.95
529.225,829.05
529.771,828.7
530.317,829.8
530.863,829.25
531.409,829.5
531.955,830.9
532.5,829.1
533.046,829.1
533.591,829.75
534.136,1017.6
534.681,941.95
535.226,938.7
535.771,935.3
536.315,900.55
536.86,884.3
537.404,883.2
537.948,895.15
538.493,891.2
539.037,874.1
539.58,871.35
540.124,876.05
540.668,877.6
541.211,877.75
541.755,875.05
542.298,875.25
542.841,877.7
543.384,882.4
543.927,882.05
544.47,880.05
545.013,878.4
545.555,882.0
546.098,881.1
546.64,881.05
547.182,884.15
547.724,887.65
548.266,886.4
548.808,887.8
549.35,890.65
549.892,890.7
550.433,893.85
550.974,896.8
551.516,900.65
552.057,899.5
552.598,893.55
553.139,889.3
553.68,888.6
554.22,889.0
554.761,888.25
555.301,889.6
555.842,892.8
556.382,893.15
556.922,896.6
557.462,899.75
558.002,897.3
558.542,897.35
559.082,897.45
559.621,897.9
560.161,898.0
560.7,900.85
561.239,898.45
561.778,903.25
562.317,901.1
562.856,901.25
563.395,903.8
563.934,903.5
564.472,905.8
565.011,908.5
565.549,911.3
566.088,913.4
566.626,910.1
567.164,909.8
567.702,913.2
568.24,911.55
568.777,913.35
569.315,914.95
569.853,918.65
570.39,919.95
570.927,924.85
571.465,929.45
572.002,925.15
572.539,921.7
573.076,922.55
573.612,919.4
574.149,923.0
574.686,922.95
575.222,926.7
575.759,925.8
576.295,927.05
576.831,928.9
577.367,931.3
577.903,927.65
578.439,929.0
578.975,930.6
579.511,934.2
580.046,932.7
580.582,935.95
581.117,934.95
581.653,941.7
582.188,988.5
582.723,952.75
583.258,973.1
583.793,942.25
584.328,941.5
584.863,945.55
585.398,944.4
585.932,967.4
586.467,957.9
587.001,944.85
587.535,946.25
588.07,945.4
588.604,947.2
589.138,943.4
589.672,948.8
590.206,946.75
590.739,947.25
591.273,947.0
591.807,949.4
592.34,946.1
592.873,950.75
593.407,947.75
593.94,949.7
594.473,947.4
595.006,949.3
595.539,951.3
596.072,948.7
596.605,950.65
597.138,950.85
597.67,952.3
598.203,953.55
598.735,953.2
599.268,958.1
599.8,957.35
600.332,956.65
600.865,956.05
601.397,955.05
601.929,956.5
602.46,955.7
602.992,956.05
603.524,960.35
604.056,958.1
604.587,960.2
605.119,955.75
605.65,957.7
606.182,953.35
606.713,957.35
607.244,952.5
607.775,955.95
608.306,954.5
608.837,958.4
609.368,957.5
609.899,954.7
610.43,957.05
610.961,955.75
611.491,959.85
612.022,957.25
612.552,957.8
613.083,959.1
613.613,960.95
614.143,957.7
614.673,961.4
615.203,961.45
615.734,961.85
616.263,959.9
616.793,962.05
617.323,962.0
617.853,961.85
618.383,962.8
618.912,959.9
619.442,962.9
619.971,960.9
620.501,960.9
621.03,967.55
621.56,962.25
622.089,964.15
622.618,966.05
623.147,967.45
623.676,967.95
624.205,967.8
624.734,968.6
625.263,970.05
625.792,970.4
626.321,970.2
626.849,970.9
627.378,971.25
627.906,972.3
628.435,974.75
628.963,974.65
629.492,977.1
630.02,974.9
630.548,977.9
631.077,981.3
631.605,988.65
632.133,990.95
632.661,987.0
633.189,984.1
633.717,982.8
634.245,986.4
634.773,987.2
635.3,987.95
635.828,989.0
636.356,995.95
636.883,996.3
637.411,990.8
637.938,992.25
638.466,989.35
638.993,993.95
639.521,994.7
640.048,996.7
640.575,999.3
641.103,1001.5
641.63,1004.3
642.157,1007.05
642.684,1011.6
643.211,1015.5
643.738,1013.75
644.265,1011.3
644.792,1012.3
645.319,1010.8
645.845,1017.65
646.372,1021.75
646.899,1033.7
647.425,1038.4
647.952,1059.8
648.479,1081.25
649.005,1118.7
649.532,1149.35
650.058,1170.4
650.585,1204.5
651.111,1242.65
651.637,1206.9
652.164,1150.1
652.69,1107.45
653.216,1082.35
653.742,1066.7
654.268,1051.7
654.794,1041.4
655.32,1031.85
655.846,1025.4
656.372,1017.1
656.898,1012.9
657.424,1011.6
657.95,1004.8
658.476,1005.7
659.002,1000.45
659.528,998.7
660.053,997.9
660.579,997.1
661.105,993.65
661.63,992.9
662.156,987.0
662.681,993.3
663.076,987.75