File: spectra/VLFR_01-LDPE_bio_Raman_3d2c4ae8.csv
nm,Intensity
526.547,833.05
527.095,832.25
527.642,832.5
528.189,832.25
528.736,833.35
529.283,832.75
529.829,832.15
530.376,831.9
530.922,832.3
531.468,832.2
532.014,840.6
532.56,833.45
533.106,832.85
533.651,833.0
534.196,909.65
534.742,898.45
535.287,882.6
535.832,874.9
536.376,870.55
536.921,866.2
537.465,865.75
538.01,865.9
538.554,863.65
539.098,861.8
539.642,859.2
540.186,856.8
540.729,854.8
541.273,856.5
541.816,853.9
542.36,855.0
542.903,852.55
543.446,853.95
543.988,853.25
544.531,853.3
545.074,851.85
545.616,852.1
546.158,851.2
546.701,853.5
547.243,851.15
547.785,853.3
548.326,849.4
548.868,851.9
549.41,850.9
549.951,852.35
550.492,851.1
551.034,850.6
551.575,850.3
552.116,851.1
552.656,850.95
553.197,854.85
553.738,855.25
554.278,855.55
554.819,856.9
555.359,856.5
555.899,858.25
556.439,860.7
556.979,863.4
557.519,862.55
558.058,867.75
558.598,866.5
559.137,866.9
559.677,865.9
560.216,865.3
560.755,866.8
561.294,868.2
561.833,869.6
562.371,871.7
562.91,877.05
563.449,883.45
563.987,939.55
564.525,900.15
565.064,896.9
565.602,894.85
566.14,949.5
566.678,900.45
567.216,897.0
567.753,900.4
568.291,899.35
568.828,905.35
569.366,909.5
569.903,915.4
570.44,925.25
570.977,933.8
571.514,1040.45
572.051,973.35
572.588,962.25
573.125,961.6
573.661,978.05
574.198,995.3
574.734,1003.4
575.271,1020.55
575.807,1070.95
576.343,1177.3
576.879,1163.2
577.415,1153.7
577.951,1158.1
578.486,1188.35
579.022,1233.55
579.557,1273.75
580.093,1318.95
580.628,1368.85
581.164,1407.5
581.699,1448.95
582.234,1493.35
582.769,1534.35
583.304,1575.4
583.838,1605.55
584.373,1634.1
584.908,1660.25
585.442,1689.1
585.977,1719.8
586.511,1757.25
587.045,1793.4
587.58,1833.7
588.114,1872.2
588.648,1896.15
589.182,1940.65
589.715,1989.3
590.249,2033.65
590.783,2072.8
591.316,2116.1
591.85,2139.5
592.383,2156.5
592.917,2175.75
593.45,2186.85
593.983,2201.75
594.516,2224.8
595.049,2256.25
595.582,2276.1
596.115,2315.9
596.648,2336.5
597.18,2370.3
597.713,2421.55
598.245,2465.35
598.778,2520.55
599.31,2545.2
599.842,2567.05
600.375,2566.65
600.907,2566.6
601.439,2560.5
601.971,2532.4
602.503,2512.5
603.034,2480.1
603.566,2438.55
604.098,2370.55
604.629,2303.4
605.161,2234.0
605.692,2148.6
606.224,2084.3
606.755,2039.25
607.286,1984.6
607.817,1951.45
608.348,1897.75
608.879,1872.7
609.41,1831.25
609.941,1798.9
610.472,1762.05
611.002,1743.8
611.533,1717.75
612.063,1691.0
612.594,1681.55
613.124,1673.9
613.655,1649.65
614.185,1628.8
614.715,1609.3
615.245,1582.0
615.775,1561.45
616.305,1549.2
616.835,1535.7
617.365,1528.5
617.895,1511.7
618.425,1500.3
618.954,1479.45
619.484,1479.55
620.013,1464.35
620.543,1459.65
621.072,1458.45
621.602,1465.6
622.131,1485.25
622.66,1477.3
623.189,1456.65
623.718,1438.0
624.247,1445.4
624.776,1441.5
625.305,1441.65
625.834,1446.9
626.363,1481.0
626.891,1744.25
627.42,2104.2
627.949,1848.85
628.477,2135.5
629.006,1923.1
629.534,1824.15
630.062,1735.5
630.591,1723.75
631.119,1601.35
631.647,1552.95
632.175,1521.6
632.703,1529.35
633.231,1532.45
633.759,1534.1
634.287,1537.4
634.815,1550.65
635.343,1550.25
635.871,1556.25
636.398,1566.6
636.926,1567.1
637.454,1564.95
637.981,1581.3
638.509,1587.15
639.036,1599.45
639.564,1593.9
640.091,1607.4
640.618,1605.1
641.146,1618.25
641.673,1638.65
642.2,1639.4
642.727,1645.15
643.254,1651.8
643.781,1649.1
644.308,1662.85
644.835,1662.3
645.362,1665.95
645.889,1669.9
646.416,1667.1
646.942,1673.65
647.469,1671.2
647.996,1676.55
648.522,1671.9
649.049,1661.9
649.576,1664.9
650.102,1664.8
650.629,1657.9
651.155,1659.8
651.682,1667.25
652.208,1675.65
652.734,1678.45
653.261,1672.05
653.787,1675.2
654.313,1682.8
654.839,1669.6
655.365,1670.35
655.892,1655.05
656.418,1648.7
656.944,1637.35
657.47,1615.8
657.996,1604.4
658.522,1584.5
659.048,1557.65
659.574,1541.75
660.099,1522.15
660.625,1493.1
661.151,1461.3
661.677,1430.15
662.203,1409.8
662.728,1389.05
663.123,1369.55