File: spectra/VLFR_08-PLA_nobio_Raman_c17bacbe.csv
nm,Intensity
526.486,830.0
527.033,830.7
527.579,830.1
528.126,830.6
528.672,830.4
529.219,829.7
529.765,831.0
530.311,829.5
530.857,828.9
531.403,831.4
531.948,834.5
532.494,832.6
533.039,829.5
533.585,831.4
534.13,1054.3
534.675,1015.7
535.22,983.2
535.764,963.9
536.309,956.4
536.854,959.3
537.398,952.4
537.942,954.3
538.486,940.9
539.03,939.2
539.574,939.0
540.118,933.9
540.662,950.9
541.205,954.6
541.749,947.3
542.292,942.1
542.835,942.5
543.378,963.1
543.921,972.1
544.464,958.9
545.006,949.5
545.549,946.1
546.091,948.3
546.634,944.3
547.176,952.0
547.718,945.3
548.26,950.1
548.802,953.9
549.343,953.4
549.885,951.6
550.426,955.9
550.968,961.1
551.509,961.4
552.05,964.3
552.591,968.7
553.132,971.1
553.673,968.3
554.214,981.4
554.754,967.7
555.295,965.1
555.835,965.9
556.375,963.9
556.915,963.6
557.455,977.4
557.995,1084.0
558.535,1001.1
559.075,980.0
559.614,977.9
560.154,978.7
560.693,978.3
561.232,970.1
561.772,968.7
562.311,977.5
562.85,984.6
563.388,1016.2
563.927,1000.0
564.466,989.0
565.004,1006.7
565.543,1007.5
566.081,1034.1
566.619,1006.1
567.157,984.2
567.695,990.4
568.233,997.5
568.771,1000.5
569.309,1000.4
569.846,994.9
570.384,1002.0
570.921,996.5
571.458,1014.8
571.995,1021.9
572.532,1018.0
573.069,1014.3
573.606,1022.9
574.143,1014.1
574.68,1030.2
575.216,1001.7
575.753,1011.0
576.289,1020.2
576.825,1085.9
577.361,1036.5
577.897,1005.5
578.433,1009.6
578.969,1013.0
579.505,1013.5
580.041,1012.6
580.576,1008.9
581.112,1009.9
581.647,1012.8
582.183,1010.9
582.718,1012.3
583.253,1016.1
583.788,1016.3
584.323,1017.8
584.858,1018.2
585.392,1015.1
585.927,1023.2
586.462,1030.2
586.996,1065.2
587.53,1087.2
588.065,1043.7
588.599,1021.4
589.133,1019.1
589.667,1021.1
590.201,1024.7
590.735,1021.2
591.268,1022.9
591.802,1018.3
592.335,1026.5
592.869,1018.8
593.402,1023.5
593.936,1021.8
594.469,1021.3
595.002,1025.2
595.535,1028.0
596.068,1026.8
596.601,1026.9
597.133,1026.3
597.666,1027.4
598.199,1023.9
598.731,1023.8
599.264,1031.9
599.796,1032.1
600.328,1030.4
600.86,1036.7
601.393,1031.7
601.925,1027.6
602.457,1036.1
602.988,1034.0
603.52,1032.8
604.052,1034.2
604.583,1039.9
605.115,1037.7
605.646,1032.7
606.178,1029.5
606.709,1028.1
607.24,1030.4
607.771,1036.3
608.302,1038.1
608.833,1038.0
609.364,1035.2
609.895,1037.6
610.426,1042.1
610.957,1042.5
611.487,1041.9
612.018,1046.2
612.548,1046.6
613.078,1050.0
613.609,1051.7
614.139,1055.1
614.669,1053.0
615.199,1053.5
615.729,1055.3
616.259,1050.3
616.789,1053.0
617.319,1059.9
617.849,1049.9
618.378,1056.1
618.908,1060.0
619.437,1053.1
619.967,1057.6
620.496,1054.3
621.025,1055.4
621.555,1054.1
622.084,1053.9
622.613,1064.6
623.142,1065.8
623.671,1069.8
624.2,1055.0
624.729,1059.1
625.258,1058.5
625.786,1058.5
626.315,1052.4
626.844,1053.2
627.372,1056.8
627.901,1063.2
628.429,1130.0
628.957,1122.7
629.486,1121.6
630.014,1129.1
630.542,1168.4
631.07,1559.5
631.598,1330.9
632.126,1176.7
632.654,1166.2
633.182,1252.4
633.71,1214.9
634.237,1126.1
634.765,1061.2
635.293,1052.6
635.82,1045.1
636.348,1038.0
636.875,1038.6
637.403,1035.7
637.93,1034.1
638.458,1030.0
638.985,1027.7
639.512,1028.2
640.039,1030.1
640.566,1028.0
641.093,1032.0
641.62,1032.8
642.147,1029.7
642.674,1018.0
643.201,1019.3
643.728,1018.2
644.255,1017.6
644.781,1011.5
645.308,1011.3
645.835,1007.1
646.361,1006.6
646.888,1008.5
647.414,1006.7
647.941,1009.1
648.467,1004.4
648.993,998.8
649.52,997.0
650.046,996.9
650.572,993.6
651.098,993.8
651.625,996.2
652.151,995.9
652.677,993.2
653.203,991.2
653.729,992.1
654.255,989.1
654.78,988.7
655.306,987.9
655.832,983.7
656.358,988.2
656.884,986.4
657.409,989.8
657.935,984.8
658.461,988.4
658.986,978.6
659.512,980.1
660.037,986.6
660.563,980.9
661.088,973.5
661.614,977.0
662.139,971.9
662.664,973.0
663.058,975.0