File: spectra/VLFR_08-PLA_bio_Raman_2e1839c6.csv
nm,Intensity
528.626,1864.8
529.132,1864.5
529.637,1865.7
530.143,1863.3
530.648,1863.8
531.153,1867.7
531.658,1911.9
532.164,4559.2
532.669,1868.1
533.174,1867.6
533.679,2259.9
534.184,3392.4
534.689,3073.7
535.194,2852.8
535.699,2668.8
536.203,2590.0
536.708,2585.0
537.213,2493.1
537.717,2505.0
538.222,2404.6
538.726,2339.7
539.231,2329.1
539.735,2229.2
540.239,2300.2
540.744,2424.3
541.248,2411.0
541.752,2311.8
542.256,2244.3
542.76,2300.5
543.264,2474.9
543.768,2651.8
544.272,2428.9
544.776,2241.3
545.28,2204.3
545.784,2177.0
546.287,2175.7
546.791,2200.1
547.294,2211.5
547.798,2193.7
548.301,2206.1
548.805,2213.4
549.308,2221.1
549.811,2214.9
550.315,2225.3
550.818,2243.3
551.321,2280.7
551.824,2307.8
552.327,2316.7
552.83,2304.5
553.333,2267.9
553.835,2350.3
554.338,2318.6
554.841,2262.4
555.343,2191.9
555.846,2182.3
556.349,2188.8
556.851,2214.8
557.353,2402.9
557.856,3440.2
558.358,3074.7
558.86,2406.5
559.362,2352.9
559.864,2303.6
560.366,2267.7
560.868,2249.9
561.37,2215.2
561.872,2224.0
562.374,2249.0
562.876,2388.0
563.377,2708.2
563.879,2484.3
564.38,2356.0
564.882,2529.0
565.383,2569.2
565.885,2785.3
566.386,2718.0
566.887,2306.6
567.388,2279.0
567.889,2390.7
568.391,2320.6
568.892,2341.5
569.392,2299.1
569.893,2275.0
570.394,2297.8
570.895,2331.0
571.395,2542.9
571.896,2570.3
572.397,2463.3
572.897,2454.5
573.397,2497.2
573.898,2473.0
574.398,2543.1
574.898,2373.8
575.398,2299.1
575.898,2316.1
576.398,2781.1
576.898,3198.6
577.398,2489.0
577.898,2314.2
578.398,2286.8
578.897,2270.8
579.397,2262.9
579.896,2265.7
580.396,2257.0
580.895,2261.7
581.395,2269.2
581.894,2255.3
582.393,2271.6
582.892,2283.3
583.391,2273.4
583.89,2268.3
584.389,2295.1
584.888,2286.2
585.387,2274.1
585.886,2290.9
586.384,2399.1
586.883,2796.3
587.381,3070.8
587.88,2744.3
588.378,2341.6
588.876,2285.4
589.375,2275.4
589.873,2266.6
590.371,2263.3
590.869,2262.1
591.367,2260.7
591.865,2274.6
592.363,2275.4
592.86,2266.4
593.358,2247.0
593.856,2257.2
594.353,2253.5
594.851,2259.5
595.348,2261.2
595.845,2260.7
596.342,2235.5
596.84,2259.2
597.337,2254.2
597.834,2261.9
598.331,2261.6
598.828,2273.3
599.324,2278.8
599.821,2264.3
600.318,2268.7
600.814,2277.3
601.311,2253.7
601.807,2275.4
602.304,2260.7
602.8,2263.0
603.296,2266.1
603.792,2261.9
604.288,2266.2
604.784,2263.8
605.28,2267.7
605.776,2255.6
606.272,2252.1
606.767,2273.8
607.263,2267.9
607.759,2280.9
608.254,2275.6
608.749,2277.9
609.245,2266.7
609.74,2272.8
610.235,2268.9
610.73,2273.1
611.225,2273.2
611.72,2265.3
612.215,2254.1
612.71,2280.0
613.204,2276.3
613.699,2250.8
614.194,2264.5
614.688,2264.2
615.182,2268.2
615.677,2282.6
616.171,2284.3
616.665,2273.2
617.159,2284.8
617.653,2285.8
618.147,2259.4
618.641,2260.0
619.135,2252.6
619.628,2265.1
620.122,2280.6
620.615,2272.6
621.109,2269.4
621.602,2275.3
622.095,2294.7
622.589,2382.0
623.082,2432.8
623.575,2370.7
624.068,2327.0
624.561,2292.9
625.053,2270.2
625.546,2273.4
626.039,2275.0
626.531,2267.0
627.024,2287.0
627.516,2322.3
628.008,2560.2
628.501,3135.6
628.993,2931.7
629.485,2968.6
629.977,2973.5
630.469,3674.0
630.96,7017.2
631.452,5394.7
631.944,3764.3
632.435,3406.2
632.927,3996.1
633.418,4259.6
633.91,3508.5
634.401,2714.3
634.892,2410.8
635.383,2306.3
635.874,2280.4
636.365,2234.5
636.856,2239.4
637.346,2220.7
637.837,2197.2
638.327,2196.2
638.818,2199.4
639.308,2205.0
639.799,2192.3
640.289,2194.5
640.779,2192.1
641.269,2199.6
641.759,2184.4
642.249,2206.9
642.738,2182.0
643.228,2171.5
643.718,2179.8
644.207,2160.1
644.697,2143.8
645.186,2149.5
645.675,2143.0
646.164,2140.3
646.653,2128.1
647.142,2127.6
647.631,2131.7
648.12,2119.9
648.609,2114.5
649.098,2112.5
649.586,2109.7
650.075,2096.3
650.563,2107.7
651.051,2107.1
651.539,2097.1
652.027,2104.5
652.515,2100.7
653.003,2092.9
653.491,2087.6
653.979,2080.5
654.467,2077.1
654.954,2075.7
655.442,2079.4
655.929,2081.6
656.416,2073.4
656.904,2082.6
657.391,2071.6
657.878,2074.4
658.365,2060.5
658.851,2062.4
659.338,2044.5
659.825,2042.3
660.311,2043.9
660.798,2052.3
661.041,2047.5