File: spectra/VLFR_07-PET_bio_Raman_c6ef1ae7.csv
nm,Intensity
791.588,10990.0
792.685,10571.5
793.781,10314.3
794.878,10128.0
795.975,10047.9
797.071,10070.7
798.168,10092.5
799.264,10175.9
800.36,10059.5
801.456,10097.0
802.552,9961.9
803.648,9827.7
804.744,9855.0
805.84,9814.0
806.936,9816.6
808.031,9703.0
809.127,9623.0
810.222,9604.5
811.317,9555.7
812.412,9441.3
813.507,9319.5
814.602,9335.1
815.697,9144.6
816.792,8999.6
817.887,9141.6
818.981,8929.8
820.076,8867.0
821.17,8771.3
822.265,8542.0
823.359,8494.8
824.453,8448.2
825.547,8482.4
826.641,8396.9
827.735,8239.8
828.828,8229.1
829.922,8082.5
831.016,8160.4
832.109,8005.8
833.202,7939.1
834.295,7755.5
835.388,7742.1
836.481,7692.0
837.574,7823.8
838.667,7755.1
839.76,7646.0
840.852,7726.2
841.945,7792.3
843.037,7567.5
844.129,7557.4
845.221,7356.0
846.314,7338.4
847.405,7279.0
848.497,7235.1
849.589,7164.2
850.68,7196.4
851.772,7128.8
852.863,7078.5
853.955,7045.8
855.046,6966.9
856.137,6967.6
857.228,6881.8
858.318,6928.7
859.409,6911.2
860.5,6955.0
861.59,6769.8
862.681,6774.4
863.771,6706.5
864.861,6673.0
865.951,6564.8
867.041,6464.4
868.131,6468.7
869.22,6479.1
870.31,6467.9
871.399,6528.4
872.488,6604.2
873.578,6575.4
874.667,6454.0
875.756,6313.8
876.845,6260.0
877.933,6180.2
879.022,6148.3
880.11,6128.8
881.199,6101.2
882.287,6077.8
883.375,6104.1
884.463,6057.7
885.551,6036.0
886.639,5956.6
887.726,5859.0
888.814,5867.5
889.901,5826.9
890.988,5795.9
892.075,5799.4
893.162,5710.7
894.249,5690.6
895.336,5630.3
896.423,5591.4
897.509,5716.8
898.595,5940.9
899.682,5707.1
900.768,5444.4
901.854,5437.1
902.94,5361.9
904.025,5393.9
905.111,5395.6
906.196,5415.9
907.282,5523.7
908.367,5570.1
909.452,5341.7
910.537,5202.1
911.622,5146.8
912.706,5090.3
913.791,5074.2
914.875,4995.1
915.959,5027.0
917.044,4950.2
918.128,4966.6
919.211,4920.8
920.295,4876.5
921.379,4846.1
922.462,4829.2
923.546,4790.7
924.629,4788.5
925.712,4736.6
926.795,4703.6
927.877,4673.9
928.96,4626.8
930.043,4630.9
931.125,4601.8
932.207,4563.3
933.289,4524.4
934.371,4473.7
935.453,4478.5
936.535,4451.7
937.616,4426.4
938.697,4397.4
939.779,4402.3
940.86,4384.3
941.941,4356.7
943.022,4329.1
944.102,4311.9
945.183,4297.1
946.263,4273.0
947.343,4254.3
948.423,4251.1
949.503,4240.1
950.583,4211.3
951.663,4182.0
952.742,4175.6
953.822,4156.0
954.901,4161.4
955.98,4151.6
957.059,4117.0
958.137,4109.1
959.216,4107.8
960.294,4096.8
961.373,4067.1
962.451,4065.5
963.529,4040.2
964.607,4047.2
965.684,4042.5
966.762,4022.9
967.839,4004.4
968.917,4019.5
969.994,3995.6
971.071,3977.6
972.147,3976.7
973.224,3977.9
974.3,3966.0
975.377,3947.0
976.453,3945.8
977.529,3935.8
978.605,3938.8
979.68,3925.9
980.756,3920.6
981.831,3914.4
982.907,3908.3
983.982,3901.5
985.057,3896.0
986.131,3890.5
987.206,3883.1
988.28,3877.9
989.355,3875.8
990.429,3860.8
991.503,3864.8
992.576,3859.4
993.65,3857.5
994.723,3849.0
995.797,3847.6
996.87,3845.1
997.943,3839.4
999.016,3834.0
1000.09,3828.6
1001.16,3826.4
1002.23,3820.7
1003.31,3816.7
1004.38,3819.1
1005.45,3814.2
1006.52,3810.6
1007.59,3803.0
1008.66,3797.2
1009.73,3798.4
1010.81,3792.9
1011.88,3794.0
1012.95,3790.7
1014.02,3793.6
1015.09,3787.3
1016.16,3783.9
1017.23,3778.9
1018.3,3781.7
1019.37,3779.8
1020.44,3778.3
1021.51,3777.7
1022.58,3776.0
1023.64,3775.7
1024.71,3774.2
1025.78,3770.8
1026.85,3766.3
1027.92,3766.1
1028.99,3759.8
1030.05,3760.3
1031.12,3757.0
1032.19,3756.4
1033.26,3758.9
1034.32,3759.9
1035.39,3757.9
1036.46,3752.8
1037.52,3752.6
1038.59,3752.6
1039.66,3750.2
1040.72,3745.3
1041.79,3745.6
1042.86,3747.0
1043.92,3746.3
1044.99,3741.9
1046.05,3742.5
1047.12,3745.0
1048.18,3742.8
1049.25,3743.0
1050.31,3740.9
1051.37,3741.7
1052.44,3741.5
1053.5,3738.3
1054.57,3739.2
1055.63,3741.0
1056.69,3741.7
1057.76,3738.7
1058.82,3738.5
1059.88,3740.0
1060.95,3737.5
1062.01,3738.1
1063.07,3737.0
1064.13,3736.7
1065.19,3738.1
1066.26,3736.4
1067.32,3736.5
1068.11,3734.9