File: spectra/VLFR_01-LDPE_nobio_Raman_c6b1929c.csv
nm,Intensity
526.547,832.8
527.094,832.8
527.641,832.8
528.188,832.2
528.734,831.9
529.281,832.4
529.827,832.8
530.373,833.3
530.92,831.5
531.466,832.3
532.011,837.6
532.557,833.6
533.103,833.8
533.648,835.2
534.193,956.3
534.738,942.3
535.283,921.0
535.828,902.5
536.373,891.7
536.917,890.6
537.462,888.1
538.006,886.5
538.55,883.4
539.094,879.0
539.638,873.1
540.182,872.9
540.726,868.7
541.269,869.9
541.812,868.9
542.356,868.6
542.899,869.5
543.442,866.9
543.985,867.0
544.527,867.3
545.07,867.2
545.612,864.3
546.155,867.7
546.697,863.8
547.239,864.1
547.781,866.6
548.323,863.6
548.865,865.5
549.406,863.7
549.948,864.5
550.489,861.3
551.03,865.2
551.572,865.9
552.113,867.0
552.654,867.4
553.194,870.1
553.735,874.2
554.276,871.7
554.816,875.3
555.356,874.6
555.896,876.4
556.437,879.8
556.977,880.7
557.516,888.4
558.056,889.1
558.596,891.9
559.135,891.4
559.675,891.7
560.214,890.3
560.753,891.0
561.292,896.5
561.831,898.1
562.37,900.7
562.909,910.4
563.448,916.7
563.986,1007.7
564.525,948.3
565.063,944.3
565.601,938.8
566.139,1044.5
566.677,949.8
567.215,945.7
567.753,947.3
568.291,954.9
568.828,961.1
569.366,973.0
569.903,980.4
570.441,995.8
570.978,1015.5
571.515,1183.8
572.052,1074.0
572.589,1064.0
573.126,1076.0
573.662,1090.6
574.199,1120.9
574.735,1143.2
575.272,1187.1
575.808,1272.3
576.344,1432.3
576.88,1416.1
577.416,1414.9
577.952,1444.2
578.488,1497.4
579.024,1558.1
579.559,1629.8
580.095,1706.9
580.63,1790.1
581.166,1852.3
581.701,1934.0
582.236,2011.4
582.771,2081.5
583.306,2157.8
583.841,2232.0
584.376,2293.2
584.911,2385.3
585.445,2458.9
585.98,2531.0
586.514,2640.5
587.048,2757.7
587.583,2860.1
588.117,2956.7
588.651,3064.3
589.185,3161.4
589.719,3280.7
590.253,3383.2
590.786,3468.8
591.32,3563.3
591.853,3631.6
592.387,3672.2
592.92,3708.4
593.454,3735.6
593.987,3750.4
594.52,3801.2
595.053,3818.5
595.586,3832.8
596.119,3894.5
596.651,3935.2
597.184,3981.2
597.717,4036.1
598.249,4130.5
598.782,4159.8
599.314,4246.3
599.846,4252.8
600.379,4261.7
600.911,4254.6
601.443,4197.9
601.975,4159.0
602.507,4092.8
603.038,4036.5
603.57,3952.5
604.102,3820.8
604.633,3704.0
605.165,3550.3
605.696,3372.9
606.228,3270.2
606.759,3141.5
607.29,3055.1
607.821,2963.7
608.352,2887.4
608.883,2818.0
609.414,2748.8
609.945,2653.5
610.476,2600.4
611.006,2537.9
611.537,2507.8
612.067,2475.8
612.598,2434.4
613.128,2416.8
613.659,2372.7
614.189,2336.4
614.719,2303.9
615.249,2231.7
615.779,2196.1
616.309,2141.3
616.839,2129.9
617.369,2116.2
617.899,2066.9
618.428,2042.5
618.958,2019.3
619.487,1987.9
620.017,1975.0
620.546,1949.9
621.076,1934.2
621.605,1935.3
622.134,1951.2
622.663,1920.6
623.193,1884.9
623.722,1883.6
624.251,1860.4
624.78,1856.1
625.308,1849.5
625.837,1840.9
626.366,1882.4
626.895,2215.2
627.423,2684.1
627.952,2342.5
628.48,2714.8
629.009,2389.7
629.537,2265.8
630.065,2164.1
630.594,2138.4
631.122,1961.2
631.65,1889.9
632.178,1887.8
632.706,1871.5
633.234,1890.8
633.762,1887.0
634.29,1886.1
634.818,1904.1
635.346,1912.2
635.873,1930.2
636.401,1945.8
636.929,1946.0
637.456,1958.1
637.984,1973.1
638.511,1983.8
639.039,2011.9
639.566,2034.2
640.093,2029.4
640.62,2059.1
641.148,2074.7
641.675,2093.7
642.202,2106.1
642.729,2119.3
643.256,2127.5
643.783,2120.5
644.31,2128.6
644.837,2140.8
645.364,2126.4
645.891,2144.2
646.417,2155.0
646.944,2142.7
647.471,2149.5
647.997,2145.5
648.524,2119.8
649.051,2114.5
649.577,2111.9
650.104,2119.7
650.63,2087.6
651.157,2098.3
651.683,2087.9
652.209,2099.5
652.736,2107.6
653.262,2110.7
653.788,2099.1
654.314,2081.2
654.84,2066.3
655.366,2056.2
655.893,2041.8
656.419,2019.3
656.945,2001.6
657.471,1969.1
657.997,1940.0
658.522,1909.2
659.048,1883.0
659.574,1857.4
660.1,1809.1
660.626,1773.1
661.152,1722.8
661.677,1676.5
662.203,1658.6
662.729,1614.5
663.123,1585.8