File: spectra/VLFR_02-HDPE_nobio_Raman_2e410ac8.csv
nm,Intensity
526.5,830.6
527.047,828.5
527.594,829.6
528.14,830.0
528.687,829.0
529.233,829.2
529.779,828.1
530.325,827.8
530.871,829.5
531.417,829.9
531.962,836.4
532.508,830.3
533.053,830.1
533.599,828.6
534.144,901.7
534.689,886.8
535.234,879.6
535.778,864.4
536.323,857.1
536.867,856.2
537.412,856.1
537.956,854.2
538.5,849.1
539.044,845.1
539.588,844.3
540.132,842.9
540.675,842.7
541.219,842.8
541.762,841.2
542.305,842.1
542.848,840.2
543.391,838.1
543.934,839.7
544.477,839.9
545.02,838.8
545.562,839.2
546.105,839.9
546.647,838.3
547.189,839.9
547.731,839.2
548.273,837.2
548.815,838.6
549.356,839.5
549.898,838.7
550.439,837.8
550.981,838.3
551.522,839.0
552.063,839.2
552.604,838.8
553.145,839.6
553.686,840.9
554.226,843.4
554.767,843.7
555.307,844.8
555.848,845.6
556.388,846.0
556.928,847.0
557.468,848.6
558.008,853.5
558.547,854.5
559.087,850.7
559.626,849.7
560.166,848.7
560.705,849.2
561.244,849.1
561.783,848.8
562.322,854.1
562.861,856.3
563.4,857.5
563.939,955.5
564.477,884.5
565.015,876.2
565.554,872.0
566.092,1061.5
566.63,875.6
567.168,860.7
567.706,857.4
568.244,852.6
568.781,854.1
569.319,855.4
569.857,856.5
570.394,859.6
570.931,867.1
571.468,1029.1
572.005,885.7
572.542,863.3
573.079,856.3
573.616,858.9
574.153,867.8
574.689,852.7
575.226,869.7
575.762,973.8
576.298,981.7
576.834,935.4
577.371,905.0
577.907,865.8
578.442,864.9
578.978,865.0
579.514,864.2
580.049,863.5
580.585,865.2
581.12,868.4
581.656,866.4
582.191,868.5
582.726,871.0
583.261,874.4
583.796,876.5
584.331,877.1
584.865,882.1
585.4,882.1
585.935,883.3
586.469,886.9
587.004,891.0
587.538,892.4
588.072,891.4
588.606,892.6
589.14,890.0
589.674,894.6
590.208,895.4
590.742,894.7
591.275,893.9
591.809,892.5
592.342,892.9
592.876,893.2
593.409,893.7
593.942,890.5
594.476,889.3
595.009,887.5
595.542,889.8
596.075,885.6
596.607,891.1
597.14,889.2
597.673,887.2
598.205,888.2
598.738,891.8
599.27,888.7
599.803,895.8
600.335,890.8
600.867,891.8
601.399,891.6
601.931,893.3
602.463,888.6
602.995,893.1
603.527,889.8
604.058,893.0
604.59,890.0
605.122,890.3
605.653,888.6
606.184,886.7
606.716,887.9
607.247,887.4
607.778,889.1
608.309,888.0
608.84,889.2
609.371,892.0
609.902,890.1
610.433,888.0
610.964,892.5
611.494,889.6
612.025,886.3
612.556,886.1
613.086,886.6
613.616,885.9
614.147,884.0
614.677,882.2
615.207,883.5
615.737,879.5
616.267,882.3
616.797,882.8
617.327,889.6
617.857,887.5
618.387,885.0
618.917,883.9
619.446,887.0
619.976,888.8
620.505,888.7
621.035,890.0
621.564,898.1
622.093,917.1
622.623,912.1
623.152,890.5
623.681,885.4
624.21,882.5
624.739,881.5
625.268,885.6
625.797,895.5
626.326,915.5
626.855,1112.2
627.383,1516.7
627.912,1243.2
628.441,1380.8
628.969,1318.0
629.498,1215.5
630.026,1112.8
630.554,1094.9
631.083,972.9
631.611,907.3
632.139,890.5
632.667,881.8
633.195,879.9
633.724,877.0
634.252,873.3
634.779,869.9
635.307,871.1
635.835,873.3
636.363,869.4
636.891,870.6
637.418,867.2
637.946,864.9
638.474,865.1
639.001,865.2
639.529,862.6
640.056,865.2
640.583,861.5
641.111,866.6
641.638,864.2
642.165,862.6
642.692,861.2
643.22,862.4
643.747,863.8
644.274,861.1
644.801,860.4
645.328,861.3
645.854,860.2
646.381,858.5
646.908,857.6
647.435,859.3
647.962,858.5
648.488,859.1
649.015,856.5
649.542,859.1
650.068,858.9
650.595,855.8
651.121,854.5
651.648,856.6
652.174,856.8
652.7,856.8
653.227,856.4
653.753,858.3
654.279,857.2
654.805,857.9
655.331,855.1
655.858,855.9
656.384,857.4
656.91,855.5
657.436,852.2
657.962,857.6
658.488,855.2
659.013,853.1
659.539,856.8
660.065,856.2
660.591,855.6
661.117,853.1
661.642,853.8
662.168,852.1
662.694,856.1
663.088,852.2