File: spectra/VLFR_06-PET_nobio_Raman_8e9b2948.csv
nm,Intensity
526.5,829.5
527.047,829.5
527.594,829.2
528.14,829.2
528.687,828.8
529.233,830.4
529.779,829.3
530.325,828.3
530.871,830.0
531.417,829.6
531.962,836.8
532.508,831.0
533.053,828.6
533.599,836.5
534.144,1511.1
534.689,1317.4
535.234,1139.6
535.778,1032.6
536.323,967.4
536.867,936.6
537.412,928.6
537.956,923.8
538.5,926.8
539.044,928.1
539.588,937.1
540.132,938.7
540.675,918.7
541.219,914.5
541.762,909.9
542.305,912.4
542.848,915.6
543.391,916.3
543.934,921.4
544.477,918.7
545.02,918.7
545.562,922.6
546.105,920.9
546.647,923.8
547.189,924.2
547.731,924.5
548.273,924.4
548.815,928.2
549.356,928.3
549.898,933.0
550.439,936.3
550.981,944.2
551.522,933.6
552.063,935.8
552.604,945.2
553.145,953.5
553.686,941.7
554.226,947.1
554.767,945.8
555.307,956.0
555.848,978.0
556.388,979.5
556.928,985.8
557.468,1068.5
558.008,1004.4
558.547,999.2
559.087,975.8
559.626,961.5
560.166,964.2
560.705,969.7
561.244,971.5
561.783,972.5
562.322,978.7
562.861,989.7
563.4,996.6
563.939,986.5
564.477,992.6
565.015,1018.5
565.554,1054.7
566.092,1056.7
566.63,1012.6
567.168,996.5
567.706,1037.8
568.244,1003.9
568.781,1009.1
569.319,1011.2
569.857,1024.8
570.394,1046.7
570.931,1118.2
571.468,1180.3
572.005,1088.5
572.542,1040.1
573.079,1028.1
573.616,1031.4
574.153,1049.4
574.689,1042.8
575.226,1061.2
575.762,1044.1
576.298,1064.0
576.834,1071.7
577.371,1052.2
577.907,1050.9
578.442,1053.3
578.978,1058.9
579.514,1057.2
580.049,1066.4
580.585,1070.2
581.12,1085.0
581.656,1126.4
582.191,1748.6
582.726,1110.6
583.261,1088.3
583.796,1087.1
584.331,1090.2
584.865,1097.9
585.4,1154.9
585.935,1428.4
586.469,1291.9
587.004,1126.7
587.538,1107.8
588.072,1099.2
588.606,1105.7
589.14,1100.0
589.674,1098.8
590.208,1102.1
590.742,1103.3
591.275,1107.9
591.809,1114.6
592.342,1107.1
592.876,1110.0
593.409,1116.7
593.942,1109.5
594.476,1118.4
595.009,1115.3
595.542,1125.6
596.075,1119.4
596.607,1116.8
597.14,1124.7
597.673,1128.8
598.205,1128.5
598.738,1132.5
599.27,1130.8
599.803,1134.5
600.335,1127.8
600.867,1133.8
601.399,1136.1
601.931,1134.0
602.463,1137.5
602.995,1143.6
603.527,1143.0
604.058,1137.4
604.59,1142.2
605.122,1142.4
605.653,1135.6
606.184,1134.0
606.716,1137.9
607.247,1139.6
607.778,1144.7
608.309,1144.7
608.84,1135.1
609.371,1144.2
609.902,1142.5
610.433,1135.9
610.964,1144.9
611.494,1148.6
612.025,1149.2
612.556,1151.1
613.086,1158.9
613.616,1162.1
614.147,1161.4
614.677,1159.9
615.207,1165.2
615.737,1158.8
616.267,1165.8
616.797,1163.7
617.327,1168.6
617.857,1174.6
618.387,1172.3
618.917,1177.0
619.446,1171.1
619.976,1165.7
620.505,1171.3
621.035,1170.5
621.564,1171.9
622.093,1178.9
622.623,1180.2
623.152,1183.6
623.681,1188.2
624.21,1195.5
624.739,1203.5
625.268,1194.9
625.797,1194.2
626.326,1198.0
626.855,1203.7
627.383,1207.0
627.912,1209.7
628.441,1219.6
628.969,1238.5
629.498,1232.4
630.026,1227.8
630.554,1240.6
631.083,1273.0
631.611,1330.7
632.139,1316.7
632.667,1290.1
633.195,1288.3
633.724,1276.0
634.252,1253.8
634.779,1262.2
635.307,1266.6
635.835,1294.4
636.363,1362.8
636.891,1353.1
637.418,1294.4
637.946,1279.5
638.474,1272.2
639.001,1271.0
639.529,1281.3
640.056,1289.1
640.583,1284.3
641.111,1285.5
641.638,1288.8
642.165,1299.1
642.692,1295.5
643.22,1294.5
643.747,1289.9
644.274,1291.5
644.801,1291.4
645.328,1291.2
645.854,1297.2
646.381,1293.4
646.908,1301.5
647.435,1302.3
647.962,1301.6
648.488,1305.4
649.015,1303.0
649.542,1297.5
650.068,1298.4
650.595,1300.8
651.121,1306.0
651.648,1298.4
652.174,1299.3
652.7,1310.0
653.227,1307.5
653.753,1311.5
654.279,1314.2
654.805,1302.7
655.331,1308.6
655.858,1303.2
656.384,1303.8
656.91,1310.3
657.436,1314.5
657.962,1314.4
658.488,1312.4
659.013,1305.1
659.539,1305.2
660.065,1307.1
660.591,1308.5
661.117,1307.8
661.642,1297.1
662.168,1297.3
662.694,1299.5
663.088,1302.0