File: spectra/VLFR_01-LDPE_bio_Raman_0aecdb1d.csv
nm,Intensity
526.508,829.5
527.055,830.4
527.602,830.0
528.149,828.9
528.695,828.7
529.241,828.8
529.787,829.7
530.334,830.3
530.879,829.5
531.425,831.0
531.971,834.8
532.516,832.4
533.062,830.3
533.607,828.5
534.152,895.6
534.697,888.5
535.242,873.1
535.786,862.8
536.331,860.7
536.876,855.3
537.42,856.9
537.964,855.2
538.508,854.8
539.052,852.5
539.596,850.5
540.14,849.4
540.683,847.8
541.227,847.4
541.77,847.6
542.313,846.7
542.856,846.5
543.399,845.6
543.942,847.5
544.485,846.8
545.027,846.1
545.57,845.2
546.112,845.2
546.654,842.9
547.196,845.3
547.738,846.2
548.28,845.3
548.822,843.2
549.363,842.9
549.905,841.3
550.446,841.2
550.988,842.9
551.529,842.2
552.07,842.0
552.611,843.7
553.152,844.1
553.692,846.6
554.233,847.2
554.773,845.9
555.314,848.8
555.854,848.1
556.394,848.3
556.934,851.2
557.474,852.2
558.014,852.7
558.553,853.8
559.093,853.1
559.632,848.2
560.172,849.7
560.711,851.5
561.25,850.7
561.789,854.4
562.328,853.9
562.867,857.9
563.406,860.6
563.944,902.8
564.483,876.2
565.021,868.6
565.559,865.3
566.098,910.8
566.636,868.2
567.174,863.9
567.711,867.3
568.249,861.8
568.787,865.8
569.324,864.6
569.862,867.4
570.399,870.8
570.936,877.8
571.474,942.3
572.011,899.6
572.548,885.0
573.084,883.3
573.621,883.2
574.158,890.8
574.694,888.3
575.231,894.4
575.767,928.6
576.303,1019.0
576.84,977.3
577.376,960.2
577.912,932.0
578.447,939.8
578.983,944.6
579.519,959.5
580.054,961.5
580.59,980.0
581.125,982.2
581.661,996.0
582.196,998.2
582.731,1012.9
583.266,1025.8
583.801,1032.8
584.336,1043.5
584.87,1049.9
585.405,1062.6
585.94,1070.8
586.474,1090.2
587.008,1102.2
587.543,1116.4
588.077,1126.1
588.611,1138.2
589.145,1153.4
589.679,1170.1
590.213,1183.7
590.747,1195.3
591.28,1206.9
591.814,1217.2
592.347,1224.7
592.881,1224.1
593.414,1239.4
593.947,1248.5
594.48,1258.7
595.014,1269.1
595.547,1294.2
596.079,1299.7
596.612,1318.5
597.145,1330.7
597.678,1348.1
598.21,1367.6
598.743,1389.2
599.275,1401.6
599.807,1402.5
600.34,1415.1
600.872,1408.0
601.404,1407.3
601.936,1404.6
602.468,1385.5
603.0,1374.8
603.532,1365.3
604.063,1337.3
604.595,1329.2
605.126,1296.8
605.658,1273.7
606.189,1253.2
606.721,1233.6
607.252,1210.1
607.783,1198.3
608.314,1190.4
608.845,1174.9
609.376,1162.0
609.907,1155.8
610.438,1138.9
610.968,1133.9
611.499,1124.5
612.03,1120.8
612.56,1111.8
613.091,1114.5
613.621,1104.1
614.151,1096.8
614.681,1087.8
615.212,1086.6
615.742,1077.9
616.272,1075.3
616.802,1066.6
617.332,1072.0
617.861,1069.2
618.391,1062.0
618.921,1061.4
619.45,1053.1
619.98,1057.9
620.509,1045.2
621.039,1049.8
621.568,1059.7
622.097,1077.6
622.627,1078.5
623.156,1055.2
623.685,1043.6
624.214,1038.0
624.743,1043.1
625.272,1043.1
625.801,1039.2
626.33,1072.5
626.858,1283.6
627.387,1726.3
627.916,1453.9
628.444,1638.6
628.973,1479.8
629.501,1389.6
630.029,1288.7
630.558,1265.8
631.086,1149.0
631.614,1084.2
632.142,1061.2
632.67,1047.5
633.198,1046.1
633.726,1048.7
634.254,1043.1
634.782,1043.7
635.31,1045.7
635.838,1045.5
636.365,1044.2
636.893,1045.3
637.421,1045.6
637.948,1052.2
638.476,1055.9
639.003,1060.7
639.531,1061.0
640.058,1064.8
640.585,1070.4
641.113,1071.7
641.64,1076.2
642.167,1076.0
642.694,1080.7
643.221,1085.6
643.748,1082.1
644.275,1084.9
644.802,1090.0
645.329,1091.5
645.856,1089.9
646.382,1085.0
646.909,1093.5
647.436,1100.0
647.962,1092.9
648.489,1091.7
649.016,1091.6
649.542,1097.7
650.069,1095.5
650.595,1091.7
651.121,1087.9
651.648,1098.5
652.174,1100.1
652.7,1101.1
653.227,1096.1
653.753,1104.6
654.279,1095.8
654.805,1099.3
655.331,1101.7
655.857,1100.4
656.383,1090.8
656.909,1088.4
657.435,1076.7
657.961,1078.3
658.487,1068.8
659.013,1069.2
659.538,1062.6
660.064,1054.2
660.59,1047.1
661.116,1032.6
661.641,1022.5
662.167,1017.2
662.692,1007.8
663.087,1003.5