File: spectra/VLFR_02-HDPE_nobio_Raman_506c560c.csv
nm,Intensity
526.5,829.8
527.047,828.9
527.594,829.5
528.14,829.2
528.687,829.0
529.233,829.1
529.779,829.2
530.325,829.1
530.871,829.3
531.417,830.2
531.962,843.6
532.508,831.3
533.053,828.5
533.599,830.2
534.144,898.1
534.689,881.6
535.234,867.0
535.778,858.1
536.323,851.3
536.867,849.8
537.412,848.7
537.956,847.5
538.5,845.7
539.044,841.9
539.588,839.1
540.132,839.2
540.675,836.9
541.219,835.2
541.762,834.3
542.305,836.4
542.848,837.1
543.391,836.1
543.934,836.6
544.477,836.2
545.02,836.8
545.562,833.1
546.105,836.5
546.647,834.4
547.189,834.7
547.731,835.0
548.273,834.4
548.815,834.6
549.356,835.4
549.898,834.0
550.439,832.8
550.981,833.3
551.522,834.6
552.063,834.2
552.604,834.8
553.145,835.5
553.686,838.0
554.226,837.1
554.767,836.6
555.307,836.8
555.848,837.8
556.388,841.4
556.928,842.3
557.468,845.3
558.008,847.1
558.547,848.3
559.087,842.1
559.626,845.7
560.166,842.1
560.705,839.3
561.244,841.1
561.783,842.8
562.322,843.5
562.861,846.7
563.4,851.5
563.939,951.8
564.477,872.3
565.015,864.0
565.554,861.6
566.092,1073.7
566.63,870.2
567.168,850.1
567.706,847.7
568.244,845.1
568.781,841.8
569.319,843.1
569.857,845.8
570.394,849.6
570.931,854.1
571.468,1015.4
572.005,879.4
572.542,850.2
573.079,842.8
573.616,845.4
574.153,854.8
574.689,843.0
575.226,854.0
575.762,972.1
576.298,958.5
576.834,919.6
577.371,883.6
577.907,850.7
578.442,843.2
578.978,841.2
579.514,842.2
580.049,840.8
580.585,840.7
581.12,839.1
581.656,840.7
582.191,840.5
582.726,841.2
583.261,839.9
583.796,838.8
584.331,840.5
584.865,841.2
585.4,843.8
585.935,841.9
586.469,842.7
587.004,843.3
587.538,844.1
588.072,843.8
588.606,843.5
589.14,845.1
589.674,845.3
590.208,846.8
590.742,847.4
591.275,848.7
591.809,847.8
592.342,847.9
592.876,847.8
593.409,852.5
593.942,851.4
594.476,850.1
595.009,851.3
595.542,852.9
596.075,852.0
596.607,852.6
597.14,854.8
597.673,855.6
598.205,858.3
598.738,856.9
599.27,859.7
599.803,860.4
600.335,856.0
600.867,854.5
601.399,857.6
601.931,857.4
602.463,858.3
602.995,857.6
603.527,854.2
604.058,856.0
604.59,855.7
605.122,855.7
605.653,853.6
606.184,854.1
606.716,852.4
607.247,853.7
607.778,852.5
608.309,854.3
608.84,854.9
609.371,854.1
609.902,853.1
610.433,854.5
610.964,860.5
611.494,857.8
612.025,855.0
612.556,852.6
613.086,853.6
613.616,852.7
614.147,851.6
614.677,853.8
615.207,851.8
615.737,853.5
616.267,853.6
616.797,856.0
617.327,858.7
617.857,858.1
618.387,857.5
618.917,859.1
619.446,859.5
619.976,861.7
620.505,858.2
621.035,864.4
621.564,871.6
622.093,890.6
622.623,888.8
623.152,866.6
623.681,861.0
624.21,859.8
624.739,859.1
625.268,864.8
625.797,869.8
626.326,893.4
626.855,1099.1
627.383,1534.0
627.912,1238.0
628.441,1346.1
628.969,1299.9
629.498,1202.8
630.026,1111.7
630.554,1079.8
631.083,964.5
631.611,892.1
632.139,872.3
632.667,863.6
633.195,862.3
633.724,858.3
634.252,853.2
634.779,851.5
635.307,849.4
635.835,850.1
636.363,851.0
636.891,848.0
637.418,846.5
637.946,846.8
638.474,846.4
639.001,846.5
639.529,845.2
640.056,845.4
640.583,846.7
641.111,846.7
641.638,843.5
642.165,845.5
642.692,844.4
643.22,845.2
643.747,846.0
644.274,845.7
644.801,845.6
645.328,844.8
645.854,844.6
646.381,845.5
646.908,846.2
647.435,841.3
647.962,844.9
648.488,845.4
649.015,842.0
649.542,843.9
650.068,845.8
650.595,844.0
651.121,844.5
651.648,843.2
652.174,843.8
652.7,845.5
653.227,844.6
653.753,842.9
654.279,843.6
654.805,843.5
655.331,843.8
655.858,846.5
656.384,844.8
656.91,843.3
657.436,844.5
657.962,844.9
658.488,844.4
659.013,845.9
659.539,843.3
660.065,846.6
660.591,846.1
661.117,843.2
661.642,843.1
662.168,841.1
662.694,841.6
663.088,844.7