File: spectra/VLFR_01-LDPE_nobio_Raman_01fce804.csv
nm,Intensity
526.508,830.5
527.055,830.3
527.602,830.0
528.149,830.7
528.695,830.05
529.241,831.25
529.787,829.55
530.334,830.55
530.879,829.75
531.425,830.0
531.971,831.7
532.516,832.0
533.062,830.8
533.607,831.3
534.152,897.6
534.697,886.8
535.242,873.75
535.786,863.45
536.331,857.4
536.876,855.2
537.42,853.55
537.964,852.15
538.508,849.45
539.052,846.85
539.596,845.9
540.14,844.55
540.683,845.0
541.227,844.15
541.77,842.6
542.313,844.3
542.856,842.55
543.399,841.8
543.942,843.75
544.485,841.1
545.027,840.8
545.57,843.5
546.112,841.5
546.654,840.4
547.196,840.85
547.738,840.65
548.28,841.8
548.822,840.6
549.363,840.6
549.905,840.9
550.446,839.75
550.988,839.8
551.529,840.35
552.07,841.05
552.611,840.5
553.152,842.8
553.692,844.55
554.233,844.25
554.773,845.5
555.314,845.1
555.854,848.1
556.394,850.4
556.934,851.7
557.474,853.0
558.014,855.45
558.553,856.3
559.093,853.5
559.632,852.15
560.172,852.6
560.711,853.8
561.25,853.85
561.789,854.75
562.328,857.25
562.867,859.55
563.406,866.35
563.944,912.7
564.483,882.45
565.021,879.75
565.559,874.55
566.098,926.75
566.636,880.85
567.174,876.35
567.711,879.65
568.249,876.35
568.787,879.75
569.324,883.25
569.862,887.15
570.399,893.3
570.936,903.2
571.474,987.85
572.011,935.6
572.548,921.3
573.084,920.9
573.621,929.05
574.158,945.6
574.694,944.9
575.231,960.3
575.767,1005.75
576.303,1119.5
576.84,1079.1
577.376,1069.9
577.912,1056.05
578.447,1077.3
578.983,1096.7
579.519,1127.05
580.054,1156.25
580.59,1182.3
581.125,1210.05
581.661,1241.8
582.196,1267.5
582.731,1305.55
583.266,1330.0
583.801,1355.15
584.336,1387.45
584.87,1412.05
585.405,1450.9
585.94,1476.55
586.474,1520.2
587.008,1549.3
587.543,1591.4
588.077,1622.75
588.611,1671.05
589.145,1703.45
589.679,1738.05
590.213,1784.55
590.747,1830.5
591.28,1855.8
591.814,1888.45
592.347,1915.5
592.881,1929.45
593.414,1941.25
593.947,1970.15
594.48,1994.45
595.014,2013.55
595.547,2040.05
596.079,2062.55
596.612,2096.15
597.145,2135.0
597.678,2159.45
598.21,2197.5
598.743,2243.7
599.275,2248.7
599.807,2277.25
600.34,2273.6
600.872,2261.9
601.404,2259.05
601.936,2245.2
602.468,2227.05
603.0,2190.8
603.532,2154.55
604.063,2101.8
604.595,2046.55
605.126,1991.4
605.658,1919.65
606.189,1876.1
606.721,1831.65
607.252,1792.5
607.783,1757.75
608.314,1726.2
608.845,1697.8
609.376,1662.65
609.907,1634.75
610.438,1614.2
610.968,1583.25
611.499,1568.95
612.03,1551.8
612.56,1532.65
613.091,1529.65
613.621,1513.95
614.151,1496.6
614.681,1476.9
615.212,1458.8
615.742,1437.8
616.272,1427.45
616.802,1416.95
617.332,1411.35
617.861,1398.9
618.391,1386.3
618.921,1375.15
619.45,1364.3
619.98,1356.45
620.509,1347.05
621.039,1338.4
621.568,1347.8
622.097,1365.5
622.627,1361.2
623.156,1330.35
623.685,1319.3
624.214,1318.6
624.743,1313.65
625.272,1317.65
625.801,1317.05
626.33,1342.5
626.858,1582.3
627.387,2052.1
627.916,1744.65
628.444,1990.35
628.973,1809.6
629.501,1698.55
630.029,1595.25
630.558,1579.0
631.086,1445.65
631.614,1380.6
632.142,1356.0
632.67,1346.8
633.198,1349.55
633.726,1350.25
634.254,1356.0
634.782,1358.05
635.31,1372.4
635.838,1373.0
636.365,1379.1
636.893,1388.45
637.421,1386.95
637.948,1400.65
638.476,1407.15
639.003,1422.8
639.531,1422.4
640.058,1437.65
640.585,1442.95
641.113,1446.55
641.64,1458.45
642.167,1474.9
642.694,1477.7
643.221,1480.8
643.748,1483.3
644.275,1486.3
644.802,1489.1
645.329,1498.8
645.856,1501.5
646.382,1503.05
646.909,1509.6
647.436,1511.1
647.962,1510.75
648.489,1510.9
649.016,1507.95
649.542,1503.35
650.069,1499.9
650.595,1499.55
651.121,1508.1
651.648,1504.45
652.174,1508.1
652.7,1502.15
653.227,1504.2
653.753,1511.2
654.279,1504.05
654.805,1503.0
655.331,1494.8
655.857,1478.65
656.383,1475.45
656.909,1464.9
657.435,1453.45
657.961,1436.0
658.487,1426.65
659.013,1405.55
659.538,1391.65
660.064,1377.55
660.59,1349.7
661.116,1322.1
661.641,1308.15
662.167,1288.4
662.692,1276.1
663.087,1258.15