File: spectra/VLFR_02-HDPE_nobio_Raman_dcc606f3.csv
nm,Intensity
526.532,829.967
527.079,829.4
527.625,830.367
528.172,829.667
528.718,829.8
529.265,830.6
529.811,830.6
530.357,830.667
530.903,830.3
531.449,829.967
531.994,834.6
532.54,830.1
533.085,830.533
533.63,830.6
534.176,912.9
534.721,915.767
535.266,910.433
535.81,879.2
536.355,872.133
536.9,865.7
537.444,867.167
537.988,866.733
538.533,865.333
539.077,860.833
539.621,858.733
540.165,858.133
540.708,857.067
541.252,857.0
541.795,857.467
542.339,857.4
542.882,855.533
543.425,855.067
543.968,856.867
544.511,856.967
545.054,857.667
545.597,855.633
546.139,856.233
546.682,857.1
547.224,857.833
547.766,855.9
548.308,857.033
548.85,856.6
549.392,856.767
549.934,857.733
550.475,856.633
551.017,857.833
551.558,858.233
552.1,857.5
552.641,857.833
553.182,859.667
553.723,861.033
554.264,860.033
554.804,861.9
555.345,860.3
555.885,861.567
556.426,861.633
556.966,862.0
557.506,864.867
558.046,867.4
558.586,866.233
559.126,865.367
559.665,864.067
560.205,863.167
560.745,863.8
561.284,864.667
561.823,863.133
562.362,865.167
562.901,867.633
563.44,870.5
563.979,980.1
564.518,888.033
565.056,879.3
565.595,874.2
566.133,953.967
566.671,872.933
567.21,872.2
567.748,875.067
568.285,865.733
568.823,865.4
569.361,867.5
569.899,868.467
570.436,870.867
570.974,875.567
571.511,1062.8
572.048,891.867
572.585,875.233
573.122,868.9
573.659,869.133
574.196,876.533
574.733,866.567
575.269,871.833
575.806,906.033
576.342,1049.03
576.878,962.667
577.414,925.367
577.951,877.667
578.486,869.3
579.022,869.467
579.558,869.1
580.094,867.167
580.629,868.8
581.165,867.8
581.7,866.767
582.236,869.8
582.771,868.533
583.306,868.767
583.841,869.433
584.376,867.267
584.911,869.1
585.445,869.533
585.98,868.1
586.514,868.0
587.049,869.967
587.583,870.433
588.117,868.233
588.651,868.467
589.186,867.033
589.72,866.433
590.253,869.733
590.787,867.2
591.321,868.2
591.854,869.867
592.388,867.0
592.921,868.767
593.455,868.233
593.988,869.067
594.521,867.7
595.054,870.367
595.587,870.333
596.12,869.733
596.653,871.533
597.186,869.667
597.718,870.033
598.251,873.333
598.783,874.1
599.316,874.433
599.848,874.567
600.38,873.867
600.912,873.933
601.444,874.9
601.976,878.367
602.508,877.833
603.04,876.7
603.572,875.6
604.103,874.233
604.635,874.7
605.167,872.667
605.698,871.567
606.229,872.367
606.761,871.233
607.292,871.8
607.823,870.9
608.354,871.9
608.885,871.133
609.416,870.467
609.947,870.7
610.477,871.6
611.008,871.133
611.539,871.467
612.069,871.333
612.6,871.833
613.13,869.967
613.66,869.633
614.19,871.2
614.721,873.667
615.251,873.967
615.781,873.367
616.311,872.867
616.841,880.133
617.37,888.433
617.9,889.967
618.43,889.433
618.96,884.433
619.489,893.267
620.019,893.167
620.548,893.833
621.077,903.867
621.607,923.333
622.136,971.267
622.665,958.3
623.194,906.967
623.723,897.967
624.252,894.1
624.781,896.4
625.31,900.6
625.839,915.533
626.368,976.1
626.896,1498.83
627.425,2055.47
627.953,1575.73
628.482,2142.9
629.01,1508.57
629.539,1367.97
630.067,1217.63
630.596,1177.7
631.124,1001.83
631.652,917.4
632.18,898.867
632.708,893.233
633.236,889.933
633.764,885.833
634.292,881.9
634.82,880.567
635.348,876.7
635.876,876.3
636.403,875.3
636.931,874.733
637.459,871.167
637.986,867.133
638.514,865.9
639.041,867.233
639.568,866.233
640.096,864.967
640.623,866.467
641.15,864.433
641.678,864.833
642.205,863.867
642.732,865.533
643.259,864.1
643.786,862.533
644.313,863.7
644.84,862.633
645.367,863.7
645.894,863.9
646.421,862.367
646.948,863.2
647.474,862.1
648.001,861.833
648.528,860.7
649.054,862.333
649.581,860.933
650.108,861.967
650.634,862.833
651.161,862.433
651.687,859.033
652.214,863.433
652.74,862.0
653.266,860.3
653.793,862.867
654.319,862.2
654.845,862.6
655.371,860.533
655.897,859.533
656.424,857.4
656.95,861.133
657.476,860.1
658.002,861.967
658.528,860.867
659.054,863.533
659.58,862.3
660.106,865.833
660.631,862.0
661.157,861.767
661.683,860.467
662.209,860.9
662.735,859.967
663.129,861.033