File: spectra/VLFR_01-LDPE_bio_Raman_e18548b1.csv
nm,Intensity
528.65,1838.7
529.155,1838.75
529.66,1839.65
530.165,1838.8
530.67,1838.35
531.175,1839.1
531.68,1848.5
532.185,2231.25
532.69,1839.35
533.194,1839.95
533.699,1956.55
534.204,2148.15
534.708,2117.5
535.213,2069.75
535.717,2014.05
536.222,1977.65
536.726,1966.25
537.231,1968.5
537.735,1964.35
538.239,1958.65
538.743,1943.9
539.247,1929.1
539.751,1929.05
540.255,1922.6
540.759,1923.65
541.263,1916.6
541.767,1913.85
542.271,1919.25
542.775,1912.5
543.279,1910.8
543.782,1911.5
544.286,1913.35
544.789,1907.9
545.293,1910.0
545.796,1910.95
546.3,1905.2
546.803,1909.25
547.306,1907.9
547.81,1905.6
548.313,1905.3
548.816,1906.25
549.319,1904.65
549.822,1905.25
550.325,1905.45
550.828,1903.8
551.331,1904.0
551.834,1905.55
552.337,1910.55
552.839,1905.05
553.342,1926.8
553.844,1922.75
554.347,1929.95
554.849,1929.75
555.352,1940.6
555.854,1945.15
556.357,1946.55
556.859,1954.25
557.361,1972.05
557.863,1979.25
558.365,1987.25
558.867,1985.8
559.369,1963.1
559.871,1960.25
560.373,1958.25
560.875,1953.35
561.377,1973.05
561.878,1983.1
562.38,1983.1
562.881,2001.95
563.383,2027.1
563.884,2382.0
564.386,2134.55
564.887,2098.45
565.388,2040.1
565.89,2241.25
566.391,2186.45
566.892,2022.45
567.393,2065.25
567.894,2001.8
568.395,1996.65
568.896,1996.3
569.396,2006.75
569.897,2011.85
570.398,2038.2
570.898,2081.85
571.399,2637.3
571.9,2264.3
572.4,2114.2
572.9,2064.15
573.401,2077.9
573.901,2124.1
574.401,2084.55
574.901,2094.05
575.401,2302.55
575.901,2460.2
576.401,2840.05
576.901,2621.3
577.401,2381.0
577.901,2284.55
578.4,2273.6
578.9,2300.25
579.399,2328.0
579.899,2382.95
580.398,2406.1
580.898,2430.8
581.397,2465.5
581.896,2515.2
582.395,2535.4
582.895,2565.8
583.394,2601.9
583.893,2626.1
584.391,2661.25
584.89,2676.7
585.389,2710.0
585.888,2752.75
586.386,2755.15
586.885,2767.8
587.384,2842.05
587.882,2859.7
588.38,2909.7
588.879,2978.5
589.377,2999.0
589.875,3052.2
590.373,3107.25
590.871,3148.75
591.369,3170.65
591.867,3235.9
592.365,3262.65
592.863,3284.05
593.361,3331.85
593.858,3327.9
594.356,3372.1
594.853,3446.9
595.351,3461.35
595.848,3538.5
596.345,3591.75
596.843,3624.95
597.34,3708.1
597.837,3781.55
598.334,3833.7
598.831,3897.9
599.328,3978.25
599.824,3957.1
600.321,3967.65
600.818,3993.3
601.314,4003.65
601.811,3989.65
602.307,3962.85
602.804,3897.65
603.3,3932.45
603.796,3823.3
604.293,3744.9
604.789,3660.2
605.285,3617.6
605.781,3512.9
606.277,3413.2
606.772,3384.6
607.268,3275.0
607.764,3260.65
608.259,3177.25
608.755,3141.65
609.25,3100.45
609.746,3049.5
610.241,3025.3
610.736,2991.85
611.231,2985.5
611.727,2949.5
612.222,2939.55
612.716,2858.45
613.211,2859.35
613.706,2824.85
614.201,2792.7
614.695,2768.8
615.19,2753.65
615.684,2735.05
616.179,2718.6
616.673,2698.2
617.168,2727.45
617.662,2707.5
618.156,2689.75
618.65,2674.4
619.144,2684.15
619.638,2654.35
620.131,2655.45
620.625,2642.6
621.119,2666.7
621.612,2738.15
622.106,2862.55
622.599,2774.75
623.093,2649.7
623.586,2580.75
624.079,2575.6
624.572,2571.45
625.065,2582.75
625.558,2612.5
626.051,2710.35
626.544,3218.7
627.037,5918.7
627.529,5441.5
628.022,4797.3
628.514,6540.4
629.007,4870.3
629.499,4423.35
629.991,3917.75
630.483,3757.0
630.976,3200.2
631.468,2763.45
631.959,2660.4
632.451,2579.8
632.943,2572.1
633.435,2575.75
633.926,2531.35
634.418,2499.2
634.909,2512.65
635.401,2481.7
635.892,2515.1
636.383,2482.7
636.874,2501.85
637.365,2474.3
637.856,2499.3
638.347,2487.45
638.838,2495.1
639.329,2492.2
639.819,2483.95
640.31,2486.05
640.8,2521.5
641.291,2519.65
641.781,2526.8
642.271,2522.6
642.761,2511.75
643.251,2513.55
643.741,2546.55
644.231,2539.6
644.721,2526.15
645.211,2558.7
645.7,2539.6
646.19,2550.8
646.679,2584.45
647.169,2549.85
647.658,2558.0
648.147,2555.45
648.636,2572.2
649.125,2549.65
649.614,2555.45
650.103,2554.1
650.592,2551.9
651.08,2555.6
651.569,2560.05
652.058,2589.45
652.546,2554.75
653.034,2550.25
653.523,2529.5
654.011,2541.4
654.499,2542.9
654.987,2543.95
655.475,2538.35
655.963,2530.35
656.45,2536.35
656.938,2504.75
657.425,2466.4
657.913,2452.95
658.4,2454.7
658.888,2413.25
659.375,2381.15
659.862,2373.8
660.349,2367.2
660.836,2315.55
661.079,2323.1