File: spectra/VLFR_01-LDPE_bio_Raman_8320207f.csv
nm,Intensity
526.508,830.4
527.055,832.0
527.602,831.2
528.149,830.4
528.695,829.7
529.241,830.6
529.787,831.3
530.334,829.8
530.879,830.1
531.425,830.5
531.971,841.0
532.516,833.9
533.062,831.1
533.607,831.7
534.152,893.3
534.697,883.1
535.242,870.8
535.786,860.5
536.331,858.4
536.876,856.6
537.42,855.4
537.964,852.7
538.508,852.4
539.052,852.6
539.596,849.6
540.14,847.1
540.683,846.7
541.227,846.5
541.77,848.1
542.313,845.0
542.856,847.9
543.399,847.4
543.942,845.0
544.485,845.4
545.027,845.1
545.57,844.3
546.112,845.2
546.654,843.5
547.196,844.2
547.738,844.7
548.28,844.0
548.822,843.9
549.363,845.5
549.905,842.9
550.446,843.4
550.988,844.3
551.529,842.8
552.07,843.9
552.611,845.0
553.152,846.6
553.692,847.7
554.233,848.7
554.773,845.8
555.314,847.9
555.854,852.1
556.394,850.9
556.934,851.9
557.474,853.8
558.014,857.0
558.553,859.0
559.093,856.9
559.632,855.1
560.172,856.0
560.711,855.0
561.25,856.0
561.789,855.1
562.328,858.9
562.867,860.9
563.406,866.0
563.944,908.0
564.483,880.3
565.021,877.9
565.559,870.7
566.098,909.2
566.636,875.4
567.174,874.0
567.711,872.1
568.249,871.6
568.787,870.7
569.324,872.8
569.862,878.4
570.399,880.3
570.936,886.1
571.474,954.8
572.011,914.6
572.548,892.7
573.084,887.8
573.621,890.9
574.158,901.7
574.694,895.3
575.231,897.6
575.767,928.2
576.303,1009.3
576.84,971.2
577.376,949.7
577.912,927.0
578.447,918.6
578.983,927.4
579.519,931.7
580.054,935.2
580.59,944.1
581.125,944.4
581.661,954.0
582.196,959.1
582.731,964.2
583.266,974.9
583.801,986.2
584.336,993.9
584.87,1005.9
585.405,1020.6
585.94,1034.6
586.474,1048.9
587.008,1071.5
587.543,1093.4
588.077,1114.2
588.611,1129.1
589.145,1135.0
589.679,1161.0
590.213,1187.5
590.747,1194.5
591.28,1209.1
591.814,1228.6
592.347,1232.3
592.881,1242.1
593.414,1244.9
593.947,1242.8
594.48,1265.3
595.014,1271.4
595.547,1267.7
596.079,1286.8
596.612,1295.4
597.145,1305.9
597.678,1320.0
598.21,1331.3
598.743,1345.7
599.275,1356.9
599.807,1357.9
600.34,1361.8
600.872,1376.2
601.404,1360.9
601.936,1353.9
602.468,1339.1
603.0,1335.9
603.532,1326.4
604.063,1304.2
604.595,1283.5
605.126,1259.5
605.658,1241.5
606.189,1212.8
606.721,1204.5
607.252,1192.8
607.783,1173.6
608.314,1163.7
608.845,1147.2
609.376,1145.7
609.907,1130.7
610.438,1125.3
610.968,1115.9
611.499,1111.7
612.03,1108.4
612.56,1103.0
613.091,1100.8
613.621,1096.3
614.151,1090.1
614.681,1080.7
615.212,1077.2
615.742,1071.2
616.272,1063.8
616.802,1063.7
617.332,1064.0
617.861,1059.3
618.391,1058.0
618.921,1053.4
619.45,1053.2
619.98,1049.8
620.509,1038.3
621.039,1048.1
621.568,1055.3
622.097,1072.3
622.627,1069.0
623.156,1041.0
623.685,1029.0
624.214,1031.8
624.743,1030.9
625.272,1030.4
625.801,1032.1
626.33,1061.9
626.858,1279.6
627.387,1724.2
627.916,1454.7
628.444,1639.3
628.973,1475.8
629.501,1378.5
630.029,1285.1
630.558,1256.9
631.086,1131.7
631.614,1062.7
632.142,1038.9
632.67,1022.6
633.198,1023.7
633.726,1024.4
634.254,1020.8
634.782,1024.0
635.31,1025.8
635.838,1034.7
636.365,1032.0
636.893,1032.6
637.421,1040.0
637.948,1037.3
638.476,1043.0
639.003,1049.7
639.531,1055.2
640.058,1062.8
640.585,1062.9
641.113,1070.4
641.64,1080.5
642.167,1080.6
642.694,1087.4
643.221,1086.4
643.748,1092.3
644.275,1087.4
644.802,1088.8
645.329,1093.5
645.856,1094.9
646.382,1096.1
646.909,1100.9
647.436,1096.8
647.962,1098.7
648.489,1093.9
649.016,1089.8
649.542,1099.5
650.069,1093.7
650.595,1092.9
651.121,1093.2
651.648,1099.1
652.174,1101.0
652.7,1101.5
653.227,1096.7
653.753,1099.2
654.279,1093.9
654.805,1096.7
655.331,1093.9
655.857,1090.6
656.383,1082.2
656.909,1087.3
657.435,1083.3
657.961,1068.5
658.487,1065.5
659.013,1059.2
659.538,1054.7
660.064,1045.8
660.59,1042.7
661.116,1035.1
661.641,1016.2
662.167,1016.3
662.692,1010.5
663.087,1002.8