File: spectra/VLFR_08-PLA_bio_Raman_7ab41b86.csv
nm,Intensity
526.495,829.3
527.042,827.8
527.589,829.5
528.136,829.6
528.682,828.5
529.229,829.5
529.775,828.6
530.321,828.7
530.867,829.2
531.413,829.5
531.959,829.2
532.505,830.2
533.051,828.6
533.596,831.4
534.141,1039.7
534.687,995.4
535.232,954.8
535.777,935.0
536.321,923.0
536.866,927.9
537.41,917.9
537.955,918.3
538.499,905.3
539.043,908.3
539.587,898.5
540.131,894.8
540.675,911.0
541.219,912.5
541.762,901.8
542.305,895.9
542.849,899.7
543.392,921.8
543.935,929.8
544.478,910.4
545.02,904.0
545.563,898.8
546.106,894.0
546.648,899.5
547.19,902.1
547.732,896.7
548.274,898.2
548.816,902.2
549.358,903.1
549.9,902.4
550.441,904.1
550.983,906.0
551.524,910.6
552.065,911.9
552.606,913.9
553.147,914.7
553.688,912.5
554.229,919.1
554.769,912.7
555.31,909.2
555.85,906.1
556.391,909.0
556.931,909.3
557.471,926.1
558.011,1044.1
558.551,948.5
559.09,920.7
559.63,923.7
560.169,918.3
560.709,919.4
561.248,914.8
561.787,916.3
562.326,914.6
562.865,928.1
563.404,962.1
563.943,935.3
564.481,935.0
565.02,953.8
565.558,947.1
566.096,970.3
566.634,948.2
567.172,927.2
567.71,931.0
568.248,938.4
568.786,935.2
569.324,938.2
569.861,932.4
570.399,930.6
570.936,934.3
571.473,956.4
572.01,950.1
572.547,949.6
573.084,954.4
573.621,955.6
574.158,946.9
574.694,960.3
575.231,937.5
575.767,937.5
576.303,956.5
576.84,1017.3
577.376,963.0
577.912,941.5
578.448,939.6
578.984,935.1
579.519,938.3
580.055,935.5
580.59,935.6
581.126,938.8
581.661,936.4
582.196,936.1
582.731,940.6
583.267,940.2
583.801,943.6
584.336,936.7
584.871,938.1
585.406,936.4
585.94,945.1
586.475,957.3
587.009,997.3
587.543,1012.6
588.078,967.4
588.612,947.4
589.146,943.5
589.68,944.8
590.214,945.2
590.747,940.9
591.281,944.8
591.815,941.2
592.348,944.3
592.881,944.8
593.415,943.7
593.948,945.7
594.481,948.2
595.014,949.0
595.547,955.8
596.08,951.3
596.613,951.4
597.146,957.9
597.678,958.8
598.211,956.5
598.743,960.8
599.276,963.2
599.808,962.4
600.34,963.6
600.872,965.3
601.404,970.0
601.936,968.6
602.468,976.3
603.0,972.4
603.532,978.3
604.064,978.2
604.595,977.5
605.127,983.3
605.658,978.9
606.189,984.7
606.721,987.5
607.252,986.2
607.783,992.4
608.314,997.7
608.845,995.7
609.376,1002.6
609.907,1005.6
610.438,1005.4
610.968,1011.0
611.499,1004.4
612.029,1011.1
612.56,1013.3
613.09,1018.6
613.621,1018.4
614.151,1027.9
614.681,1025.5
615.211,1026.0
615.741,1029.6
616.271,1032.6
616.801,1035.2
617.331,1038.0
617.861,1046.4
618.39,1037.9
618.92,1037.9
619.45,1041.9
619.979,1038.0
620.509,1046.8
621.038,1045.5
621.567,1038.9
622.096,1046.3
622.626,1051.6
623.155,1063.3
623.684,1062.0
624.213,1057.3
624.742,1048.9
625.271,1048.7
625.799,1047.6
626.328,1052.0
626.857,1046.8
627.386,1050.5
627.914,1058.0
628.443,1125.3
628.971,1107.9
629.5,1108.7
630.028,1105.5
630.556,1166.4
631.084,1535.5
631.613,1296.0
632.141,1164.1
632.669,1144.0
633.197,1234.9
633.725,1201.1
634.253,1105.0
634.781,1052.5
635.308,1037.0
635.836,1028.2
636.364,1032.3
636.891,1021.5
637.419,1021.3
637.947,1019.2
638.474,1018.2
639.002,1012.1
639.529,1010.8
640.056,1014.3
640.584,1006.2
641.111,1007.1
641.638,1003.0
642.165,1005.4
642.692,1002.5
643.219,998.0
643.746,996.2
644.273,991.8
644.8,987.6
645.327,984.6
645.854,980.1
646.381,978.6
646.908,978.7
647.434,979.5
647.961,976.8
648.488,976.6
649.014,971.9
649.541,969.6
650.067,971.2
650.594,964.5
651.12,969.1
651.646,960.8
652.173,965.9
652.699,964.1
653.225,960.9
653.752,957.8
654.278,961.4
654.804,956.0
655.33,955.8
655.856,955.9
656.382,955.4
656.908,953.3
657.434,952.0
657.96,948.3
658.486,946.2
659.012,951.3
659.538,944.5
660.064,946.4
660.589,943.7
661.115,941.0
661.641,942.9
662.166,939.1
662.692,939.1
663.086,934.8