File: spectra/VLFR_07-PET_nobio_Raman_f0cb5463.csv
nm,Intensity
791.588,11252.0
792.685,10322.1
793.781,9994.4
794.878,9641.0
795.975,9565.5
797.071,9461.3
798.168,9565.7
799.264,9557.0
800.36,9504.7
801.456,9436.5
802.552,9401.9
803.648,9227.7
804.744,9095.1
805.84,9068.7
806.936,8917.6
808.031,8830.1
809.127,8783.5
810.222,8655.0
811.317,8659.7
812.412,8677.8
813.507,8647.3
814.602,8461.3
815.697,8428.3
816.792,8372.8
817.887,8288.7
818.981,8229.5
820.076,8214.0
821.17,8154.7
822.265,8022.7
823.359,7961.1
824.453,7967.9
825.547,8040.6
826.641,7940.5
827.735,7795.0
828.828,7673.1
829.922,7642.8
831.016,7771.9
832.109,7595.4
833.202,7487.0
834.295,7358.5
835.388,7456.1
836.481,7415.9
837.574,7499.0
838.667,7444.3
839.76,7365.8
840.852,7532.6
841.945,7548.3
843.037,7342.4
844.129,7186.4
845.221,7064.2
846.314,6913.5
847.405,6907.2
848.497,6906.4
849.589,6762.8
850.681,6784.7
851.772,6815.8
852.863,6848.6
853.955,6722.5
855.046,6672.8
856.137,6594.8
857.228,6621.8
858.318,6712.0
859.409,6746.9
860.5,6738.1
861.59,6590.2
862.681,6492.7
863.771,6470.2
864.861,6511.3
865.951,6361.0
867.041,6326.2
868.131,6245.8
869.22,6285.1
870.31,6318.7
871.399,6457.0
872.488,6649.1
873.578,6589.6
874.667,6390.6
875.756,6230.4
876.845,6170.9
877.933,6102.1
879.022,6099.7
880.11,6006.2
881.199,5963.3
882.287,5990.7
883.375,6013.0
884.463,5893.3
885.551,5963.9
886.639,5828.1
887.726,5863.8
888.814,5746.3
889.901,5722.4
890.988,5740.7
892.075,5706.9
893.162,5615.8
894.249,5584.1
895.336,5559.2
896.423,5567.5
897.509,5788.0
898.595,6199.5
899.682,5859.0
900.768,5423.9
901.854,5334.9
902.94,5327.7
904.025,5308.4
905.111,5266.9
906.196,5418.2
907.282,5718.9
908.367,5745.8
909.452,5386.0
910.537,5153.1
911.622,5067.5
912.706,5009.7
913.791,5015.1
914.875,4936.3
915.959,4951.1
917.044,4876.9
918.128,4856.9
919.211,4837.4
920.295,4823.8
921.379,4822.1
922.462,4755.7
923.546,4706.2
924.629,4678.8
925.712,4669.8
926.795,4646.4
927.877,4605.1
928.96,4586.3
930.043,4552.7
931.125,4516.2
932.207,4508.3
933.289,4454.7
934.371,4467.7
935.453,4437.2
936.535,4396.5
937.616,4402.6
938.697,4384.6
939.779,4364.3
940.86,4329.9
941.941,4339.9
943.022,4302.6
944.102,4298.5
945.183,4271.5
946.263,4262.7
947.343,4237.1
948.423,4227.6
949.503,4222.5
950.583,4187.1
951.663,4181.3
952.742,4172.8
953.822,4156.5
954.901,4145.3
955.98,4129.5
957.059,4127.1
958.137,4102.3
959.216,4090.1
960.294,4084.0
961.373,4067.7
962.451,4058.5
963.529,4054.1
964.607,4039.0
965.684,4031.0
966.762,4022.8
967.839,4024.6
968.917,4003.6
969.994,3995.4
971.071,3996.9
972.147,3984.2
973.224,3973.3
974.3,3965.8
975.377,3954.3
976.453,3950.4
977.529,3944.1
978.605,3937.5
979.68,3938.3
980.756,3925.7
981.831,3925.5
982.907,3913.7
983.982,3910.1
985.057,3903.6
986.131,3900.5
987.206,3894.1
988.28,3889.5
989.355,3892.6
990.429,3885.8
991.503,3879.1
992.576,3869.7
993.65,3864.1
994.723,3859.6
995.797,3861.2
996.87,3846.2
997.943,3851.7
999.016,3847.8
1000.09,3843.6
1001.16,3835.2
1002.23,3834.8
1003.31,3833.9
1004.38,3829.3
1005.45,3821.7
1006.52,3817.4
1007.59,3816.9
1008.66,3812.7
1009.73,3810.2
1010.81,3811.6
1011.88,3804.6
1012.95,3800.9
1014.02,3803.4
1015.09,3801.3
1016.16,3800.6
1017.23,3796.4
1018.3,3795.8
1019.37,3787.7
1020.44,3793.6
1021.51,3800.1
1022.58,3800.4
1023.64,3793.7
1024.71,3794.5
1025.78,3790.8
1026.85,3787.4
1027.92,3780.4
1028.99,3776.8
1030.05,3774.3
1031.12,3773.2
1032.19,3770.8
1033.26,3771.3
1034.32,3776.6
1035.39,3777.9
1036.46,3773.4
1037.52,3771.2
1038.59,3765.9
1039.66,3761.8
1040.72,3764.2
1041.79,3761.6
1042.86,3760.5
1043.92,3759.0
1044.99,3756.9
1046.05,3756.7
1047.12,3756.6
1048.18,3755.4
1049.25,3755.5
1050.31,3753.5
1051.37,3756.3
1052.44,3756.5
1053.5,3752.8
1054.57,3754.8
1055.63,3756.9
1056.69,3755.5
1057.76,3753.8
1058.82,3749.6
1059.88,3755.0
1060.95,3751.3
1062.01,3754.4
1063.07,3751.6
1064.13,3754.2
1065.19,3752.6
1066.26,3749.8
1067.32,3751.4
1068.11,3751.5