File: spectra/VLFR_01-LDPE_bio_Raman_de2a25bb.csv
nm,Intensity
526.547,832.15
527.095,832.8
527.642,832.7
528.189,833.05
528.736,832.1
529.283,833.25
529.829,831.9
530.376,832.4
530.922,832.4
531.468,833.55
532.014,836.2
532.56,831.9
533.106,832.9
533.651,835.1
534.196,923.3
534.742,907.65
535.287,889.1
535.832,878.9
536.376,874.6
536.921,870.65
537.465,869.8
538.01,869.5
538.554,866.3
539.098,863.3
539.642,864.1
540.186,858.9
540.729,856.9
541.273,855.55
541.816,856.0
542.36,856.55
542.903,855.9
543.446,857.05
543.988,855.85
544.531,853.7
545.074,852.65
545.616,852.75
546.158,854.25
546.701,853.1
547.243,851.75
547.785,853.2
548.326,852.5
548.868,850.9
549.41,850.8
549.951,850.6
550.492,852.0
551.034,853.05
551.575,850.9
552.116,850.65
552.656,851.7
553.197,854.8
553.738,855.7
554.278,857.25
554.819,855.65
555.359,856.3
555.899,859.8
556.439,860.85
556.979,862.65
557.519,865.15
558.058,865.65
558.598,867.9
559.137,866.75
559.677,864.3
560.216,864.45
560.755,862.55
561.294,864.3
561.833,864.85
562.371,867.1
562.91,871.5
563.449,876.35
563.987,949.95
564.525,896.0
565.064,889.45
565.602,884.9
566.14,976.5
566.678,885.5
567.216,880.0
567.753,878.0
568.291,878.25
568.828,875.95
569.366,880.2
569.903,879.7
570.44,886.4
570.977,895.5
571.514,1037.15
572.051,926.35
572.588,904.35
573.125,895.35
573.661,900.65
574.198,909.8
574.734,903.45
575.271,914.95
575.807,958.85
576.343,1064.1
576.879,1014.35
577.415,978.35
577.951,952.6
578.486,955.15
579.022,965.1
579.557,975.05
580.093,984.05
580.628,994.25
581.164,999.85
581.699,1013.2
582.234,1018.85
582.769,1029.8
583.304,1041.35
583.838,1047.9
584.373,1051.95
584.908,1062.55
585.442,1073.6
585.977,1084.05
586.511,1089.95
587.045,1106.6
587.58,1113.65
588.114,1121.1
588.648,1133.9
589.182,1142.7
589.715,1156.0
590.249,1166.8
590.783,1177.6
591.316,1188.95
591.85,1189.1
592.383,1199.35
592.917,1195.2
593.45,1197.4
593.983,1201.5
594.516,1217.25
595.049,1215.05
595.582,1218.7
596.115,1232.05
596.648,1234.15
597.18,1241.0
597.713,1251.9
598.245,1262.15
598.778,1269.35
599.31,1277.05
599.842,1282.6
600.375,1277.5
600.907,1278.2
601.439,1275.9
601.971,1273.95
602.503,1262.35
603.034,1250.8
603.566,1240.6
604.098,1230.5
604.629,1209.1
605.161,1194.65
605.692,1171.1
606.224,1156.8
606.755,1141.55
607.286,1129.45
607.817,1117.55
608.348,1110.45
608.879,1102.95
609.41,1092.45
609.941,1084.1
610.472,1077.85
611.002,1067.3
611.533,1066.95
612.063,1055.85
612.594,1056.8
613.124,1047.75
613.655,1045.15
614.185,1040.4
614.715,1037.3
615.245,1028.65
615.775,1026.1
616.305,1020.85
616.835,1018.35
617.365,1016.75
617.895,1012.0
618.425,1009.9
618.954,1010.35
619.484,1007.5
620.013,1006.9
620.543,1004.2
621.072,1006.95
621.602,1014.35
622.131,1031.2
622.66,1028.45
623.189,1002.85
623.718,995.15
624.247,995.1
624.776,997.65
625.305,995.9
625.834,1002.6
626.363,1029.8
626.891,1249.1
627.42,1592.3
627.949,1355.35
628.477,1636.2
629.006,1469.5
629.534,1354.6
630.062,1261.55
630.591,1229.8
631.119,1100.85
631.647,1038.65
632.175,1015.9
632.703,1001.65
633.231,998.35
633.759,994.15
634.287,995.6
634.815,994.15
635.343,995.0
635.871,995.6
636.398,995.75
636.926,996.05
637.454,995.6
637.981,997.9
638.509,997.85
639.036,998.25
639.564,999.0
640.091,1001.6
640.618,1001.0
641.146,1004.5
641.673,1007.95
642.2,1005.55
642.727,1007.95
643.254,1010.05
643.781,1006.8
644.308,1007.25
644.835,1011.5
645.362,1008.75
645.889,1008.6
646.416,1008.2
646.942,1008.45
647.469,1012.2
647.996,1007.8
648.522,1008.3
649.049,1006.75
649.576,1004.3
650.102,1006.65
650.629,1010.35
651.155,1010.15
651.682,1010.7
652.208,1009.65
652.734,1010.25
653.261,1009.55
653.787,1007.55
654.313,1011.35
654.839,1007.85
655.365,1007.65
655.892,1002.2
656.418,1000.9
656.944,998.5
657.47,996.9
657.996,993.5
658.522,988.0
659.048,984.0
659.574,976.45
660.099,972.8
660.625,969.7
661.151,959.9
661.677,956.65
662.203,951.75
662.728,947.25
663.123,942.25