File: spectra/VLFR_08-PLA_bio_Raman_60ae3a3a.csv
nm,Intensity
526.532,833.95
527.079,834.15
527.625,834.35
528.172,833.4
528.718,833.3
529.265,834.25
529.811,833.65
530.357,834.15
530.903,833.85
531.449,832.85
531.994,842.45
532.54,833.4
533.085,832.35
533.63,835.3
534.176,974.8
534.721,960.35
535.266,950.75
535.81,947.8
536.355,945.8
536.9,947.4
537.444,948.15
537.988,945.7
538.533,947.3
539.077,946.25
539.621,946.2
540.165,944.45
540.708,956.8
541.252,957.25
541.795,953.05
542.339,952.1
542.882,956.15
543.425,966.75
543.968,969.45
544.511,965.75
545.054,963.0
545.597,962.6
546.139,964.15
546.682,967.9
547.224,968.45
547.766,972.95
548.308,969.25
548.85,973.5
549.392,976.8
549.934,977.15
550.475,978.25
551.017,977.95
551.558,983.1
552.1,981.05
552.641,984.85
553.182,989.25
553.723,985.3
554.264,993.3
554.804,989.65
555.345,987.9
555.885,987.85
556.426,988.5
556.966,992.45
557.506,999.1
558.046,1042.7
558.586,1002.25
559.126,997.1
559.665,997.8
560.205,994.75
560.745,995.65
561.284,996.2
561.823,999.85
562.362,997.4
562.901,1006.0
563.44,1014.55
563.979,1011.05
564.518,1010.2
565.056,1018.6
565.595,1021.6
566.133,1031.2
566.671,1014.05
567.21,1009.2
567.748,1015.4
568.285,1013.35
568.823,1017.1
569.361,1021.75
569.899,1018.05
570.436,1023.2
570.974,1018.1
571.511,1028.9
572.048,1024.75
572.585,1026.45
573.122,1028.15
573.659,1034.35
574.196,1029.65
574.733,1035.35
575.269,1027.7
575.806,1025.85
576.342,1034.5
576.878,1056.5
577.414,1038.95
577.951,1027.15
578.486,1030.25
579.022,1030.5
579.558,1030.9
580.094,1027.95
580.629,1029.4
581.165,1033.35
581.7,1027.4
582.236,1032.75
582.771,1038.1
583.306,1037.45
583.841,1037.35
584.376,1035.5
584.911,1036.25
585.445,1037.1
585.98,1035.4
586.514,1043.1
587.049,1054.2
587.583,1060.8
588.117,1045.8
588.651,1036.3
589.186,1034.65
589.72,1030.75
590.253,1035.4
590.787,1036.7
591.321,1035.05
591.854,1034.95
592.388,1033.55
592.921,1031.25
593.455,1029.05
593.988,1028.95
594.521,1029.35
595.054,1037.4
595.587,1036.85
596.12,1033.55
596.653,1035.9
597.186,1033.95
597.718,1032.5
598.251,1031.15
598.783,1032.55
599.316,1033.3
599.848,1033.7
600.38,1031.35
600.912,1027.35
601.444,1028.15
601.976,1024.6
602.508,1027.3
603.04,1029.35
603.572,1028.4
604.103,1023.0
604.635,1022.0
605.167,1020.35
605.698,1017.65
606.229,1020.2
606.761,1017.35
607.292,1015.3
607.823,1015.25
608.354,1018.7
608.885,1015.0
609.416,1019.7
609.947,1016.35
610.477,1016.15
611.008,1013.5
611.539,1013.5
612.069,1012.45
612.6,1019.05
613.13,1015.25
613.66,1019.25
614.19,1018.4
614.721,1018.4
615.251,1014.05
615.781,1018.7
616.311,1013.75
616.841,1016.55
617.37,1014.5
617.9,1013.2
618.43,1014.05
618.96,1007.95
619.489,1009.95
620.019,1010.3
620.548,1007.9
621.077,1007.4
621.607,1006.3
622.136,1007.8
622.665,1011.2
623.194,1014.3
623.723,1012.95
624.252,1007.25
624.781,1012.85
625.31,1005.2
625.839,1005.65
626.368,1002.1
626.896,1003.6
627.425,1004.45
627.953,1011.55
628.482,1034.3
629.01,1026.05
629.539,1029.35
630.067,1028.35
630.596,1056.15
631.124,1205.65
631.652,1098.0
632.18,1050.9
632.708,1038.95
633.236,1081.1
633.764,1059.15
634.292,1020.65
634.82,997.1
635.348,996.75
635.876,994.1
636.403,992.35
636.931,988.85
637.459,989.25
637.986,987.25
638.514,984.65
639.041,986.7
639.568,986.2
640.096,987.1
640.623,982.5
641.15,985.6
641.678,983.65
642.205,981.2
642.732,980.2
643.259,980.6
643.786,975.6
644.313,971.75
644.84,971.85
645.367,971.0
645.894,969.4
646.421,971.65
646.948,967.6
647.474,970.8
648.001,966.85
648.528,965.0
649.054,964.5
649.581,966.45
650.108,962.1
650.634,961.8
651.161,958.4
651.687,962.05
652.214,959.0
652.74,962.45
653.266,957.9
653.793,959.35
654.319,956.1
654.845,955.15
655.371,956.55
655.897,953.25
656.424,954.95
656.95,952.9
657.476,950.7
658.002,955.55
658.528,955.95
659.054,953.35
659.58,953.35
660.106,949.8
660.631,949.95
661.157,948.6
661.683,946.9
662.209,945.95
662.735,944.05
663.129,945.0