File: spectra/VLFR_02-HDPE_bio_Raman_d53ac120.csv
nm,Intensity
526.547,832.55
527.095,832.15
527.642,832.25
528.189,832.05
528.736,831.6
529.283,832.35
529.829,832.1
530.376,831.75
530.922,832.95
531.468,832.2
532.014,843.15
532.56,832.85
533.106,832.55
533.651,834.4
534.196,908.55
534.742,902.65
535.287,896.15
535.832,873.55
536.376,866.1
536.921,864.3
537.465,861.25
538.01,863.65
538.554,861.65
539.098,857.75
539.642,856.45
540.186,853.75
540.729,854.5
541.273,856.35
541.816,854.45
542.36,856.15
542.903,855.6
543.446,855.2
543.988,854.0
544.531,857.0
545.074,856.6
545.616,856.85
546.158,856.9
546.701,858.25
547.243,857.2
547.785,857.75
548.326,857.35
548.868,857.7
549.41,858.85
549.951,857.8
550.492,858.25
551.034,858.25
551.575,858.8
552.116,858.35
552.656,859.25
553.197,860.5
553.738,861.6
554.278,863.25
554.819,861.65
555.359,862.45
555.899,863.55
556.439,863.4
556.979,867.0
557.519,866.0
558.058,867.45
558.598,869.0
559.137,866.7
559.677,864.25
560.216,866.5
560.755,865.3
561.294,865.7
561.833,866.85
562.371,868.5
562.91,869.45
563.449,874.2
563.987,984.65
564.525,893.75
565.064,886.7
565.602,884.3
566.14,1003.85
566.678,882.15
567.216,877.45
567.753,880.05
568.291,872.95
568.828,874.75
569.366,874.55
569.903,878.7
570.44,881.15
570.977,888.4
571.514,1078.05
572.051,907.95
572.588,887.15
573.125,882.35
573.661,884.5
574.198,894.95
574.734,884.15
575.271,896.1
575.807,944.8
576.343,1073.95
576.879,991.95
577.415,954.95
577.951,911.0
578.486,906.25
579.022,907.45
579.557,913.75
580.093,911.65
580.628,917.45
581.164,918.1
581.699,921.6
582.234,928.15
582.769,926.75
583.304,933.45
583.838,936.65
584.373,944.65
584.908,944.95
585.442,953.25
585.977,956.95
586.511,965.2
587.045,969.9
587.58,977.5
588.114,980.1
588.648,988.4
589.182,994.65
589.715,1000.05
590.249,1011.55
590.783,1019.2
591.316,1025.0
591.85,1036.8
592.383,1041.15
592.917,1047.95
593.45,1045.75
593.983,1055.35
594.516,1060.7
595.049,1069.2
595.582,1076.5
596.115,1084.9
596.648,1086.45
597.18,1096.5
597.713,1108.85
598.245,1111.75
598.778,1126.3
599.31,1129.15
599.842,1140.15
600.375,1138.45
600.907,1137.25
601.439,1137.7
601.971,1142.55
602.503,1131.7
603.034,1128.65
603.566,1122.95
604.098,1114.4
604.629,1103.5
605.161,1092.5
605.692,1082.25
606.224,1075.6
606.755,1062.0
607.286,1053.65
607.817,1046.0
608.348,1043.75
608.879,1034.7
609.41,1028.8
609.941,1025.0
610.472,1020.8
611.002,1017.35
611.533,1012.15
612.063,1009.2
612.594,1005.6
613.124,1006.55
613.655,1002.2
614.185,1003.25
614.715,994.25
615.245,996.25
615.775,990.75
616.305,986.7
616.835,991.75
617.365,997.7
617.895,992.0
618.425,991.55
618.954,986.3
619.484,991.5
620.013,986.5
620.543,987.4
621.072,991.7
621.602,1009.4
622.131,1048.85
622.66,1040.15
623.189,992.5
623.718,980.85
624.247,978.45
624.776,976.15
625.305,982.55
625.834,991.55
626.363,1039.35
626.891,1476.35
627.42,2036.85
627.949,1582.1
628.477,2034.25
629.006,1586.1
629.534,1441.05
630.062,1284.9
630.591,1250.6
631.119,1083.8
631.647,999.2
632.175,976.8
632.703,969.1
633.231,965.3
633.759,962.25
634.287,957.8
634.815,953.55
635.343,955.05
635.871,954.05
636.398,954.7
636.926,957.45
637.454,951.8
637.981,955.85
638.509,952.55
639.036,950.9
639.564,954.5
640.091,954.4
640.618,954.95
641.146,957.65
641.673,961.4
642.2,962.1
642.727,962.05
643.254,962.0
643.781,964.4
644.308,963.95
644.835,965.55
645.362,965.4
645.889,968.05
646.416,966.5
646.942,973.95
647.469,971.65
647.996,969.2
648.522,972.35
649.049,972.05
649.576,971.6
650.102,972.5
650.629,973.1
651.155,970.55
651.682,973.65
652.208,979.35
652.734,974.95
653.261,976.85
653.787,977.35
654.313,975.85
654.839,976.05
655.365,973.1
655.892,975.6
656.418,972.35
656.944,973.75
657.47,969.4
657.996,965.45
658.522,964.05
659.048,959.95
659.574,960.15
660.099,955.05
660.625,949.85
661.151,946.2
661.677,940.3
662.203,935.6
662.728,934.6
663.123,932.05