File: spectra/VLFR_02-HDPE_bio_Raman_ce52ca75.csv
nm,Intensity
526.508,829.7
527.055,830.0
527.602,830.6
528.149,831.0
528.695,831.6
529.241,831.5
529.787,829.8
530.334,830.8
530.879,829.9
531.425,830.9
531.971,834.6
532.516,830.6
533.062,830.2
533.607,831.2
534.152,897.0
534.697,886.9
535.242,874.8
535.786,863.0
536.331,854.1
536.876,853.3
537.42,854.4
537.964,856.5
538.508,852.2
539.052,848.6
539.596,846.6
540.14,844.2
540.683,843.4
541.227,842.6
541.77,842.7
542.313,842.6
542.856,841.4
543.399,842.9
543.942,842.7
544.485,844.2
545.027,841.2
545.57,841.0
546.112,843.2
546.654,842.2
547.196,843.8
547.738,841.7
548.28,842.6
548.822,842.1
549.363,842.7
549.905,843.0
550.446,843.9
550.988,840.7
551.529,843.1
552.07,842.1
552.611,841.1
553.152,844.4
553.692,845.5
554.233,846.6
554.773,846.6
555.314,845.3
555.854,848.3
556.394,850.3
556.934,849.6
557.474,852.8
558.014,852.1
558.553,855.8
559.093,853.4
559.632,851.1
560.172,850.6
560.711,851.2
561.25,851.4
561.789,850.4
562.328,853.4
562.867,854.5
563.406,855.5
563.944,948.4
564.483,879.2
565.021,874.8
565.559,870.9
566.098,1016.6
566.636,872.0
567.174,861.1
567.711,862.5
568.249,855.8
568.787,856.4
569.324,858.0
569.862,860.8
570.399,864.5
570.936,868.6
571.474,1033.5
572.011,892.0
572.548,867.7
573.084,864.2
573.621,865.4
574.158,879.2
574.694,868.0
575.231,882.4
575.767,950.7
576.303,1014.5
576.84,952.5
577.376,928.3
577.912,896.6
578.447,894.2
578.983,895.8
579.519,897.7
580.054,899.4
580.59,906.1
581.125,912.9
581.661,916.3
582.196,924.8
582.731,927.9
583.266,933.4
583.801,934.8
584.336,941.2
584.87,949.6
585.405,953.1
585.94,960.1
586.474,959.6
587.008,969.5
587.543,972.2
588.077,977.4
588.611,981.3
589.145,987.9
589.679,993.5
590.213,999.6
590.747,1006.5
591.28,1011.4
591.814,1016.0
592.347,1018.2
592.881,1014.5
593.414,1012.7
593.947,1018.6
594.48,1017.7
595.014,1025.0
595.547,1021.7
596.079,1021.6
596.612,1020.3
597.145,1028.8
597.678,1023.8
598.21,1028.4
598.743,1030.9
599.275,1028.9
599.807,1035.1
600.34,1028.7
600.872,1031.6
601.404,1031.5
601.936,1032.4
602.468,1026.9
603.0,1020.9
603.532,1015.2
604.063,1015.1
604.595,1011.1
605.126,1000.7
605.658,996.5
606.189,987.9
606.721,982.5
607.252,973.3
607.783,971.9
608.314,968.5
608.845,970.0
609.376,968.3
609.907,959.1
610.438,959.5
610.968,955.7
611.499,955.8
612.03,954.3
612.56,948.7
613.091,946.3
613.621,946.3
614.151,939.0
614.681,940.3
615.212,934.6
615.742,936.6
616.272,937.2
616.802,931.6
617.332,940.0
617.861,933.7
618.391,933.1
618.921,933.4
619.45,932.4
619.98,936.5
620.509,934.9
621.039,937.3
621.568,948.9
622.097,964.3
622.627,958.3
623.156,935.8
623.685,931.6
624.214,921.8
624.743,928.8
625.272,934.2
625.801,937.1
626.33,962.1
626.858,1189.7
627.387,1622.7
627.916,1307.8
628.444,1522.5
628.973,1455.3
629.501,1316.2
630.029,1191.6
630.558,1163.0
631.086,1025.9
631.614,958.9
632.142,940.8
632.67,933.6
633.198,927.1
633.726,923.1
634.254,922.7
634.782,920.4
635.31,918.7
635.838,924.3
636.365,923.2
636.893,920.3
637.421,919.0
637.948,915.2
638.476,922.5
639.003,920.2
639.531,917.2
640.058,918.9
640.585,924.8
641.113,928.3
641.64,920.8
642.167,924.7
642.694,924.6
643.221,921.6
643.748,926.5
644.275,925.9
644.802,924.4
645.329,925.8
645.856,918.7
646.382,923.1
646.909,923.2
647.436,922.7
647.962,921.0
648.489,921.0
649.016,919.7
649.542,919.2
650.069,918.5
650.595,920.7
651.121,919.0
651.648,920.8
652.174,918.5
652.7,915.0
653.227,919.2
653.753,917.0
654.279,916.4
654.805,915.3
655.331,911.1
655.857,912.9
656.383,909.8
656.909,910.6
657.435,906.4
657.961,909.0
658.487,906.3
659.013,907.2
659.538,900.9
660.064,904.5
660.59,900.3
661.116,898.0
661.641,893.6
662.167,894.9
662.692,892.3
663.087,891.3