File: spectra/VLFR_02-HDPE_bio_Raman_264e47a9.csv
nm,Intensity
526.495,828.9
527.042,829.85
527.589,829.45
528.136,829.4
528.682,829.35
529.229,828.45
529.775,830.4
530.321,828.9
530.867,828.85
531.413,828.75
531.959,830.35
532.505,828.95
533.051,828.5
533.596,830.0
534.141,870.95
534.687,865.65
535.232,858.55
535.777,852.8
536.321,851.75
536.866,847.9
537.41,848.45
537.955,849.3
538.499,848.0
539.043,845.55
539.587,843.75
540.131,842.3
540.675,843.45
541.219,843.6
541.762,842.45
542.305,840.95
542.849,843.3
543.392,841.5
543.935,841.5
544.478,841.35
545.02,841.05
545.563,840.55
546.106,840.9
546.648,840.5
547.19,841.55
547.732,841.4
548.274,839.5
548.816,841.3
549.358,840.2
549.9,841.05
550.441,841.15
550.983,840.75
551.524,841.35
552.065,841.6
552.606,841.65
553.147,841.05
553.688,841.9
554.229,843.55
554.769,843.55
555.31,844.2
555.85,844.85
556.391,845.4
556.931,847.65
557.471,849.4
558.011,849.35
558.551,850.0
559.09,851.55
559.63,848.9
560.169,850.2
560.709,849.1
561.248,851.45
561.787,851.6
562.326,852.75
562.865,856.9
563.404,858.55
563.943,886.65
564.481,868.6
565.02,870.75
565.558,866.95
566.096,912.45
566.634,872.75
567.172,867.15
567.71,868.3
568.248,867.65
568.786,871.6
569.324,873.35
569.861,880.1
570.399,882.7
570.936,888.65
571.473,938.9
572.01,910.7
572.547,905.2
573.084,907.05
573.621,915.8
574.158,926.5
574.694,927.7
575.231,939.35
575.767,979.05
576.303,1014.2
576.84,1010.85
577.376,1006.2
577.912,1006.05
578.448,1024.6
578.984,1044.95
579.519,1064.35
580.055,1078.65
580.59,1109.45
581.126,1122.65
581.661,1151.45
582.196,1174.5
582.731,1195.95
583.267,1215.05
583.801,1239.0
584.336,1263.0
584.871,1284.55
585.406,1309.8
585.94,1337.75
586.475,1376.25
587.009,1408.3
587.543,1446.35
588.078,1475.5
588.612,1494.55
589.146,1527.55
589.68,1558.9
590.214,1591.75
590.747,1622.0
591.281,1661.25
591.815,1672.4
592.348,1693.0
592.881,1696.3
593.415,1713.25
593.948,1722.7
594.481,1731.35
595.014,1761.05
595.547,1773.35
596.08,1789.05
596.613,1804.3
597.146,1829.4
597.678,1843.45
598.211,1866.7
598.743,1889.75
599.276,1899.95
599.808,1915.9
600.34,1900.7
600.872,1906.8
601.404,1884.95
601.936,1871.2
602.468,1855.2
603.0,1831.8
603.532,1797.85
604.064,1773.35
604.595,1722.2
605.127,1673.55
605.658,1627.9
606.189,1585.5
606.721,1558.9
607.252,1528.15
607.783,1507.25
608.314,1474.5
608.845,1454.3
609.376,1438.1
609.907,1412.0
610.438,1397.5
610.968,1376.65
611.499,1365.1
612.029,1347.15
612.56,1343.3
613.09,1336.25
613.621,1322.85
614.151,1310.45
614.681,1291.05
615.211,1281.95
615.741,1271.95
616.271,1260.0
616.801,1252.6
617.331,1237.05
617.861,1229.9
618.39,1219.5
618.92,1215.0
619.45,1199.95
619.979,1199.55
620.509,1192.65
621.038,1187.9
621.567,1183.4
622.096,1189.25
622.626,1185.1
623.155,1177.5
623.684,1172.5
624.213,1168.95
624.742,1164.05
625.271,1163.25
625.799,1168.15
626.328,1170.1
626.857,1248.8
627.386,1418.3
627.914,1318.95
628.443,1371.15
628.971,1345.35
629.5,1315.95
630.028,1276.1
630.556,1272.75
631.084,1226.05
631.613,1197.05
632.141,1186.15
632.669,1182.75
633.197,1182.45
633.725,1184.85
634.253,1189.65
634.781,1192.2
635.308,1195.05
635.836,1203.55
636.364,1206.2
636.891,1216.95
637.419,1214.4
637.947,1222.55
638.474,1230.15
639.002,1236.35
639.529,1238.65
640.056,1245.45
640.584,1255.6
641.111,1263.4
641.638,1267.7
642.165,1278.2
642.692,1280.9
643.219,1281.45
643.746,1281.05
644.273,1282.0
644.8,1280.6
645.327,1283.4
645.854,1285.6
646.381,1287.75
646.908,1287.0
647.434,1287.35
647.961,1280.8
648.488,1287.35
649.014,1275.35
649.541,1274.9
650.067,1271.7
650.594,1265.55
651.12,1270.65
651.646,1272.5
652.173,1271.1
652.699,1272.0
653.225,1267.35
653.752,1258.45
654.278,1263.9
654.804,1262.4
655.33,1252.5
655.856,1251.15
656.382,1233.5
656.908,1237.1
657.434,1223.95
657.96,1215.3
658.486,1200.8
659.012,1192.6
659.538,1180.75
660.064,1172.5
660.589,1154.5
661.115,1137.7
661.641,1123.85
662.166,1113.5
662.692,1101.9
663.086,1098.25