File: spectra/VLFR_07-PET_nobio_Raman_3c191442.csv
nm,Intensity
791.377,11894.0
792.477,10844.6
793.576,10132.7
794.676,9496.34
795.775,9584.52
796.874,9487.86
797.973,9428.98
799.072,9533.76
800.171,9435.98
801.27,9429.04
802.368,9399.22
803.467,9196.24
804.565,9105.1
805.664,9009.82
806.762,8938.8
807.86,8916.72
808.958,8753.08
810.056,8594.28
811.153,8639.18
812.251,8518.92
813.349,8364.04
814.446,8311.08
815.543,8287.7
816.64,8279.22
817.737,8040.68
818.834,8038.86
819.931,7973.66
821.028,7928.2
822.125,7845.4
823.221,7767.08
824.317,7681.18
825.414,7918.2
826.51,7683.24
827.606,7635.34
828.702,7500.0
829.797,7556.38
830.893,7668.9
831.988,7431.1
833.084,7310.82
834.179,7267.14
835.274,7230.64
836.369,7260.36
837.464,7426.92
838.559,7289.44
839.654,7261.42
840.748,7387.2
841.843,7480.26
842.937,7207.52
844.031,7016.5
845.125,6941.98
846.219,6746.58
847.313,6818.76
848.407,6615.98
849.5,6654.42
850.593,6650.8
851.687,6603.12
852.78,6543.38
853.873,6488.54
854.966,6447.84
856.059,6399.98
857.151,6369.28
858.244,6440.34
859.336,6586.44
860.428,6525.6
861.52,6301.66
862.612,6166.86
863.704,6203.2
864.796,6234.08
865.888,6072.54
866.979,6057.76
868.07,5996.32
869.162,6066.92
870.253,6064.08
871.344,6183.04
872.434,6358.56
873.525,6398.38
874.615,6124.1
875.706,5904.84
876.796,5837.74
877.886,5806.6
878.976,5772.64
880.066,5761.2
881.156,5728.4
882.245,5735.5
883.335,5645.82
884.424,5687.26
885.513,5679.28
886.602,5591.12
887.691,5559.88
888.78,5474.98
889.868,5477.1
890.957,5461.86
892.045,5471.28
893.133,5468.72
894.221,5321.16
895.309,5346.3
896.397,5344.38
897.484,5627.96
898.571,6134.9
899.659,5662.68
900.746,5206.42
901.833,5187.1
902.92,5110.7
904.006,5128.64
905.093,5120.7
906.179,5209.92
907.266,5637.5
908.352,5645.88
909.438,5271.78
910.523,4991.36
911.609,4938.52
912.695,4882.16
913.78,4837.58
914.865,4821.08
915.95,4797.38
917.035,4766.74
918.12,4748.82
919.204,4726.32
920.289,4684.36
921.373,4669.74
922.457,4609.04
923.541,4588.54
924.625,4565.46
925.709,4571.7
926.792,4519.18
927.876,4508.98
928.959,4482.24
930.042,4459.22
931.125,4428.02
932.208,4410.48
933.29,4392.4
934.373,4357.54
935.455,4352.1
936.537,4352.14
937.619,4302.84
938.701,4297.9
939.782,4263.9
940.864,4279.54
941.945,4261.26
943.026,4231.8
944.107,4221.74
945.188,4201.64
946.269,4169.04
947.349,4184.72
948.43,4149.06
949.51,4159.14
950.59,4119.32
951.67,4120.44
952.75,4095.5
953.829,4099.02
954.909,4092.5
955.988,4058.56
957.067,4067.68
958.146,4055.88
959.224,4039.54
960.303,4025.96
961.381,4026.04
962.459,4013.82
963.537,4002.32
964.615,3995.78
965.693,3984.58
966.771,3981.72
967.848,3978.92
968.925,3972.9
970.002,3950.36
971.079,3960.54
972.156,3948.52
973.232,3935.22
974.309,3934.7
975.385,3930.0
976.461,3918.64
977.537,3912.88
978.612,3905.42
979.688,3904.08
980.763,3893.54
981.838,3891.18
982.913,3890.96
983.988,3883.06
985.063,3874.28
986.137,3876.98
987.211,3873.96
988.285,3862.04
989.359,3863.56
990.433,3852.94
991.506,3849.84
992.58,3843.44
993.653,3842.04
994.726,3835.8
995.799,3830.84
996.872,3834.78
997.944,3828.8
999.016,3820.8
1000.09,3823.26
1001.16,3817.14
1002.23,3813.06
1003.3,3810.24
1004.38,3808.5
1005.45,3807.82
1006.52,3801.92
1007.59,3799.14
1008.66,3795.38
1009.73,3796.36
1010.8,3789.54
1011.87,3788.9
1012.94,3789.2
1014.01,3785.42
1015.08,3786.46
1016.15,3783.7
1017.22,3782.56
1018.29,3780.06
1019.36,3779.56
1020.42,3778.48
1021.49,3786.26
1022.56,3789.86
1023.63,3784.8
1024.7,3780.06
1025.76,3772.34
1026.83,3769.94
1027.9,3767.38
1028.97,3761.5
1030.03,3760.04
1031.1,3757.32
1032.17,3758.6
1033.23,3759.56
1034.3,3762.98
1035.36,3763.72
1036.43,3761.52
1037.5,3756.64
1038.56,3751.72
1039.63,3750.22
1040.69,3749.4
1041.76,3748.1
1042.82,3746.54
1043.89,3745.64
1044.95,3744.66
1046.01,3743.52
1047.08,3744.06
1048.14,3742.78
1049.2,3742.88
1050.27,3742.54
1051.33,3742.98
1052.39,3742.84
1053.46,3742.44
1054.52,3740.62
1055.58,3741.92
1056.64,3739.78
1057.7,3739.98
1058.77,3740.04
1059.83,3740.8
1060.89,3739.88
1061.95,3739.76
1063.01,3738.94
1064.07,3739.54
1065.13,3738.5
1066.19,3739.0
1067.25,3738.52
1068.05,3738.02