File: spectra/VLFR_08-PLA_nobio_Raman_931968ca.csv
nm,Intensity
526.486,829.7
527.033,829.7
527.579,830.2
528.126,830.5
528.672,829.1
529.219,829.9
529.765,829.7
530.311,829.1
530.857,829.2
531.403,829.4
531.948,834.1
532.494,831.5
533.039,829.8
533.585,830.6
534.13,898.6
534.675,901.6
535.22,898.2
535.764,888.2
536.309,889.7
536.854,882.0
537.398,887.8
537.942,893.8
538.486,905.4
539.03,908.7
539.574,904.1
540.118,898.8
540.662,894.5
541.205,888.5
541.749,893.4
542.292,897.4
542.835,899.4
543.378,896.6
543.921,905.1
544.464,932.3
545.006,970.6
545.549,947.6
546.091,905.9
546.634,897.3
547.176,894.1
547.718,891.4
548.26,896.8
548.802,906.5
549.343,930.2
549.885,960.2
550.426,947.5
550.968,910.5
551.509,899.1
552.05,891.4
552.591,889.9
553.132,884.2
553.673,885.0
554.214,880.5
554.754,883.5
555.295,878.0
555.835,876.6
556.375,877.1
556.915,875.8
557.455,877.4
557.995,877.6
558.535,876.4
559.075,879.2
559.614,877.3
560.154,877.7
560.693,879.2
561.232,889.3
561.772,882.3
562.311,879.5
562.85,879.4
563.388,883.9
563.927,883.4
564.466,883.2
565.004,891.7
565.543,887.0
566.081,888.8
566.619,882.3
567.157,880.7
567.695,882.9
568.233,878.2
568.771,882.4
569.309,884.1
569.846,885.6
570.384,884.0
570.921,884.5
571.458,883.5
571.995,886.5
572.532,885.8
573.069,887.9
573.606,891.9
574.143,890.9
574.68,891.5
575.216,892.3
575.753,890.1
576.289,892.2
576.825,890.1
577.361,891.5
577.897,889.0
578.433,890.4
578.969,890.9
579.505,889.1
580.041,886.7
580.576,889.9
581.112,892.4
581.647,891.0
582.183,889.8
582.718,892.8
583.253,891.3
583.788,894.3
584.323,889.6
584.858,888.4
585.392,893.1
585.927,890.7
586.462,892.6
586.996,892.9
587.53,889.7
588.065,893.3
588.599,893.0
589.133,888.6
589.667,889.3
590.201,890.8
590.735,893.6
591.268,894.9
591.802,892.5
592.335,891.7
592.869,890.7
593.402,893.8
593.936,892.5
594.469,891.7
595.002,894.2
595.535,894.5
596.068,891.7
596.601,898.2
597.133,897.8
597.666,896.0
598.199,895.5
598.731,897.1
599.264,894.3
599.796,896.7
600.328,895.8
600.86,893.4
601.393,895.6
601.925,894.3
602.457,897.8
602.988,896.2
603.52,896.5
604.052,897.5
604.583,899.7
605.115,895.6
605.646,896.5
606.178,897.1
606.709,893.3
607.24,899.2
607.771,898.7
608.302,896.9
608.833,897.8
609.364,896.4
609.895,896.3
610.426,895.8
610.957,893.1
611.487,897.4
612.018,897.3
612.548,900.4
613.078,898.1
613.609,901.3
614.139,902.6
614.669,902.4
615.199,900.7
615.729,898.7
616.259,898.6
616.789,902.8
617.319,901.7
617.849,901.4
618.378,901.5
618.908,903.5
619.437,904.3
619.967,901.7
620.496,905.5
621.025,901.8
621.555,904.9
622.084,902.9
622.613,902.6
623.142,905.1
623.671,907.6
624.2,908.6
624.729,904.2
625.258,908.6
625.786,910.7
626.315,913.5
626.844,908.1
627.372,913.8
627.901,914.2
628.429,921.5
628.957,927.8
629.486,927.2
630.014,921.9
630.542,921.9
631.07,922.6
631.598,922.0
632.126,919.6
632.654,919.8
633.182,912.5
633.71,910.1
634.237,906.4
634.765,912.3
635.293,908.2
635.82,908.9
636.348,909.4
636.875,905.1
637.403,906.4
637.93,905.0
638.458,903.9
638.985,907.8
639.512,903.3
640.039,903.7
640.566,904.6
641.093,910.9
641.62,905.8
642.147,905.1
642.674,903.1
643.201,908.1
643.728,904.7
644.255,904.8
644.781,907.4
645.308,906.5
645.835,904.7
646.361,906.4
646.888,904.4
647.414,909.0
647.941,911.5
648.467,911.2
648.993,903.7
649.52,907.5
650.046,903.7
650.572,905.9
651.098,901.3
651.625,906.0
652.151,904.7
652.677,904.2
653.203,903.1
653.729,901.1
654.255,905.5
654.78,900.5
655.306,900.2
655.832,903.8
656.358,897.3
656.884,897.9
657.409,900.0
657.935,899.9
658.461,899.8
658.986,900.8
659.512,902.6
660.037,898.5
660.563,897.7
661.088,895.4
661.614,899.1
662.139,895.7
662.664,896.6
663.058,899.6