File: spectra/VLFR_02-HDPE_bio_Raman_c3925eb5.csv
nm,Intensity
526.549,832.35
527.096,831.75
527.643,831.75
528.19,831.4
528.737,832.2
529.283,831.85
529.83,831.7
530.376,831.75
530.922,832.2
531.468,831.7
532.014,843.45
532.559,831.75
533.105,832.25
533.65,832.25
534.196,883.2
534.741,879.9
535.286,872.85
535.83,862.85
536.375,856.65
536.92,854.0
537.464,852.6
538.008,853.8
538.553,852.5
539.097,849.15
539.641,847.8
540.184,848.7
540.728,847.15
541.271,848.4
541.815,846.85
542.358,847.1
542.901,846.2
543.444,848.35
543.987,848.35
544.53,846.5
545.072,847.7
545.615,846.75
546.157,847.9
546.699,848.1
547.242,846.6
547.784,847.0
548.325,846.2
548.867,846.6
549.409,847.9
549.95,847.05
550.492,847.65
551.033,846.65
551.574,847.35
552.115,848.65
552.656,847.7
553.197,849.6
553.737,848.55
554.278,850.65
554.818,850.8
555.358,851.0
555.899,850.75
556.439,852.45
556.979,853.7
557.518,853.45
558.058,856.4
558.598,855.35
559.137,854.45
559.677,852.6
560.216,852.8
560.755,854.85
561.294,852.65
561.833,853.65
562.372,856.85
562.91,856.75
563.449,862.1
563.987,926.3
564.526,870.65
565.064,866.55
565.602,866.0
566.14,917.3
566.678,865.05
567.216,862.9
567.754,865.7
568.291,862.15
568.829,860.7
569.366,862.55
569.904,865.75
570.441,867.55
570.978,872.25
571.515,999.55
572.052,886.1
572.589,873.45
573.125,868.95
573.662,872.95
574.199,878.55
574.735,874.9
575.271,879.35
575.807,906.35
576.344,997.3
576.88,946.95
577.415,929.1
577.951,904.15
578.487,902.9
579.023,903.95
579.558,911.45
580.094,914.05
580.629,919.0
581.164,923.85
581.699,929.95
582.234,931.95
582.769,938.7
583.304,939.8
583.839,944.45
584.374,947.9
584.908,954.5
585.443,958.05
585.977,965.2
586.511,971.65
587.046,974.65
587.58,979.3
588.114,985.15
588.648,988.8
589.182,990.75
589.716,998.8
590.249,1003.3
590.783,1011.15
591.316,1012.7
591.85,1014.05
592.383,1019.5
592.917,1021.35
593.45,1027.65
593.983,1032.3
594.516,1032.0
595.049,1035.4
595.582,1040.65
596.115,1042.5
596.647,1043.1
597.18,1048.8
597.712,1050.5
598.245,1054.4
598.777,1059.9
599.31,1061.45
599.842,1062.5
600.374,1065.0
600.906,1061.5
601.438,1058.05
601.97,1054.9
602.502,1053.55
603.034,1048.05
603.565,1052.6
604.097,1042.85
604.628,1038.8
605.16,1029.85
605.691,1028.5
606.223,1015.55
606.754,1012.1
607.285,1007.9
607.816,1003.4
608.347,1000.45
608.878,996.0
609.409,990.15
609.94,987.4
610.47,985.85
611.001,980.85
611.532,977.4
612.062,972.3
612.593,973.75
613.123,973.85
613.653,969.8
614.184,967.15
614.714,965.2
615.244,963.9
615.774,960.55
616.304,957.25
616.834,960.1
617.364,959.35
617.894,958.0
618.423,956.15
618.953,959.3
619.482,958.1
620.012,953.25
620.541,955.65
621.071,958.5
621.6,967.1
622.13,994.8
622.659,986.25
623.188,960.75
623.717,950.35
624.246,951.05
624.775,948.6
625.304,949.9
625.833,961.7
626.362,988.5
626.89,1261.2
627.419,1569.15
627.948,1316.85
628.476,1604.1
629.005,1335.55
629.533,1235.9
630.061,1143.55
630.59,1115.7
631.118,1015.5
631.646,963.9
632.175,955.65
632.703,952.15
633.231,952.25
633.759,950.6
634.287,948.85
634.815,950.5
635.342,947.8
635.87,949.05
636.398,950.65
636.926,950.05
637.453,948.95
637.981,946.75
638.509,950.05
639.036,950.4
639.563,950.4
640.091,954.2
640.618,955.65
641.146,957.8
641.673,956.7
642.2,957.15
642.727,961.15
643.254,959.15
643.781,962.05
644.309,963.3
644.836,959.1
645.362,963.85
645.889,959.4
646.416,961.2
646.943,964.0
647.47,963.2
647.997,968.65
648.523,960.05
649.05,960.9
649.577,963.4
650.103,961.4
650.63,960.9
651.156,958.05
651.683,960.65
652.209,955.5
652.735,959.8
653.262,958.65
653.788,961.2
654.314,956.65
654.841,957.2
655.367,953.9
655.893,954.5
656.419,950.7
656.945,949.3
657.471,949.65
657.997,950.35
658.523,944.5
659.049,944.9
659.575,942.6
660.101,940.6
660.627,938.35
661.153,936.5
661.679,932.25
662.205,928.25
662.731,925.75
663.125,925.35