File: spectra/VLFR_08-PLA_bio_Raman_bb6e4e08.csv
nm,Intensity
526.495,829.7
527.042,829.0
527.589,829.1
528.136,829.1
528.682,829.6
529.229,828.5
529.775,829.1
530.321,828.4
530.867,828.4
531.413,829.5
531.959,835.6
532.505,831.1
533.051,828.4
533.596,831.4
534.141,1035.7
534.687,986.4
535.232,949.3
535.777,930.9
536.321,922.9
536.866,918.7
537.41,909.1
537.955,912.6
538.499,897.6
539.043,894.5
539.587,890.8
540.131,885.1
540.675,900.8
541.219,907.2
541.762,896.1
542.305,892.5
542.849,894.3
543.392,914.6
543.935,923.2
544.478,904.7
545.02,890.1
545.563,887.3
546.106,887.2
546.648,886.7
547.19,887.3
547.732,890.6
548.274,885.3
548.816,894.0
549.358,892.3
549.9,890.3
550.441,890.6
550.983,892.8
551.524,900.1
552.065,897.3
552.606,903.7
553.147,899.9
553.688,900.6
554.229,911.2
554.769,897.9
555.31,891.9
555.85,887.3
556.391,889.6
556.931,896.7
557.471,909.9
558.011,1028.4
558.551,932.5
559.09,904.6
559.63,906.2
560.169,896.9
560.709,902.5
561.248,892.4
561.787,892.4
562.326,898.6
562.865,905.6
563.404,937.2
563.943,919.7
564.481,910.0
565.02,926.0
565.558,922.7
566.096,955.4
566.634,922.7
567.172,899.0
567.71,906.1
568.248,910.7
568.786,908.5
569.324,907.1
569.861,906.4
570.399,907.0
570.936,906.7
571.473,931.5
572.01,929.6
572.547,923.1
573.084,922.2
573.621,927.2
574.158,920.5
574.694,933.3
575.231,912.6
575.767,912.8
576.303,930.7
576.84,992.0
577.376,930.4
577.912,911.5
578.448,913.7
578.984,911.8
579.519,912.6
580.055,908.2
580.59,906.9
581.126,909.2
581.661,911.2
582.196,906.3
582.731,912.4
583.267,914.3
583.801,912.5
584.336,911.4
584.871,914.5
585.406,913.9
585.94,915.9
586.475,931.8
587.009,963.8
587.543,984.5
588.078,937.5
588.612,914.3
589.146,911.9
589.68,911.1
590.214,912.9
590.747,913.4
591.281,906.4
591.815,910.5
592.348,912.5
592.881,912.1
593.415,910.6
593.948,910.6
594.481,909.3
595.014,911.2
595.547,909.9
596.08,909.6
596.613,913.9
597.146,912.0
597.678,915.6
598.211,913.7
598.743,909.9
599.276,911.7
599.808,911.8
600.34,912.5
600.872,910.8
601.404,909.0
601.936,908.1
602.468,909.4
603.0,909.6
603.532,908.5
604.064,907.8
604.595,910.7
605.127,909.2
605.658,906.2
606.189,904.6
606.721,909.3
607.252,905.8
607.783,907.7
608.314,911.8
608.845,907.9
609.376,906.4
609.907,907.2
610.438,907.0
610.968,903.8
611.499,908.4
612.029,908.3
612.56,908.0
613.09,909.1
613.621,909.9
614.151,909.0
614.681,912.5
615.211,905.6
615.741,910.2
616.271,911.0
616.801,907.6
617.331,909.3
617.861,911.1
618.39,911.7
618.92,905.6
619.45,911.9
619.979,910.6
620.509,912.1
621.038,908.3
621.567,908.1
622.096,910.1
622.626,916.9
623.155,923.9
623.684,919.6
624.213,908.7
624.742,909.2
625.271,907.5
625.799,907.6
626.328,906.8
626.857,908.9
627.386,909.1
627.914,921.1
628.443,991.3
628.971,988.0
629.5,978.1
630.028,984.6
630.556,1049.9
631.084,1473.9
631.613,1188.0
632.141,1055.7
632.669,1030.1
633.197,1136.1
633.725,1087.5
634.253,982.3
634.781,931.2
635.308,916.3
635.836,910.0
636.364,907.1
636.891,905.1
637.419,901.1
637.947,903.7
638.474,899.7
639.002,901.1
639.529,898.9
640.056,900.1
640.584,902.3
641.111,900.2
641.638,901.8
642.165,897.8
642.692,900.9
643.219,899.6
643.746,895.2
644.273,896.1
644.8,894.9
645.327,891.9
645.854,892.2
646.381,894.4
646.908,891.8
647.434,893.3
647.961,892.0
648.488,891.1
649.014,891.6
649.541,889.9
650.067,889.8
650.594,888.0
651.12,892.1
651.646,892.0
652.173,891.6
652.699,885.5
653.225,889.0
653.752,883.7
654.278,885.4
654.804,886.8
655.33,885.6
655.856,886.0
656.382,887.4
656.908,888.7
657.434,887.6
657.96,887.1
658.486,886.2
659.012,886.7
659.538,885.3
660.064,883.9
660.589,881.1
661.115,885.1
661.641,883.6
662.166,884.6
662.692,884.0
663.086,879.8