File: spectra/VLFR_09-PET_bio_Raman_045d928a.csv
nm,Intensity
528.65,1854.1
529.155,1851.45
529.66,1851.25
530.165,1852.4
530.67,1852.35
531.175,1851.8
531.68,1874.45
532.185,2861.85
532.69,1858.1
533.194,1862.7
533.699,2839.4
534.204,5506.75
534.708,5286.9
535.213,5175.95
535.717,4978.8
536.222,4873.7
536.726,4913.25
537.231,4924.65
537.735,5083.75
538.239,5115.75
538.743,5089.2
539.247,5225.9
539.751,5370.65
540.255,5396.0
540.759,5410.85
541.263,5402.7
541.767,5428.15
542.271,5584.75
542.775,5628.45
543.279,5723.4
543.782,5730.05
544.286,5821.3
544.789,5828.55
545.293,5953.4
545.796,6045.0
546.3,6086.75
546.803,6113.1
547.306,6249.9
547.81,6230.8
548.313,6373.15
548.816,6409.0
549.319,6561.75
549.822,6451.2
550.325,6705.55
550.828,6984.5
551.331,6839.25
551.834,6889.1
552.337,6975.95
552.839,7178.1
553.342,6960.55
553.844,7076.05
554.347,7195.45
554.849,7205.5
555.352,7351.7
555.854,7465.6
556.357,7449.85
556.859,7588.2
557.361,7988.1
557.863,8017.7
558.365,7796.0
558.867,7737.0
559.369,7667.45
559.871,7684.95
560.373,7871.05
560.875,7925.55
561.377,8059.65
561.878,8182.2
562.38,8120.75
562.881,8274.05
563.383,8282.95
563.884,8343.85
564.386,8511.3
564.887,8826.25
565.388,9031.6
565.89,9051.1
566.391,8841.35
566.892,8848.95
567.393,8867.7
567.894,9181.85
568.395,9005.8
568.896,9134.95
569.396,9170.55
569.897,9435.35
570.398,9496.7
570.898,10113.2
571.399,10689.7
571.9,10038.8
572.4,9809.0
572.9,9668.7
573.401,9655.7
573.901,9805.35
574.401,9740.8
574.901,9918.45
575.401,10172.3
575.901,10111.6
576.401,10364.8
576.901,10119.7
577.401,10162.7
577.901,10112.2
578.4,10192.9
578.9,10184.0
579.399,10301.3
579.899,10543.2
580.398,10483.9
580.898,10603.5
581.397,10662.4
581.896,13039.8
582.395,12453.0
582.895,10531.3
583.394,10552.9
583.893,10796.0
584.391,10619.6
584.89,10701.3
585.389,11014.6
585.888,12925.1
586.386,12020.2
586.885,10920.1
587.384,10954.8
587.882,10929.6
588.38,10763.4
588.879,10702.8
589.377,10720.5
589.875,10781.7
590.373,10795.0
590.871,10916.1
591.369,10836.5
591.867,10949.0
592.365,11035.7
592.863,10924.5
593.361,10868.5
593.858,11049.3
594.356,10955.3
594.853,11105.3
595.351,11036.3
595.848,10939.0
596.345,11209.4
596.843,11351.6
597.34,11134.1
597.837,11170.8
598.334,11317.6
598.831,11183.5
599.328,11494.0
599.824,11401.1
600.321,11394.1
600.818,11622.6
601.314,11538.0
601.811,11584.8
602.307,11666.5
602.804,11670.9
603.3,11730.2
603.796,11701.8
604.293,11800.7
604.789,11852.3
605.285,11975.6
605.781,11957.6
606.277,12120.9
606.772,12226.8
607.268,12243.5
607.764,12261.2
608.259,12260.8
608.755,12461.0
609.25,12696.3
609.746,12490.3
610.241,12591.5
610.736,12892.5
611.231,12993.8
611.727,13039.4
612.222,13062.1
612.716,13225.2
613.211,13034.8
613.706,13125.3
614.201,13306.4
614.695,13663.9
615.19,13555.0
615.684,13734.0
616.179,13667.2
616.673,13988.2
617.168,14070.9
617.662,14294.8
618.156,14526.1
618.65,14587.2
619.144,14657.0
619.638,14708.7
620.131,14950.0
620.625,15053.5
621.119,15145.5
621.612,15363.8
622.106,14989.0
622.599,15083.6
623.093,15464.7
623.586,15610.3
624.079,15689.3
624.572,15785.7
625.065,16285.8
625.558,15923.4
626.051,16445.8
626.544,15968.3
627.037,16300.3
627.529,16400.3
628.022,16479.7
628.514,16831.3
629.007,16444.0
629.499,17169.9
629.991,16832.2
630.483,17191.1
630.976,17238.1
631.468,17280.1
631.959,17595.8
632.451,17670.3
632.943,17955.3
633.435,17889.8
633.926,17697.1
634.418,17280.2
634.909,17555.8
635.401,18026.7
635.892,17362.5
636.383,18160.5
636.874,17942.3
637.365,17282.1
637.856,17730.7
638.347,17822.0
638.838,17701.5
639.329,17733.4
639.819,17566.3
640.31,17800.0
640.8,17387.9
641.291,17538.8
641.781,17532.0
642.271,17623.2
642.761,17239.3
643.251,17236.7
643.741,17208.1
644.231,17570.3
644.721,17092.0
645.211,17186.1
645.7,17237.4
646.19,16774.1
646.679,17205.4
647.169,16243.0
647.658,17243.3
648.147,16772.9
648.636,16899.9
649.125,16389.3
649.614,16492.3
650.103,16732.7
650.592,16956.0
651.08,16535.9
651.569,16319.0
652.058,16160.0
652.546,16141.8
653.034,16092.8
653.523,15824.5
654.011,15775.4
654.499,15319.2
654.987,15530.7
655.475,15136.5
655.963,15249.5
656.45,15132.8
656.938,14492.7
657.425,14858.0
657.913,14670.7
658.4,14478.8
658.888,14362.0
659.375,14113.5
659.862,13950.8
660.349,14254.5
660.836,13872.0
661.079,13632.0