File: spectra/VLFR_01-LDPE_nobio_Raman_e12a6ef7.csv
nm,Intensity
526.486,830.6
527.033,830.2
527.579,829.1
528.126,829.5
528.672,830.8
529.219,830.1
529.765,831.1
530.311,830.8
530.857,831.6
531.403,830.4
531.948,834.4
532.494,832.4
533.039,830.9
533.585,830.3
534.13,896.4
534.675,890.3
535.22,875.7
535.764,865.7
536.309,858.7
536.854,854.6
537.398,853.2
537.942,853.4
538.486,851.3
539.03,848.0
539.574,845.0
540.118,846.2
540.662,845.2
541.205,842.6
541.749,843.4
542.292,845.5
542.835,844.7
543.378,843.7
543.921,844.3
544.464,842.7
545.006,844.4
545.549,842.3
546.091,843.7
546.634,842.7
547.176,844.0
547.718,843.7
548.26,843.8
548.802,843.5
549.343,843.3
549.885,842.5
550.426,843.2
550.968,844.9
551.509,844.6
552.05,842.6
552.591,843.1
553.132,845.8
553.673,846.9
554.214,848.6
554.754,848.1
555.295,849.4
555.835,850.8
556.375,851.2
556.915,850.9
557.455,854.3
557.995,854.9
558.535,857.1
559.075,853.3
559.614,856.1
560.154,851.6
560.693,852.4
561.232,852.9
561.772,854.5
562.311,855.5
562.85,860.3
563.388,862.1
563.927,938.4
564.466,882.6
565.004,879.5
565.543,872.1
566.081,1004.1
566.619,876.3
567.157,866.0
567.695,867.0
568.233,861.3
568.771,860.0
569.309,861.1
569.846,864.3
570.384,864.4
570.921,873.4
571.458,1000.2
571.995,897.9
572.532,875.6
573.069,868.3
573.606,868.9
574.143,880.2
574.68,871.3
575.216,880.8
575.753,968.5
576.289,1002.5
576.825,954.1
577.361,931.0
577.897,897.2
578.433,894.0
578.969,899.0
579.505,904.8
580.041,909.9
580.576,915.2
581.112,924.5
581.647,929.1
582.183,933.7
582.718,944.7
583.253,948.7
583.788,954.9
584.323,955.3
584.858,958.6
585.392,961.3
585.927,966.9
586.462,970.0
586.996,967.0
587.53,970.8
588.065,973.4
588.599,976.8
589.133,970.3
589.667,972.8
590.201,974.8
590.735,972.2
591.268,977.9
591.802,981.8
592.335,980.9
592.869,985.7
593.402,982.6
593.936,983.3
594.469,988.2
595.002,990.8
595.535,991.9
596.068,991.9
596.601,992.8
597.133,1005.6
597.666,1003.7
598.199,1003.0
598.731,1009.1
599.264,1013.2
599.796,1016.7
600.328,1018.2
600.86,1017.3
601.393,1020.4
601.925,1021.6
602.457,1017.3
602.988,1014.0
603.52,1016.6
604.052,1009.8
604.583,1006.2
605.115,1002.0
605.646,998.5
606.178,991.2
606.709,989.2
607.24,977.0
607.771,976.1
608.302,974.4
608.833,973.8
609.364,967.2
609.895,966.2
610.426,961.0
610.957,957.8
611.487,960.6
612.018,953.9
612.548,948.0
613.078,949.4
613.609,945.4
614.139,947.9
614.669,944.2
615.199,940.1
615.729,937.5
616.259,941.2
616.789,937.9
617.319,939.6
617.849,943.4
618.378,937.8
618.908,937.2
619.437,939.1
619.967,940.0
620.496,935.0
621.025,942.5
621.555,951.9
622.084,974.4
622.613,969.6
623.142,945.1
623.671,935.8
624.2,935.6
624.729,933.0
625.258,936.5
625.786,943.1
626.315,970.3
626.844,1197.9
627.372,1735.2
627.901,1381.1
628.429,1556.1
628.957,1494.3
629.486,1358.9
630.014,1215.2
630.542,1191.2
631.07,1054.9
631.598,968.7
632.126,952.3
632.654,942.0
633.182,937.7
633.71,933.5
634.237,930.3
634.765,928.6
635.293,928.0
635.82,930.2
636.348,927.3
636.875,928.8
637.403,925.0
637.93,920.6
638.458,923.5
638.985,921.2
639.512,920.2
640.039,922.4
640.566,921.6
641.093,919.5
641.62,922.4
642.147,921.9
642.674,918.8
643.201,917.6
643.728,918.6
644.255,917.6
644.781,916.6
645.308,918.2
645.835,918.7
646.361,920.1
646.888,923.0
647.414,917.9
647.941,919.3
648.467,920.7
648.993,919.6
649.52,917.2
650.046,922.8
650.572,915.4
651.098,917.4
651.625,914.9
652.151,918.7
652.677,916.7
653.203,917.3
653.729,918.2
654.255,913.8
654.78,914.0
655.306,916.9
655.832,921.1
656.358,916.5
656.884,914.8
657.409,916.5
657.935,915.5
658.461,911.6
658.986,914.1
659.512,906.1
660.037,907.4
660.563,905.7
661.088,904.5
661.614,900.5
662.139,900.2
662.664,900.2
663.058,899.4