File: spectra/VLFR_08-PLA_nobio_Raman_faf6741e.csv
nm,Intensity
526.486,830.6
527.033,830.8
527.579,831.0
528.126,830.2
528.672,828.5
529.219,829.8
529.765,829.8
530.311,830.2
530.857,831.1
531.403,829.8
531.948,835.0
532.494,831.0
533.039,831.9
533.585,831.1
534.13,1004.5
534.675,994.1
535.22,960.6
535.764,957.0
536.309,951.2
536.854,949.1
537.398,946.7
537.942,949.3
538.486,940.5
539.03,940.1
539.574,939.1
540.118,938.4
540.662,947.3
541.205,947.8
541.749,938.6
542.292,942.9
542.835,948.2
543.378,960.1
543.921,966.7
544.464,954.8
545.006,949.0
545.549,948.7
546.091,946.0
546.634,950.6
547.176,953.1
547.718,951.8
548.26,949.9
548.802,959.9
549.343,961.5
549.885,958.6
550.426,960.4
550.968,961.6
551.509,964.2
552.05,971.0
552.591,973.3
553.132,969.4
553.673,965.7
554.214,976.3
554.754,972.3
555.295,972.3
555.835,967.7
556.375,970.0
556.915,967.2
557.455,988.9
557.995,1056.1
558.535,1000.0
559.075,977.8
559.614,983.7
560.154,980.8
560.693,974.9
561.232,974.1
561.772,974.5
562.311,981.3
562.85,988.1
563.388,1007.0
563.927,1001.2
564.466,990.4
565.004,1004.4
565.543,1007.5
566.081,1025.2
566.619,1004.9
567.157,994.8
567.695,992.3
568.233,998.3
568.771,1000.8
569.309,1002.2
569.846,995.6
570.384,1002.2
570.921,1000.3
571.458,1015.4
571.995,1020.2
572.532,1013.5
573.069,1012.7
573.606,1020.5
574.143,1017.0
574.68,1018.8
575.216,1010.6
575.753,1011.9
576.289,1024.3
576.825,1064.9
577.361,1033.5
577.897,1016.1
578.433,1014.8
578.969,1014.3
579.505,1009.5
580.041,1012.5
580.576,1008.8
581.112,1018.5
581.647,1016.6
582.183,1011.1
582.718,1014.7
583.253,1017.0
583.788,1018.0
584.323,1019.7
584.858,1023.0
585.392,1016.5
585.927,1026.7
586.462,1028.9
586.996,1060.8
587.53,1073.7
588.065,1038.4
588.599,1019.3
589.133,1027.5
589.667,1022.6
590.201,1021.1
590.735,1020.7
591.268,1022.3
591.802,1018.6
592.335,1019.1
592.869,1015.7
593.402,1018.3
593.936,1018.3
594.469,1021.2
595.002,1018.4
595.535,1021.7
596.068,1018.4
596.601,1026.3
597.133,1020.1
597.666,1025.4
598.199,1020.8
598.731,1020.3
599.264,1018.3
599.796,1015.6
600.328,1017.8
600.86,1020.4
601.393,1020.2
601.925,1024.4
602.457,1018.8
602.988,1018.2
603.52,1017.7
604.052,1016.9
604.583,1016.8
605.115,1018.5
605.646,1008.3
606.178,1006.4
606.709,1011.1
607.24,1012.5
607.771,1009.1
608.302,1011.9
608.833,1009.9
609.364,1013.4
609.895,1011.1
610.426,1009.9
610.957,1004.8
611.487,1012.1
612.018,1011.6
612.548,1019.2
613.078,1010.9
613.609,1011.6
614.139,1014.0
614.669,1017.5
615.199,1010.0
615.729,1014.2
616.259,1014.9
616.789,1010.2
617.319,1018.5
617.849,1019.9
618.378,1009.7
618.908,1012.9
619.437,1006.4
619.967,1015.0
620.496,1006.0
621.025,1007.2
621.555,1014.1
622.084,1009.6
622.613,1016.4
623.142,1020.8
623.671,1015.6
624.2,1014.0
624.729,1014.4
625.258,1009.1
625.786,1006.4
626.315,1009.5
626.844,1007.4
627.372,1004.1
627.901,1015.2
628.429,1066.6
628.957,1054.9
629.486,1059.2
630.014,1062.6
630.542,1096.9
631.07,1404.5
631.598,1228.1
632.126,1114.1
632.654,1086.9
633.182,1164.2
633.71,1137.7
634.237,1055.5
634.765,1015.6
635.293,1006.7
635.82,1000.2
636.348,998.5
636.875,992.5
637.403,998.9
637.93,994.1
638.458,991.5
638.985,989.1
639.512,984.9
640.039,991.1
640.566,989.2
641.093,994.5
641.62,990.4
642.147,990.3
642.674,985.6
643.201,982.0
643.728,985.6
644.255,979.1
644.781,977.2
645.308,978.0
645.835,974.9
646.361,975.1
646.888,974.8
647.414,980.6
647.941,977.4
648.467,971.8
648.993,974.6
649.52,970.8
650.046,972.0
650.572,970.6
651.098,964.4
651.625,969.6
652.151,966.3
652.677,967.8
653.203,964.4
653.729,967.3
654.255,963.3
654.78,964.3
655.306,963.6
655.832,963.3
656.358,965.8
656.884,962.6
657.409,960.0
657.935,962.1
658.461,964.8
658.986,959.5
659.512,962.6
660.037,967.6
660.563,959.6
661.088,963.0
661.614,959.0
662.139,953.2
662.664,955.2
663.058,957.8