File: spectra/VLFR_08-PLA_nobio_Raman_f7f9e741.csv
nm,Intensity
526.5,828.1
527.047,828.4
527.594,829.3
528.14,828.4
528.687,830.6
529.233,829.2
529.779,829.1
530.325,830.0
530.871,828.7
531.417,829.4
531.962,829.4
532.508,829.9
533.053,829.4
533.599,829.2
534.144,906.8
534.689,894.7
535.234,887.9
535.778,880.2
536.323,872.9
536.867,870.9
537.412,867.8
537.956,866.3
538.5,864.6
539.044,864.3
539.588,862.8
540.132,862.9
540.675,865.2
541.219,867.1
541.762,864.7
542.305,864.2
542.848,862.0
543.391,867.1
543.934,873.3
544.477,866.4
545.02,863.8
545.562,864.6
546.105,861.8
546.647,864.8
547.189,867.9
547.731,865.1
548.273,865.0
548.815,868.0
549.356,868.1
549.898,866.3
550.439,869.7
550.981,865.7
551.522,869.0
552.063,871.0
552.604,875.6
553.145,872.3
553.686,873.1
554.226,871.9
554.767,871.5
555.307,873.3
555.848,870.2
556.388,870.9
556.928,873.5
557.468,875.8
558.008,896.2
558.547,875.2
559.087,875.0
559.626,877.5
560.166,878.1
560.705,875.4
561.244,873.5
561.783,875.1
562.322,877.6
562.861,877.6
563.4,884.6
563.939,883.0
564.477,880.4
565.015,884.2
565.554,882.6
566.092,892.1
566.63,886.3
567.168,882.2
567.706,883.1
568.244,882.8
568.781,883.9
569.319,887.0
569.857,885.7
570.394,886.9
570.931,886.0
571.468,892.2
572.005,887.8
572.542,890.7
573.079,893.3
573.616,891.8
574.153,891.9
574.689,894.1
575.226,891.2
575.762,891.7
576.298,895.3
576.834,906.2
577.371,896.4
577.907,889.2
578.442,886.1
578.978,888.3
579.514,884.9
580.049,888.4
580.585,888.5
581.12,886.6
581.656,887.4
582.191,890.8
582.726,889.5
583.261,894.7
583.796,892.2
584.331,890.9
584.865,889.7
585.4,889.9
585.935,886.2
586.469,889.9
587.004,897.0
587.538,902.1
588.072,893.1
588.606,886.7
589.14,887.2
589.674,886.4
590.208,887.2
590.742,887.1
591.275,888.3
591.809,889.2
592.342,885.9
592.876,885.3
593.409,886.4
593.942,885.3
594.476,886.6
595.009,885.8
595.542,887.0
596.075,888.7
596.607,890.4
597.14,888.4
597.673,888.5
598.205,885.6
598.738,890.8
599.27,887.4
599.803,888.0
600.335,890.0
600.867,888.6
601.399,888.4
601.931,886.5
602.463,885.5
602.995,887.3
603.527,886.2
604.058,887.5
604.59,884.9
605.122,884.5
605.653,883.8
606.184,885.9
606.716,885.8
607.247,884.8
607.778,883.6
608.309,884.3
608.84,883.5
609.371,882.7
609.902,883.2
610.433,884.0
610.964,883.2
611.494,883.6
612.025,889.0
612.556,888.6
613.086,886.5
613.616,888.1
614.147,885.1
614.677,884.0
615.207,886.7
615.737,886.9
616.267,884.2
616.797,885.9
617.327,887.6
617.857,887.2
618.387,888.4
618.917,888.1
619.446,887.8
619.976,885.5
620.505,886.3
621.035,885.8
621.564,885.5
622.093,887.2
622.623,886.2
623.152,887.2
623.681,891.2
624.21,889.5
624.739,890.2
625.268,888.8
625.797,886.9
626.326,890.0
626.855,890.9
627.383,893.3
627.912,895.6
628.441,908.5
628.969,914.2
629.498,907.4
630.026,912.8
630.554,921.1
631.083,989.9
631.611,946.9
632.139,918.6
632.667,908.9
633.195,927.1
633.724,919.0
634.252,898.3
634.779,888.5
635.307,889.1
635.835,886.2
636.363,883.1
636.891,883.0
637.418,879.4
637.946,882.5
638.474,882.9
639.001,882.0
639.529,883.9
640.056,882.2
640.583,880.9
641.111,882.5
641.638,880.6
642.165,878.7
642.692,881.3
643.22,881.0
643.747,879.6
644.274,878.7
644.801,878.4
645.328,880.3
645.854,878.0
646.381,880.4
646.908,876.8
647.435,876.9
647.962,877.0
648.488,874.8
649.015,878.8
649.542,877.8
650.068,875.9
650.595,874.0
651.121,873.5
651.648,876.4
652.174,873.6
652.7,874.7
653.227,876.1
653.753,872.5
654.279,875.2
654.805,876.1
655.331,875.5
655.858,873.5
656.384,873.3
656.91,873.8
657.436,875.0
657.962,871.5
658.488,875.5
659.013,873.9
659.539,871.7
660.065,872.1
660.591,872.3
661.117,873.8
661.642,872.7
662.168,870.0
662.694,872.8
663.088,872.6