File: spectra/VLFR_08-PLA_bio_Raman_fe216e7c.csv
nm,Intensity
526.495,826.9
527.042,827.1
527.589,828.3
528.136,827.4
528.682,826.1
529.229,827.9
529.775,826.4
530.321,826.2
530.867,825.7
531.413,827.6
531.959,832.5
532.505,829.2
533.051,826.5
533.596,828.8
534.141,969.1
534.687,938.3
535.232,913.8
535.777,902.6
536.321,897.6
536.866,898.6
537.41,892.8
537.955,892.5
538.499,883.6
539.043,883.5
539.587,878.1
540.131,876.0
540.675,888.7
541.219,890.7
541.762,885.4
542.305,876.5
542.849,876.9
543.392,894.3
543.935,899.9
544.478,887.0
545.02,878.9
545.563,876.6
546.106,877.0
546.648,877.6
547.19,878.6
547.732,880.3
548.274,879.5
548.816,880.3
549.358,882.0
549.9,882.0
550.441,881.8
550.983,884.3
551.524,886.8
552.065,888.0
552.606,888.2
553.147,887.8
553.688,887.8
554.229,891.9
554.769,890.1
555.31,884.8
555.85,879.9
556.391,882.6
556.931,884.2
557.471,896.2
558.011,987.6
558.551,912.7
559.09,896.1
559.63,893.9
560.169,890.7
560.709,887.2
561.248,888.8
561.787,884.9
562.326,886.0
562.865,900.6
563.404,923.7
563.943,906.5
564.481,897.5
565.02,912.9
565.558,908.0
566.096,929.0
566.634,911.9
567.172,893.0
567.71,896.5
568.248,899.0
568.786,899.9
569.324,898.0
569.861,895.6
570.399,896.4
570.936,901.9
571.473,918.0
572.01,914.3
572.547,909.7
573.084,906.5
573.621,911.5
574.158,908.6
574.694,918.7
575.231,901.4
575.767,898.8
576.303,914.7
576.84,957.2
577.376,916.9
577.912,905.4
578.448,901.0
578.984,904.4
579.519,905.2
580.055,900.9
580.59,904.5
581.126,902.3
581.661,905.1
582.196,901.7
582.731,903.2
583.267,905.4
583.801,904.0
584.336,902.9
584.871,905.1
585.406,905.1
585.94,906.9
586.475,915.4
587.009,941.5
587.543,951.8
588.078,923.1
588.612,905.0
589.146,908.2
589.68,905.0
590.214,908.0
590.747,908.3
591.281,906.5
591.815,908.4
592.348,906.1
592.881,906.4
593.415,905.6
593.948,909.2
594.481,904.9
595.014,910.9
595.547,907.3
596.08,907.4
596.613,907.3
597.146,908.0
597.678,908.5
598.211,907.6
598.743,911.0
599.276,910.2
599.808,910.1
600.34,910.0
600.872,912.0
601.404,911.7
601.936,909.1
602.468,915.3
603.0,910.9
603.532,911.6
604.064,911.3
604.595,910.1
605.127,911.7
605.658,909.4
606.189,905.0
606.721,909.2
607.252,907.1
607.783,912.5
608.314,910.9
608.845,914.5
609.376,910.4
609.907,913.0
610.438,911.2
610.968,909.6
611.499,913.0
612.029,910.7
612.56,913.0
613.09,913.9
613.621,914.3
614.151,917.3
614.681,917.0
615.211,917.9
615.741,915.9
616.271,918.0
616.801,918.4
617.331,917.1
617.861,912.3
618.39,915.9
618.92,915.3
619.45,917.0
619.979,918.7
620.509,915.9
621.038,918.8
621.567,918.9
622.096,917.7
622.626,924.8
623.155,928.3
623.684,924.2
624.213,920.9
624.742,922.9
625.271,920.7
625.799,918.2
626.328,914.2
626.857,920.3
627.386,923.0
627.914,932.8
628.443,972.9
628.971,963.8
629.5,970.5
630.028,969.6
630.556,1014.7
631.084,1288.8
631.613,1111.5
632.141,1009.0
632.669,997.2
633.197,1072.0
633.725,1041.8
634.253,973.6
634.781,936.1
635.308,923.0
635.836,920.7
636.364,915.1
636.891,921.1
637.419,914.1
637.947,914.9
638.474,914.6
639.002,915.3
639.529,913.2
640.056,919.4
640.584,916.5
641.111,916.4
641.638,915.9
642.165,913.6
642.692,914.6
643.219,913.5
643.746,911.6
644.273,908.8
644.8,912.1
645.327,908.0
645.854,910.3
646.381,910.2
646.908,907.8
647.434,909.8
647.961,910.2
648.488,910.1
649.014,908.5
649.541,908.5
650.067,906.8
650.594,907.6
651.12,904.6
651.646,908.3
652.173,910.6
652.699,904.1
653.225,908.3
653.752,909.4
654.278,909.5
654.804,907.1
655.33,906.3
655.856,907.9
656.382,909.2
656.908,906.1
657.434,907.2
657.96,905.7
658.486,905.5
659.012,907.2
659.538,905.5
660.064,905.1
660.589,905.0
661.115,904.7
661.641,905.0
662.166,904.6
662.692,904.7
663.086,903.0