File: spectra/VLFR_09-PET_bio_Raman_165ccf1c.csv
nm,Intensity
526.508,829.3
527.055,830.7
527.602,829.7
528.149,830.0
528.695,830.0
529.241,829.4
529.787,829.8
530.334,830.3
530.879,830.1
531.425,830.7
531.971,835.9
532.516,831.5
533.062,830.0
533.607,838.6
534.152,1910.2
534.697,1779.1
535.242,1598.4
535.786,1520.1
536.331,1458.8
536.876,1429.5
537.42,1421.9
537.964,1426.9
538.508,1437.6
539.052,1452.6
539.596,1468.3
540.14,1495.2
540.683,1473.6
541.227,1479.4
541.77,1485.1
542.313,1495.6
542.856,1499.4
543.399,1520.9
543.942,1526.6
544.485,1538.1
545.027,1532.5
545.57,1549.4
546.112,1568.8
546.654,1573.9
547.196,1573.7
547.738,1589.4
548.28,1589.0
548.822,1603.8
549.363,1619.2
549.905,1609.8
550.446,1638.9
550.988,1646.8
551.529,1659.6
552.07,1655.4
552.611,1670.7
553.152,1678.8
553.692,1684.7
554.233,1691.8
554.773,1710.8
555.314,1719.0
555.854,1746.4
556.394,1764.8
556.934,1779.4
557.474,1912.8
558.014,1815.3
558.553,1798.2
559.093,1784.9
559.632,1780.9
560.172,1796.7
560.711,1803.2
561.25,1819.9
561.789,1837.9
562.328,1846.1
562.867,1857.0
563.406,1880.6
563.944,1887.8
564.483,1927.2
565.021,1996.7
565.559,2011.6
566.098,2021.7
566.636,1954.3
567.174,1946.3
567.711,2006.3
568.249,1968.9
568.787,1976.4
569.324,1992.0
569.862,2011.9
570.399,2061.1
570.936,2174.7
571.474,2323.2
572.011,2162.1
572.548,2094.7
573.084,2073.4
573.621,2090.2
574.158,2113.4
574.694,2105.6
575.231,2151.5
575.767,2147.7
576.303,2166.8
576.84,2184.5
577.376,2180.1
577.912,2170.2
578.447,2174.9
578.983,2180.7
579.519,2195.9
580.054,2190.4
580.59,2216.2
581.125,2241.2
581.661,2332.9
582.196,3519.1
582.731,2317.7
583.266,2294.7
583.801,2290.2
584.336,2301.7
584.87,2302.1
585.405,2390.1
585.94,2899.3
586.474,2683.0
587.008,2391.7
587.543,2369.2
588.077,2345.7
588.611,2332.3
589.145,2343.8
589.679,2340.9
590.213,2351.3
590.747,2382.7
591.28,2384.8
591.814,2390.5
592.347,2378.5
592.881,2381.3
593.414,2383.9
593.947,2388.4
594.48,2405.2
595.014,2413.2
595.547,2436.3
596.079,2434.4
596.612,2443.5
597.145,2450.3
597.678,2459.8
598.21,2476.0
598.743,2497.0
599.275,2503.5
599.807,2503.4
600.34,2504.9
600.872,2509.3
601.404,2522.7
601.936,2514.6
602.468,2539.0
603.0,2539.2
603.532,2553.7
604.063,2547.4
604.595,2560.6
605.126,2559.6
605.658,2534.7
606.189,2541.4
606.721,2559.4
607.252,2571.5
607.783,2576.1
608.314,2604.3
608.845,2645.2
609.376,2635.4
609.907,2676.6
610.438,2640.3
610.968,2673.7
611.499,2712.0
612.03,2715.7
612.56,2756.1
613.091,2796.5
613.621,2828.7
614.151,2835.6
614.681,2871.4
615.212,2884.5
615.742,2893.8
616.272,2903.0
616.802,2960.5
617.332,2974.6
617.861,2997.5
618.391,3038.2
618.921,3053.7
619.45,3055.7
619.98,3069.9
620.509,3072.5
621.039,3113.4
621.568,3150.4
622.097,3169.0
622.627,3205.1
623.156,3247.7
623.685,3270.4
624.214,3314.3
624.743,3341.2
625.272,3361.8
625.801,3379.1
626.33,3413.8
626.858,3399.5
627.387,3440.2
627.916,3453.5
628.444,3516.9
628.973,3572.9
629.501,3614.6
630.029,3618.6
630.558,3650.9
631.086,3713.2
631.614,3810.8
632.142,3841.1
632.67,3783.5
633.198,3781.2
633.726,3824.7
634.254,3797.1
634.782,3822.5
635.31,3855.2
635.838,3926.4
636.365,4108.0
636.893,4112.9
637.421,3963.2
637.948,3977.2
638.476,3978.5
639.003,4007.3
639.531,4038.3
640.058,4064.9
640.585,4078.8
641.113,4091.7
641.64,4117.9
642.167,4149.8
642.694,4134.1
643.221,4115.7
643.748,4112.9
644.275,4105.3
644.802,4111.7
645.329,4150.2
645.856,4125.8
646.382,4159.6
646.909,4175.7
647.436,4214.3
647.962,4214.6
648.489,4225.4
649.016,4210.1
649.542,4220.1
650.069,4230.9
650.595,4213.6
651.121,4205.3
651.648,4224.8
652.174,4273.3
652.7,4262.2
653.227,4259.4
653.753,4281.9
654.279,4288.6
654.805,4288.4
655.331,4277.4
655.857,4302.7
656.383,4287.3
656.909,4338.9
657.435,4318.7
657.961,4331.7
658.487,4346.3
659.013,4333.4
659.538,4364.7
660.064,4352.4
660.59,4343.6
661.116,4337.7
661.641,4276.3
662.167,4294.0
662.692,4285.6
663.087,4278.6