File: spectra/VLFR_06-PET_nobio_Raman_50aa97b2.csv
nm,Intensity
526.5,829.4
527.047,829.8
527.594,829.7
528.14,828.9
528.687,830.1
529.233,828.6
529.779,828.6
530.325,830.3
530.871,831.0
531.417,830.5
531.962,833.1
532.508,830.5
533.053,829.1
533.599,837.4
534.144,1621.3
534.689,1410.3
535.234,1205.8
535.778,1080.6
536.323,1013.6
536.867,978.7
537.412,961.2
537.956,961.0
538.5,965.8
539.044,966.5
539.588,982.8
540.132,985.1
540.675,959.4
541.219,956.7
541.762,957.7
542.305,957.5
542.848,958.0
543.391,957.7
543.934,967.4
544.477,966.5
545.02,970.0
545.562,969.5
546.105,971.9
546.647,977.5
547.189,978.2
547.731,977.2
548.273,978.8
548.815,985.6
549.356,985.1
549.898,989.3
550.439,1002.1
550.981,1006.4
551.522,999.1
552.063,1003.0
552.604,1006.7
553.145,1016.1
553.686,1022.6
554.226,1013.7
554.767,1020.1
555.307,1031.8
555.848,1058.0
556.388,1065.1
556.928,1073.8
557.468,1163.0
558.008,1089.6
558.547,1088.3
559.087,1063.0
559.626,1044.3
560.166,1048.1
560.705,1056.7
561.244,1057.7
561.783,1065.7
562.322,1077.3
562.861,1087.0
563.4,1090.4
563.939,1088.2
564.477,1097.4
565.015,1129.7
565.554,1169.0
566.092,1173.4
566.63,1117.8
567.168,1110.9
567.706,1161.2
568.244,1123.6
568.781,1120.5
569.319,1134.4
569.857,1150.6
570.394,1180.7
570.931,1275.2
571.468,1330.6
572.005,1239.8
572.542,1175.8
573.079,1159.0
573.616,1174.0
574.153,1187.7
574.689,1180.2
575.226,1201.8
575.762,1188.8
576.298,1207.9
576.834,1231.2
577.371,1209.8
577.907,1209.2
578.442,1206.5
578.978,1215.6
579.514,1220.9
580.049,1215.8
580.585,1231.1
581.12,1245.1
581.656,1295.7
582.191,2074.0
582.726,1280.5
583.261,1256.2
583.796,1253.2
584.331,1261.5
584.865,1278.7
585.4,1343.2
585.935,1692.8
586.469,1517.7
587.004,1316.6
587.538,1298.0
588.072,1276.4
588.606,1281.2
589.14,1286.8
589.674,1293.4
590.208,1291.3
590.742,1293.3
591.275,1291.5
591.809,1297.9
592.342,1288.9
592.876,1304.1
593.409,1303.7
593.942,1299.3
594.476,1303.8
595.009,1305.0
595.542,1312.7
596.075,1315.6
596.607,1313.7
597.14,1321.3
597.673,1313.0
598.205,1319.7
598.738,1325.4
599.27,1319.8
599.803,1325.8
600.335,1333.7
600.867,1326.9
601.399,1324.2
601.931,1324.7
602.463,1327.2
602.995,1336.3
603.527,1335.9
604.058,1337.3
604.59,1331.2
605.122,1322.0
605.653,1330.2
606.184,1322.0
606.716,1321.0
607.247,1333.3
607.778,1330.0
608.309,1333.4
608.84,1339.3
609.371,1333.6
609.902,1337.6
610.433,1338.6
610.964,1336.7
611.494,1340.6
612.025,1348.9
612.556,1350.2
613.086,1356.4
613.616,1367.7
614.147,1369.2
614.677,1359.8
615.207,1367.3
615.737,1363.8
616.267,1359.1
616.797,1372.1
617.327,1374.7
617.857,1382.9
618.387,1381.1
618.917,1374.3
619.446,1378.2
619.976,1386.1
620.505,1384.9
621.035,1382.1
621.564,1381.2
622.093,1393.1
622.623,1398.3
623.152,1398.9
623.681,1405.2
624.21,1407.0
624.739,1420.0
625.268,1425.4
625.797,1417.4
626.326,1414.3
626.855,1422.9
627.383,1435.1
627.912,1434.5
628.441,1447.3
628.969,1463.6
629.498,1476.7
630.026,1470.8
630.554,1475.4
631.083,1522.7
631.611,1615.9
632.139,1611.6
632.667,1563.5
633.195,1551.0
633.724,1544.1
634.252,1527.5
634.779,1517.6
635.307,1537.9
635.835,1575.0
636.363,1672.4
636.891,1668.4
637.418,1569.7
637.946,1547.8
638.474,1555.2
639.001,1562.1
639.529,1559.5
640.056,1558.8
640.583,1574.1
641.111,1571.6
641.638,1593.1
642.165,1597.3
642.692,1603.9
643.22,1590.0
643.747,1587.9
644.274,1586.7
644.801,1591.5
645.328,1588.3
645.854,1593.8
646.381,1604.0
646.908,1609.4
647.435,1616.8
647.962,1600.2
648.488,1608.6
649.015,1607.2
649.542,1600.8
650.068,1610.9
650.595,1604.5
651.121,1624.1
651.648,1620.6
652.174,1620.9
652.7,1623.9
653.227,1635.2
653.753,1626.5
654.279,1624.4
654.805,1638.1
655.331,1618.5
655.858,1628.8
656.384,1625.4
656.91,1631.6
657.436,1630.6
657.962,1630.8
658.488,1642.1
659.013,1627.3
659.539,1646.4
660.065,1639.6
660.591,1636.0
661.117,1631.4
661.642,1625.7
662.168,1625.3
662.694,1625.0
663.088,1615.5