File: spectra/VLFR_01-LDPE_nobio_Raman_a6df8a4f.csv
nm,Intensity
528.65,1836.65
529.155,1836.85
529.66,1836.9
530.165,1835.45
530.67,1836.6
531.175,1837.35
531.68,1843.3
532.185,2271.95
532.69,1838.6
533.194,1839.45
533.699,2235.4
534.204,3422.3
534.708,3561.45
535.213,3637.4
535.717,3712.75
536.222,3691.65
536.726,3779.85
537.231,3788.3
537.735,3828.9
538.239,3830.3
538.743,3850.85
539.247,3969.6
539.751,3979.35
540.255,3984.95
540.759,4062.6
541.263,4050.3
541.767,4142.5
542.271,4094.2
542.775,4114.4
543.279,4197.0
543.782,4239.7
544.286,4296.8
544.789,4295.5
545.293,4249.45
545.796,4309.55
546.3,4323.2
546.803,4372.9
547.306,4417.8
547.81,4423.25
548.313,4496.7
548.816,4494.85
549.319,4438.25
549.822,4458.65
550.325,4587.95
550.828,4619.9
551.331,4693.9
551.834,4681.15
552.337,4663.0
552.839,4703.8
553.342,4651.25
553.844,4739.4
554.347,4808.25
554.849,4859.3
555.352,4811.7
555.854,4805.8
556.357,4913.4
556.859,4884.8
557.361,4880.05
557.863,4903.8
558.365,4974.75
558.867,5033.35
559.369,5006.1
559.871,4969.65
560.373,5051.7
560.875,5168.75
561.377,5219.25
561.878,5107.1
562.38,5136.5
562.881,5133.2
563.383,5172.25
563.884,5178.35
564.386,5335.4
564.887,5269.2
565.388,5277.5
565.89,5281.0
566.391,5337.25
566.892,5342.8
567.393,5425.4
567.894,5385.85
568.395,5535.75
568.896,5551.5
569.396,5592.4
569.897,5574.1
570.398,5563.05
570.898,5736.65
571.399,5738.8
571.9,5754.05
572.4,5923.3
572.9,5900.5
573.401,5982.3
573.901,5806.3
574.401,5830.5
574.901,5874.75
575.401,5847.4
575.901,5847.1
576.401,5789.2
576.901,5773.4
577.401,5759.0
577.901,5854.1
578.4,5702.55
578.9,5708.0
579.399,5858.1
579.899,5971.15
580.398,6052.85
580.898,6111.1
581.397,6222.2
581.896,6053.15
582.395,5705.9
582.895,5694.05
583.394,5672.5
583.893,5644.05
584.391,5622.45
584.89,5464.8
585.389,5475.1
585.888,5436.65
586.386,5425.8
586.885,5382.8
587.384,5481.6
587.882,5495.15
588.38,5493.35
588.879,5398.65
589.377,5399.35
589.875,5401.8
590.373,5399.3
590.871,5544.75
591.369,5465.65
591.867,5482.35
592.365,5430.55
592.863,5358.2
593.361,5271.9
593.858,5296.25
594.356,5368.4
594.853,5410.9
595.351,5248.8
595.848,5390.25
596.345,5416.5
596.843,5344.1
597.34,5331.7
597.837,5312.7
598.334,5304.25
598.831,5314.5
599.328,5389.7
599.824,5284.6
600.321,5295.5
600.818,5327.95
601.314,5277.1
601.811,5272.1
602.307,5266.05
602.804,5304.25
603.3,5280.6
603.796,5189.7
604.293,5185.45
604.789,5245.75
605.285,5122.15
605.781,5127.75
606.277,5240.5
606.772,5249.0
607.268,5112.05
607.764,5161.3
608.259,5189.3
608.755,5119.0
609.25,5072.7
609.746,5179.1
610.241,5077.5
610.736,5090.9
611.231,5060.95
611.727,5044.75
612.222,5044.2
612.716,5012.95
613.211,5011.95
613.706,4967.45
614.201,4974.2
614.695,4930.35
615.19,4945.35
615.684,4982.5
616.179,4986.0
616.673,4927.35
617.168,4889.7
617.662,4936.65
618.156,4889.0
618.65,4856.35
619.144,4870.35
619.638,4864.8
620.131,4926.65
620.625,4772.35
621.119,4833.9
621.612,4742.8
622.106,4791.45
622.599,4813.15
623.093,4742.6
623.586,4804.15
624.079,4718.55
624.572,4767.15
625.065,4672.25
625.558,4678.75
626.051,4690.0
626.544,4656.8
627.037,4577.45
627.529,4681.7
628.022,4610.75
628.514,4699.4
629.007,4615.2
629.499,4533.85
629.991,4533.4
630.483,4497.15
630.976,4534.45
631.468,4589.1
631.959,4455.2
632.451,4502.55
632.943,4456.6
633.435,4362.6
633.926,4396.5
634.418,4355.4
634.909,4356.15
635.401,4388.8
635.892,4247.2
636.383,4320.95
636.874,4305.0
637.365,4328.45
637.856,4253.95
638.347,4267.55
638.838,4273.0
639.329,4180.1
639.819,4101.15
640.31,4068.3
640.8,4080.8
641.291,4062.85
641.781,4080.05
642.271,4023.65
642.761,3916.45
643.251,3966.45
643.741,3993.65
644.231,3962.45
644.721,3936.65
645.211,3999.9
645.7,3844.6
646.19,3862.85
646.679,3815.65
647.169,3845.2
647.658,3825.25
648.147,3831.55
648.636,3703.95
649.125,3708.15
649.614,3667.9
650.103,3656.2
650.592,3665.3
651.08,3612.55
651.569,3606.7
652.058,3641.55
652.546,3595.55
653.034,3470.3
653.523,3557.9
654.011,3547.15
654.499,3451.3
654.987,3411.75
655.475,3415.6
655.963,3439.35
656.45,3399.5
656.938,3363.3
657.425,3354.5
657.913,3355.65
658.4,3327.25
658.888,3260.95
659.375,3177.8
659.862,3204.45
660.349,3205.1
660.836,3182.65
661.079,3189.45