File: spectra/VLFR_07-PET_bio_Raman_5ead9a45.csv
nm,Intensity
791.377,10814.2
792.477,9968.26
793.576,9437.34
794.676,9346.94
795.775,9081.78
796.874,8953.42
797.973,8990.48
799.072,9043.54
800.171,9039.22
801.27,9019.38
802.368,8947.68
803.467,8831.32
804.565,8743.28
805.664,8680.04
806.762,8619.9
807.86,8630.36
808.958,8511.14
810.056,8421.8
811.153,8421.54
812.251,8360.44
813.349,8262.52
814.446,8136.6
815.543,8055.76
816.64,7998.68
817.737,7893.92
818.834,7894.26
819.931,7934.46
821.028,7743.32
822.125,7659.74
823.221,7602.04
824.317,7536.5
825.414,7638.34
826.51,7561.48
827.606,7450.48
828.702,7352.24
829.797,7267.4
830.893,7403.74
831.988,7278.54
833.084,7211.34
834.179,7139.56
835.274,7062.34
836.369,7157.58
837.464,7110.8
838.559,7178.26
839.654,7159.92
840.748,7227.7
841.843,7201.08
842.937,7001.88
844.031,6834.86
845.125,6767.16
846.219,6674.32
847.313,6715.04
848.407,6615.82
849.5,6513.98
850.593,6498.56
851.687,6537.64
852.78,6521.48
853.873,6400.4
854.966,6440.04
856.059,6358.48
857.151,6306.8
858.244,6393.82
859.336,6392.68
860.428,6484.76
861.52,6298.32
862.612,6162.88
863.704,6157.62
864.796,6156.1
865.888,6108.14
866.979,5980.28
868.07,6008.0
869.162,5995.9
870.253,5997.26
871.344,6083.72
872.434,6225.8
873.525,6159.48
874.615,6014.96
875.706,5891.6
876.796,5889.9
877.886,5818.86
878.976,5773.06
880.066,5703.5
881.156,5740.48
882.245,5737.28
883.335,5699.64
884.424,5680.62
885.513,5633.32
886.602,5622.1
887.691,5578.82
888.78,5514.98
889.868,5499.86
890.957,5466.58
892.045,5471.26
893.133,5420.38
894.221,5371.04
895.309,5318.48
896.397,5338.32
897.484,5442.28
898.571,5851.56
899.659,5543.86
900.746,5217.08
901.833,5181.56
902.92,5112.56
904.006,5127.78
905.093,5129.56
906.179,5178.06
907.266,5386.38
908.352,5479.38
909.438,5180.54
910.523,4997.76
911.609,4945.38
912.695,4906.48
913.78,4848.72
914.865,4853.02
915.95,4813.66
917.035,4798.2
918.12,4761.4
919.204,4754.92
920.289,4723.7
921.373,4692.2
922.457,4686.26
923.541,4648.58
924.625,4610.9
925.709,4604.5
926.792,4563.12
927.876,4568.6
928.959,4514.96
930.042,4479.18
931.125,4456.44
932.208,4446.88
933.29,4418.26
934.373,4393.02
935.455,4398.4
936.537,4361.78
937.619,4344.96
938.701,4328.64
939.782,4297.18
940.864,4310.8
941.945,4284.08
943.026,4258.68
944.107,4242.9
945.188,4229.32
946.269,4228.62
947.349,4197.0
948.43,4195.38
949.51,4165.86
950.59,4162.58
951.67,4140.96
952.75,4133.6
953.829,4138.48
954.909,4111.52
955.988,4103.76
957.067,4095.76
958.146,4087.9
959.224,4073.26
960.303,4069.34
961.381,4052.74
962.459,4044.68
963.537,4036.82
964.615,4033.64
965.693,4025.06
966.771,4010.52
967.848,4008.6
968.925,4002.98
970.002,3996.52
971.079,3985.1
972.156,3988.92
973.232,3971.66
974.309,3966.26
975.385,3954.52
976.461,3954.1
977.537,3946.02
978.612,3944.5
979.688,3936.78
980.763,3933.74
981.838,3925.6
982.913,3928.26
983.988,3915.02
985.063,3914.32
986.137,3911.26
987.211,3901.96
988.285,3901.44
989.359,3897.7
990.433,3892.54
991.506,3889.48
992.58,3882.0
993.653,3878.06
994.726,3875.16
995.799,3874.78
996.872,3868.32
997.944,3863.88
999.016,3864.12
1000.09,3862.66
1001.16,3852.2
1002.23,3854.4
1003.3,3849.72
1004.38,3847.8
1005.45,3844.76
1006.52,3841.18
1007.59,3837.32
1008.66,3836.34
1009.73,3834.64
1010.8,3832.08
1011.87,3830.66
1012.94,3828.32
1014.01,3827.26
1015.08,3825.22
1016.15,3822.08
1017.22,3822.54
1018.29,3819.68
1019.36,3817.46
1020.42,3815.44
1021.49,3818.64
1022.56,3820.6
1023.63,3818.8
1024.7,3815.2
1025.76,3810.38
1026.83,3807.78
1027.9,3805.58
1028.97,3802.82
1030.03,3798.52
1031.1,3798.36
1032.17,3799.24
1033.23,3798.58
1034.3,3799.76
1035.36,3801.76
1036.43,3799.52
1037.5,3796.46
1038.56,3793.1
1039.63,3792.1
1040.69,3790.62
1041.76,3790.2
1042.82,3788.76
1043.89,3787.44
1044.95,3786.78
1046.01,3785.9
1047.08,3786.58
1048.14,3785.9
1049.2,3784.8
1050.27,3784.52
1051.33,3785.22
1052.39,3784.44
1053.46,3783.06
1054.52,3783.42
1055.58,3783.66
1056.64,3782.7
1057.7,3783.16
1058.77,3781.78
1059.83,3781.94
1060.89,3783.1
1061.95,3782.02
1063.01,3782.02
1064.07,3780.96
1065.13,3780.76
1066.19,3780.66
1067.25,3780.22
1068.05,3779.94