File: spectra/VLFR_07-PET_bio_Raman_3aaf484a.csv
nm,Intensity
791.588,11780.3
792.685,11057.6
793.781,10749.3
794.878,10591.0
795.975,10628.6
797.071,10562.1
798.168,10574.7
799.264,10594.6
800.36,10524.0
801.456,10571.1
802.552,10642.0
803.648,10430.7
804.744,10216.1
805.84,10204.3
806.936,10043.6
808.031,9926.9
809.127,9803.1
810.222,9737.2
811.317,9592.0
812.412,9474.6
813.507,9347.9
814.602,9261.2
815.697,9272.3
816.792,9084.6
817.887,9024.0
818.981,8989.4
820.076,8967.0
821.17,8890.8
822.265,8750.7
823.359,8613.6
824.453,8624.3
825.547,8664.8
826.641,8569.3
827.735,8408.5
828.828,8308.1
829.922,8350.6
831.016,8235.5
832.109,8161.8
833.202,8046.6
834.295,7988.1
835.388,7904.5
836.481,7904.5
837.574,7933.2
838.667,7877.6
839.76,7795.5
840.852,7828.8
841.945,7835.4
843.037,7623.9
844.129,7582.8
845.221,7449.1
846.314,7288.5
847.405,7301.4
848.497,7207.1
849.589,7204.5
850.68,7132.3
851.772,7071.9
852.863,7046.7
853.955,7031.7
855.046,6994.8
856.137,6893.5
857.228,6937.9
858.318,6883.2
859.409,7027.0
860.5,6930.1
861.59,6803.4
862.681,6694.4
863.771,6670.3
864.861,6721.1
865.951,6646.4
867.041,6567.0
868.131,6549.1
869.22,6549.5
870.31,6601.9
871.399,6640.6
872.488,6683.4
873.578,6751.7
874.667,6601.2
875.756,6487.0
876.845,6388.2
877.933,6327.0
879.022,6367.1
880.11,6209.3
881.199,6212.4
882.287,6265.9
883.375,6201.9
884.463,6200.1
885.551,6145.9
886.639,6138.4
887.726,6088.4
888.814,6004.3
889.901,5976.5
890.988,5969.6
892.075,5921.6
893.162,5913.6
894.249,5804.5
895.336,5807.2
896.423,5761.4
897.509,5934.2
898.595,6124.7
899.682,5808.1
900.768,5597.6
901.854,5516.9
902.94,5516.7
904.025,5514.7
905.111,5429.1
906.196,5498.7
907.282,5627.4
908.367,5632.4
909.452,5458.6
910.537,5267.0
911.622,5206.6
912.706,5138.6
913.791,5144.9
914.875,5083.1
915.959,5031.7
917.044,4999.3
918.128,4984.5
919.211,4933.9
920.295,4915.0
921.379,4887.6
922.462,4855.7
923.546,4811.8
924.629,4808.4
925.712,4724.0
926.795,4711.5
927.877,4671.5
928.96,4655.8
930.043,4609.3
931.125,4605.2
932.207,4534.8
933.289,4504.0
934.371,4483.8
935.453,4479.3
936.535,4448.0
937.616,4425.3
938.697,4415.3
939.779,4402.2
940.86,4388.1
941.941,4366.5
943.022,4319.2
944.102,4304.5
945.183,4301.0
946.263,4283.8
947.343,4264.8
948.423,4234.0
949.503,4232.4
950.583,4205.4
951.663,4205.8
952.742,4190.4
953.822,4174.3
954.901,4158.3
955.98,4152.8
957.059,4124.8
958.137,4112.0
959.216,4121.0
960.294,4096.5
961.373,4081.8
962.451,4086.0
963.529,4070.4
964.607,4060.5
965.684,4058.2
966.762,4039.5
967.839,4038.4
968.917,4023.7
969.994,4027.1
971.071,4009.1
972.147,4008.8
973.224,4001.5
974.3,3983.4
975.377,3976.0
976.453,3976.6
977.529,3963.6
978.605,3954.2
979.68,3946.4
980.756,3942.3
981.831,3939.0
982.907,3930.5
983.982,3920.5
985.057,3921.4
986.131,3920.6
987.206,3913.0
988.28,3903.4
989.355,3905.2
990.429,3896.7
991.503,3887.5
992.576,3885.3
993.65,3883.3
994.723,3879.5
995.797,3876.3
996.87,3874.5
997.943,3862.4
999.016,3854.4
1000.09,3849.4
1001.16,3849.4
1002.23,3850.4
1003.31,3845.4
1004.38,3840.9
1005.45,3837.1
1006.52,3832.8
1007.59,3825.1
1008.66,3828.6
1009.73,3821.6
1010.81,3822.3
1011.88,3820.4
1012.95,3815.4
1014.02,3811.7
1015.09,3813.1
1016.16,3813.9
1017.23,3810.2
1018.3,3803.0
1019.37,3801.5
1020.44,3803.3
1021.51,3807.0
1022.58,3800.4
1023.64,3799.6
1024.71,3797.7
1025.78,3789.2
1026.85,3794.1
1027.92,3788.7
1028.99,3784.5
1030.05,3784.3
1031.12,3782.9
1032.19,3780.7
1033.26,3781.6
1034.32,3781.9
1035.39,3781.8
1036.46,3780.4
1037.52,3775.1
1038.59,3774.4
1039.66,3771.7
1040.72,3772.2
1041.79,3774.0
1042.86,3769.9
1043.92,3769.6
1044.99,3767.9
1046.05,3767.0
1047.12,3764.7
1048.18,3768.2
1049.25,3765.0
1050.31,3766.9
1051.37,3764.6
1052.44,3765.8
1053.5,3762.8
1054.57,3764.7
1055.63,3765.1
1056.69,3761.5
1057.76,3760.2
1058.82,3763.2
1059.88,3763.6
1060.95,3763.9
1062.01,3761.6
1063.07,3760.5
1064.13,3763.2
1065.19,3760.7
1066.26,3762.2
1067.32,3760.9
1068.11,3759.0