File: spectra/VLFR_08-PLA_bio_Raman_e0cb33ee.csv
nm,Intensity
526.508,829.3
527.055,829.7
527.602,828.4
528.149,830.6
528.695,829.9
529.241,830.3
529.787,829.9
530.334,831.5
530.879,830.0
531.425,830.3
531.971,836.7
532.516,829.3
533.062,828.3
533.607,832.9
534.152,1058.8
534.697,1016.7
535.242,975.6
535.786,963.5
536.331,953.2
536.876,958.8
537.42,949.3
537.964,951.5
538.508,938.2
539.052,937.5
539.596,935.6
540.14,932.8
540.683,946.3
541.227,950.6
541.77,945.9
542.313,939.4
542.856,944.8
543.399,961.3
543.942,972.3
544.485,955.6
545.027,944.0
545.57,941.2
546.112,940.8
546.654,942.4
547.196,943.2
547.738,945.3
548.28,945.3
548.822,947.6
549.363,952.8
549.905,950.7
550.446,951.7
550.988,953.0
551.529,958.1
552.07,961.4
552.611,962.4
553.152,965.2
553.692,959.7
554.233,966.9
554.773,963.1
555.314,955.9
555.854,950.0
556.394,955.7
556.934,957.9
557.474,972.3
558.014,1089.9
558.553,992.0
559.093,973.5
559.632,967.3
560.172,972.0
560.711,968.4
561.25,960.8
561.789,963.7
562.328,961.0
562.867,979.6
563.406,1008.2
563.944,987.2
564.483,978.8
565.021,999.6
565.559,996.4
566.098,1023.5
566.636,992.9
567.174,974.1
567.711,978.3
568.249,981.0
568.787,983.8
569.324,988.7
569.862,981.5
570.399,975.0
570.936,980.5
571.474,999.3
572.011,1008.7
572.548,994.8
573.084,1001.3
573.621,1000.6
574.158,997.1
574.694,1009.1
575.231,992.2
575.767,989.7
576.303,1009.6
576.84,1068.3
577.376,1014.3
577.912,987.0
578.447,989.0
578.983,990.2
579.519,988.8
580.054,994.9
580.59,995.2
581.125,991.0
581.661,991.0
582.196,994.1
582.731,999.8
583.266,994.4
583.801,995.4
584.336,996.0
584.87,999.4
585.405,994.3
585.94,999.1
586.474,1013.4
587.008,1048.6
587.543,1062.1
588.077,1025.0
588.611,1002.4
589.145,995.3
589.679,995.5
590.213,994.1
590.747,995.2
591.28,999.9
591.814,996.1
592.347,998.9
592.881,992.7
593.414,996.3
593.947,990.2
594.48,993.2
595.014,998.1
595.547,992.7
596.079,999.5
596.612,997.5
597.145,995.6
597.678,998.4
598.21,997.0
598.743,999.4
599.275,999.5
599.807,997.4
600.34,991.5
600.872,998.7
601.404,996.6
601.936,996.9
602.468,994.9
603.0,997.6
603.532,993.7
604.063,999.0
604.595,989.8
605.126,987.8
605.658,988.0
606.189,993.2
606.721,991.4
607.252,988.8
607.783,989.4
608.314,987.8
608.845,990.0
609.376,990.0
609.907,987.4
610.438,987.3
610.968,988.4
611.499,987.3
612.03,994.1
612.56,984.8
613.091,994.2
613.621,991.1
614.151,993.3
614.681,993.4
615.212,991.1
615.742,990.8
616.272,989.3
616.802,991.4
617.332,994.2
617.861,988.2
618.391,991.2
618.921,989.7
619.45,988.0
619.98,990.0
620.509,987.7
621.039,985.3
621.568,989.9
622.097,988.5
622.627,997.0
623.156,1007.5
623.685,1002.0
624.214,996.3
624.743,987.2
625.272,988.2
625.801,987.6
626.33,987.9
626.858,987.1
627.387,992.9
627.916,998.9
628.444,1067.7
628.973,1049.6
629.501,1053.1
630.029,1059.6
630.558,1111.4
631.086,1508.9
631.614,1257.4
632.142,1116.8
632.67,1096.6
633.198,1189.6
633.726,1158.3
634.254,1055.9
634.782,1008.1
635.31,990.7
635.838,983.4
636.365,980.4
636.893,979.0
637.421,973.1
637.948,981.6
638.476,974.0
639.003,971.5
639.531,964.0
640.058,969.3
640.585,969.4
641.113,970.4
641.64,970.6
642.167,970.6
642.694,969.7
643.221,967.2
643.748,963.3
644.275,962.1
644.802,960.6
645.329,956.6
645.856,954.9
646.382,954.2
646.909,954.9
647.436,955.6
647.962,958.6
648.489,951.3
649.016,953.4
649.542,951.8
650.069,952.2
650.595,948.8
651.121,945.8
651.648,951.0
652.174,943.9
652.7,948.2
653.227,943.6
653.753,943.4
654.279,950.4
654.805,948.4
655.331,944.6
655.857,945.7
656.383,945.8
656.909,939.2
657.435,946.9
657.961,944.4
658.487,941.1
659.013,945.8
659.538,947.1
660.064,941.9
660.59,942.6
661.116,942.1
661.641,939.9
662.167,940.7
662.692,939.1
663.087,934.0