File: spectra/VLFR_02-HDPE_bio_Raman_475e1b4e.csv
nm,Intensity
526.495,828.9
527.042,829.3
527.589,828.0
528.136,829.3
528.682,829.8
529.229,829.4
529.775,829.5
530.321,828.4
530.867,829.2
531.413,828.9
531.959,830.9
532.505,829.8
533.051,829.3
533.596,829.0
534.141,894.2
534.687,881.5
535.232,869.8
535.777,858.3
536.321,853.9
536.866,852.2
537.41,851.3
537.955,851.5
538.499,849.1
539.043,845.9
539.587,843.1
540.131,844.0
540.675,842.0
541.219,842.7
541.762,842.1
542.305,840.4
542.849,841.1
543.392,841.1
543.935,843.3
544.478,840.1
545.02,839.0
545.563,839.5
546.106,838.3
546.648,840.8
547.19,839.8
547.732,838.1
548.274,839.3
548.816,838.6
549.358,838.8
549.9,838.6
550.441,838.4
550.983,839.2
551.524,838.9
552.065,838.1
552.606,838.9
553.147,841.9
553.688,841.0
554.229,842.2
554.769,843.4
555.31,841.2
555.85,844.9
556.391,845.0
556.931,850.4
557.471,850.5
558.011,852.2
558.551,856.1
559.09,852.0
559.63,850.7
560.169,850.7
560.709,849.6
561.248,849.5
561.787,854.2
562.326,854.3
562.865,859.5
563.404,864.3
563.943,909.8
564.481,884.5
565.02,878.7
565.558,873.5
566.096,941.1
566.634,883.1
567.172,875.6
567.71,876.6
568.248,871.5
568.786,874.9
569.324,879.6
569.861,882.2
570.399,889.7
570.936,900.8
571.473,988.9
572.01,932.8
572.547,916.8
573.084,923.8
573.621,930.1
574.158,953.1
574.694,952.1
575.231,962.8
575.767,1027.2
576.303,1104.8
576.84,1087.0
577.376,1076.4
577.912,1072.1
578.448,1086.3
578.984,1114.1
579.519,1143.9
580.055,1161.1
580.59,1178.8
581.126,1200.2
581.661,1224.3
582.196,1235.6
582.731,1258.2
583.267,1277.6
583.801,1295.0
584.336,1299.4
584.871,1311.5
585.406,1326.7
585.94,1333.7
586.475,1347.3
587.009,1366.3
587.543,1373.2
588.078,1385.4
588.612,1400.4
589.146,1399.1
589.68,1430.7
590.214,1435.7
590.747,1452.5
591.281,1458.0
591.815,1477.1
592.348,1470.8
592.881,1470.8
593.415,1478.9
593.948,1471.1
594.481,1478.1
595.014,1479.3
595.547,1487.0
596.08,1493.8
596.613,1501.8
597.146,1506.4
597.678,1514.9
598.211,1523.5
598.743,1540.0
599.276,1539.7
599.808,1533.5
600.34,1532.9
600.872,1525.4
601.404,1519.1
601.936,1495.7
602.468,1491.0
603.0,1464.9
603.532,1449.8
604.064,1438.3
604.595,1406.5
605.127,1375.3
605.658,1359.5
606.189,1323.5
606.721,1300.5
607.252,1275.8
607.783,1267.9
608.314,1243.1
608.845,1236.1
609.376,1222.4
609.907,1209.0
610.438,1197.4
610.968,1185.1
611.499,1183.5
612.029,1179.4
612.56,1164.4
613.09,1161.7
613.621,1152.2
614.151,1137.4
614.681,1136.9
615.211,1125.0
615.741,1115.5
616.271,1109.8
616.801,1108.4
617.331,1108.1
617.861,1101.8
618.39,1092.5
618.92,1093.4
619.45,1085.5
619.979,1093.2
620.509,1078.5
621.038,1078.7
621.567,1083.0
622.096,1099.2
622.626,1100.1
623.155,1078.8
623.684,1074.8
624.213,1071.0
624.742,1079.0
625.271,1069.6
625.799,1078.6
626.328,1103.0
626.857,1245.2
627.386,1566.5
627.914,1371.1
628.443,1504.4
628.971,1445.8
629.5,1373.6
630.028,1296.6
630.556,1283.0
631.084,1190.9
631.613,1139.1
632.141,1121.5
632.669,1109.2
633.197,1096.2
633.725,1099.9
634.253,1102.3
634.781,1103.8
635.308,1096.2
635.836,1103.9
636.364,1116.3
636.891,1112.6
637.419,1103.3
637.947,1104.8
638.474,1108.1
639.002,1111.8
639.529,1108.9
640.056,1109.5
640.584,1109.4
641.111,1120.4
641.638,1116.6
642.165,1113.6
642.692,1118.1
643.219,1111.2
643.746,1113.3
644.273,1110.3
644.8,1112.7
645.327,1110.5
645.854,1115.4
646.381,1111.7
646.908,1105.0
647.434,1111.6
647.961,1107.7
648.488,1104.7
649.014,1096.4
649.541,1091.0
650.067,1094.7
650.594,1087.5
651.12,1092.7
651.646,1081.1
652.173,1088.3
652.699,1093.8
653.225,1083.4
653.752,1083.4
654.278,1078.8
654.804,1079.4
655.33,1075.2
655.856,1069.7
656.382,1068.1
656.908,1066.9
657.434,1058.2
657.96,1053.2
658.486,1049.4
659.012,1039.1
659.538,1031.6
660.064,1028.9
660.589,1022.3
661.115,1011.8
661.641,1006.6
662.166,996.9
662.692,986.5
663.086,981.9