File: spectra/VLFR_08-PLA_nobio_Raman_090e5ac3.csv
nm,Intensity
526.486,830.9
527.033,829.9
527.579,829.1
528.126,829.2
528.672,831.2
529.219,829.4
529.765,829.4
530.311,829.6
530.857,831.7
531.403,829.4
531.948,832.3
532.494,830.9
533.039,830.8
533.585,831.3
534.13,1022.9
534.675,981.3
535.22,947.2
535.764,929.2
536.309,916.4
536.854,918.2
537.398,910.2
537.942,910.8
538.486,898.9
539.03,896.9
539.574,893.7
540.118,884.7
540.662,903.7
541.205,905.7
541.749,895.2
542.292,888.9
542.835,893.3
543.378,913.6
543.921,922.8
544.464,903.9
545.006,889.5
545.549,890.3
546.091,888.1
546.634,886.9
547.176,889.7
547.718,891.0
548.26,886.4
548.802,893.4
549.343,891.1
549.885,894.9
550.426,894.4
550.968,897.7
551.509,900.0
552.05,901.1
552.591,899.8
553.132,902.2
553.673,901.1
554.214,907.5
554.754,899.2
555.295,897.8
555.835,893.4
556.375,895.2
556.915,897.3
557.455,912.7
557.995,1012.8
558.535,930.7
559.075,913.1
559.614,909.6
560.154,903.7
560.693,903.9
561.232,896.8
561.772,902.6
562.311,905.4
562.85,913.0
563.388,944.7
563.927,925.7
564.466,916.5
565.004,935.4
565.543,931.8
566.081,956.6
566.619,927.7
567.157,910.5
567.695,916.9
568.233,918.3
568.771,918.4
569.309,923.5
569.846,913.9
570.384,920.6
570.921,920.5
571.458,931.2
571.995,940.5
572.532,933.4
573.069,931.9
573.606,937.5
574.143,933.5
574.68,943.2
575.216,924.7
575.753,926.8
576.289,938.3
576.825,995.7
577.361,950.7
577.897,927.5
578.433,929.6
578.969,927.5
579.505,924.5
580.041,932.7
580.576,930.8
581.112,929.5
581.647,930.4
582.183,930.0
582.718,928.7
583.253,926.2
583.788,931.7
584.323,931.6
584.858,929.6
585.392,937.6
585.927,941.5
586.462,948.1
586.996,979.4
587.53,999.6
588.065,961.2
588.599,937.2
589.133,938.6
589.667,940.0
590.201,937.5
590.735,937.1
591.268,940.1
591.802,937.6
592.335,940.8
592.869,937.6
593.402,945.9
593.936,946.0
594.469,943.4
595.002,943.1
595.535,942.8
596.068,941.4
596.601,950.0
597.133,951.2
597.666,948.1
598.199,951.6
598.731,946.3
599.264,949.2
599.796,954.3
600.328,949.8
600.86,953.3
601.393,951.9
601.925,959.2
602.457,953.4
602.988,954.3
603.52,955.2
604.052,958.1
604.583,953.9
605.115,951.8
605.646,952.7
606.178,954.5
606.709,958.7
607.24,957.4
607.771,956.6
608.302,957.8
608.833,959.6
609.364,961.9
609.895,954.9
610.426,958.8
610.957,963.2
611.487,967.4
612.018,966.3
612.548,969.1
613.078,968.1
613.609,972.1
614.139,974.5
614.669,968.6
615.199,976.4
615.729,977.1
616.259,974.3
616.789,975.0
617.319,977.0
617.849,976.3
618.378,975.1
618.908,974.8
619.437,972.0
619.967,975.9
620.496,975.5
621.025,970.5
621.555,978.9
622.084,981.3
622.613,981.8
623.142,996.2
623.671,989.6
624.2,985.8
624.729,980.9
625.258,981.4
625.786,980.8
626.315,980.2
626.844,981.5
627.372,984.0
627.901,990.8
628.429,1044.2
628.957,1037.5
629.486,1037.2
630.014,1037.9
630.542,1083.3
631.07,1408.9
631.598,1215.0
632.126,1095.9
632.654,1072.8
633.182,1157.3
633.71,1123.3
634.237,1042.8
634.765,1002.6
635.293,984.0
635.82,975.4
636.348,980.6
636.875,971.2
637.403,971.5
637.93,975.4
638.458,968.6
638.985,970.5
639.512,968.1
640.039,970.5
640.566,967.3
641.093,968.1
641.62,966.0
642.147,966.1
642.674,963.1
643.201,969.9
643.728,966.4
644.255,956.6
644.781,959.9
645.308,957.4
645.835,954.4
646.361,957.6
646.888,953.3
647.414,958.7
647.941,951.1
648.467,957.8
648.993,951.6
649.52,953.6
650.046,953.0
650.572,946.2
651.098,949.5
651.625,947.4
652.151,944.9
652.677,946.4
653.203,944.0
653.729,947.7
654.255,945.5
654.78,945.7
655.306,947.2
655.832,943.7
656.358,945.3
656.884,943.9
657.409,944.3
657.935,938.9
658.461,945.8
658.986,939.5
659.512,942.9
660.037,942.7
660.563,941.5
661.088,939.0
661.614,936.5
662.139,935.2
662.664,934.0
663.058,935.8