File: spectra/VLFR_02-HDPE_nobio_Raman_e4d2c6ec.csv
nm,Intensity
528.65,1833.65
529.155,1832.7
529.66,1833.1
530.165,1833.7
530.67,1833.65
531.175,1833.45
531.68,1844.15
532.185,2477.2
532.69,1834.9
533.194,1834.6
533.699,1911.45
534.204,2086.1
534.708,2073.95
535.213,2046.9
535.717,1984.65
536.222,1961.05
536.726,1955.8
537.231,1951.1
537.735,1958.7
538.239,1940.95
538.743,1932.25
539.247,1924.75
539.751,1922.85
540.255,1915.2
540.759,1916.4
541.263,1915.3
541.767,1915.55
542.271,1914.05
542.775,1916.2
543.279,1913.9
543.782,1918.75
544.286,1912.2
544.789,1911.8
545.293,1916.3
545.796,1912.0
546.3,1913.2
546.803,1919.75
547.306,1914.3
547.81,1913.5
548.313,1916.45
548.816,1910.3
549.319,1917.0
549.822,1917.8
550.325,1916.25
550.828,1923.35
551.331,1921.05
551.834,1922.05
552.337,1923.5
552.839,1924.1
553.342,1932.7
553.844,1935.7
554.347,1940.65
554.849,1942.35
555.352,1947.55
555.854,1948.4
556.357,1952.3
556.859,1962.9
557.361,1979.8
557.863,1983.7
558.365,1985.65
558.867,1987.55
559.369,1975.85
559.871,1979.45
560.373,1971.8
560.875,1975.6
561.377,1979.35
561.878,1985.8
562.38,1997.45
562.881,2005.45
563.383,2036.45
563.884,2471.55
564.386,2152.0
564.887,2106.25
565.388,2068.5
565.89,2330.0
566.391,2335.15
566.892,2057.35
567.393,2111.7
567.894,2046.35
568.395,2046.6
568.896,2049.7
569.396,2054.25
569.897,2070.4
570.398,2102.55
570.898,2151.3
571.399,2857.1
571.9,2270.45
572.4,2155.65
572.9,2128.0
573.401,2135.65
573.901,2215.5
574.401,2171.85
574.901,2209.45
575.401,2612.8
575.901,2570.3
576.401,2918.75
576.901,2755.45
577.401,2545.1
577.901,2447.85
578.4,2454.5
578.9,2499.1
579.399,2553.15
579.899,2620.65
580.398,2668.0
580.898,2741.7
581.397,2820.95
581.896,2863.55
582.395,2918.9
582.895,2968.55
583.394,3070.2
583.893,3151.55
584.391,3159.3
584.89,3227.2
585.389,3267.75
585.888,3292.0
586.386,3329.5
586.885,3407.7
587.384,3453.65
587.882,3532.45
588.38,3576.45
588.879,3659.05
589.377,3662.7
589.875,3744.7
590.373,3793.75
590.871,3803.95
591.369,3914.65
591.867,4016.1
592.365,4029.1
592.863,4082.75
593.361,4031.7
593.858,4102.7
594.356,4146.7
594.853,4172.65
595.351,4162.05
595.848,4267.35
596.345,4259.05
596.843,4300.1
597.34,4320.6
597.837,4289.5
598.334,4345.0
598.831,4472.85
599.328,4449.5
599.824,4368.8
600.321,4427.55
600.818,4423.9
601.314,4436.45
601.811,4410.45
602.307,4407.2
602.804,4304.4
603.3,4278.65
603.796,4257.75
604.293,4165.85
604.789,4088.3
605.285,4046.15
605.781,3952.6
606.277,3843.75
606.772,3825.4
607.268,3725.75
607.764,3708.65
608.259,3600.6
608.755,3562.2
609.25,3438.85
609.746,3416.2
610.241,3382.6
610.736,3351.3
611.231,3276.25
611.727,3235.5
612.222,3267.5
612.716,3154.05
613.211,3121.75
613.706,3121.65
614.201,3066.0
614.695,3034.0
615.19,3010.4
615.684,2997.0
616.179,2961.2
616.673,2926.65
617.168,2930.9
617.662,2891.45
618.156,2916.15
618.65,2871.0
619.144,2849.15
619.638,2849.0
620.131,2851.8
620.625,2834.65
621.119,2841.9
621.612,2897.2
622.106,3032.3
622.599,2936.8
623.093,2812.85
623.586,2758.45
624.079,2754.4
624.572,2746.75
625.065,2741.5
625.558,2771.5
626.051,2835.55
626.544,3451.75
627.037,6068.85
627.529,5698.25
628.022,4765.8
628.514,6865.7
629.007,4892.4
629.499,4352.2
629.991,3883.75
630.483,3772.85
630.976,3224.9
631.468,2865.0
631.959,2808.1
632.451,2752.05
632.943,2755.5
633.435,2746.75
633.926,2744.45
634.418,2754.6
634.909,2748.75
635.401,2716.35
635.892,2696.7
636.383,2736.5
636.874,2701.3
637.365,2733.75
637.856,2689.1
638.347,2726.0
638.838,2734.35
639.329,2720.65
639.819,2733.05
640.31,2731.7
640.8,2694.2
641.291,2689.3
641.781,2674.5
642.271,2711.05
642.761,2694.15
643.251,2713.65
643.741,2699.2
644.231,2683.95
644.721,2695.85
645.211,2731.75
645.7,2691.55
646.19,2681.45
646.679,2703.7
647.169,2696.4
647.658,2673.55
648.147,2686.25
648.636,2664.2
649.125,2650.15
649.614,2645.2
650.103,2599.5
650.592,2613.6
651.08,2600.35
651.569,2584.6
652.058,2595.7
652.546,2545.65
653.034,2584.0
653.523,2566.35
654.011,2547.65
654.499,2553.1
654.987,2507.95
655.475,2505.8
655.963,2498.3
656.45,2468.6
656.938,2468.3
657.425,2432.8
657.913,2433.45
658.4,2393.5
658.888,2402.5
659.375,2364.2
659.862,2352.75
660.349,2346.25
660.836,2319.35
661.079,2291.95