File: spectra/VLFR_02-HDPE_nobio_Raman_2ba9e21c.csv
nm,Intensity
526.508,829.9
527.055,829.4
527.602,829.0
528.149,829.6
528.695,831.2
529.241,830.8
529.787,831.6
530.334,829.8
530.879,829.6
531.425,829.4
531.971,834.6
532.516,829.7
533.062,829.3
533.607,829.3
534.152,899.9
534.697,899.6
535.242,897.3
535.786,863.5
536.331,856.6
536.876,850.8
537.42,851.4
537.964,849.2
538.508,848.3
539.052,844.6
539.596,841.7
540.14,842.4
540.683,840.7
541.227,839.5
541.77,841.1
542.313,840.5
542.856,839.6
543.399,837.8
543.942,838.9
544.485,841.6
545.027,838.5
545.57,838.2
546.112,838.7
546.654,837.7
547.196,838.9
547.738,840.6
548.28,838.8
548.822,838.9
549.363,838.5
549.905,838.7
550.446,837.8
550.988,839.4
551.529,839.3
552.07,839.6
552.611,841.0
553.152,841.4
553.692,843.0
554.233,840.8
554.773,841.6
555.314,841.7
555.854,843.0
556.394,843.4
556.934,844.7
557.474,848.3
558.014,848.8
558.553,848.7
559.093,846.5
559.632,850.3
560.172,846.5
560.711,847.2
561.25,846.7
561.789,845.8
562.328,848.8
562.867,848.1
563.406,854.1
563.944,936.0
564.483,871.1
565.021,864.8
565.559,857.7
566.098,932.7
566.636,861.3
567.174,856.2
567.711,862.1
568.249,849.3
568.787,849.3
569.324,850.4
569.862,848.7
570.399,853.0
570.936,858.5
571.474,981.9
572.011,878.2
572.548,854.2
573.084,850.1
573.621,850.9
574.158,857.5
574.694,848.6
575.231,853.1
575.767,897.4
576.303,1022.3
576.84,938.2
577.376,908.3
577.912,859.1
578.447,851.2
578.983,847.5
579.519,845.9
580.054,847.7
580.59,845.9
581.125,846.3
581.661,847.7
582.196,845.8
582.731,844.2
583.266,846.2
583.801,844.6
584.336,844.5
584.87,843.3
585.405,844.1
585.94,843.6
586.474,843.7
587.008,845.2
587.543,844.5
588.077,846.8
588.611,841.7
589.145,844.3
589.679,844.3
590.213,843.9
590.747,843.9
591.28,844.9
591.814,845.2
592.347,844.2
592.881,844.7
593.414,846.7
593.947,844.5
594.48,846.1
595.014,847.7
595.547,848.0
596.079,846.6
596.612,845.3
597.145,847.3
597.678,846.2
598.21,847.4
598.743,850.8
599.275,850.9
599.807,851.5
600.34,850.5
600.872,851.4
601.404,851.5
601.936,857.7
602.468,855.9
603.0,851.7
603.532,853.8
604.063,852.7
604.595,849.6
605.126,849.5
605.658,850.3
606.189,851.1
606.721,848.7
607.252,847.4
607.783,848.1
608.314,851.0
608.845,848.4
609.376,848.6
609.907,850.5
610.438,849.8
610.968,851.5
611.499,848.9
612.03,847.7
612.56,849.9
613.091,850.5
613.621,846.9
614.151,850.6
614.681,850.2
615.212,852.1
615.742,850.9
616.272,851.0
616.802,857.7
617.332,866.4
617.861,865.2
618.391,864.3
618.921,863.2
619.45,868.2
619.98,874.2
620.509,868.0
621.039,879.8
621.568,898.4
622.097,940.1
622.627,933.0
623.156,884.9
623.685,874.0
624.214,872.6
624.743,873.3
625.272,878.2
625.801,887.2
626.33,935.0
626.858,1353.6
627.387,2048.0
627.916,1544.1
628.444,1939.3
628.973,1480.4
629.501,1343.1
630.029,1189.3
630.558,1154.7
631.086,992.4
631.614,899.0
632.142,878.8
632.67,871.4
633.198,868.0
633.726,864.3
634.254,859.2
634.782,857.7
635.31,854.0
635.838,852.1
636.365,851.4
636.893,855.0
637.421,847.9
637.948,845.9
638.476,846.4
639.003,846.1
639.531,842.3
640.058,843.8
640.585,842.8
641.113,843.6
641.64,844.2
642.167,843.5
642.694,842.5
643.221,845.6
643.748,842.1
644.275,841.6
644.802,842.6
645.329,842.4
645.856,843.2
646.382,842.1
646.909,842.8
647.436,841.1
647.962,843.3
648.489,841.1
649.016,841.7
649.542,840.9
650.069,843.0
650.595,841.6
651.121,843.3
651.648,841.7
652.174,841.4
652.7,841.0
653.227,842.0
653.753,842.8
654.279,843.4
654.805,842.3
655.331,840.6
655.857,842.4
656.383,842.2
656.909,842.8
657.435,842.9
657.961,843.0
658.487,839.7
659.013,841.7
659.538,842.3
660.064,846.4
660.59,844.8
661.116,843.2
661.641,842.0
662.167,840.7
662.692,842.4
663.087,842.0