File: spectra/VLFR_07-PET_bio_Raman_4828cc98.csv
nm,Intensity
791.377,5918.12
792.477,5843.72
793.576,5817.88
794.676,5793.92
795.775,5771.96
796.874,5744.58
797.973,5797.1
799.072,5727.3
800.171,5743.3
801.27,5768.92
802.368,5703.86
803.467,5669.24
804.565,5639.3
805.664,5632.18
806.762,5589.78
807.86,5585.5
808.958,5506.92
810.056,5505.7
811.153,5432.56
812.251,5435.36
813.349,5379.02
814.446,5347.18
815.543,5328.24
816.64,5287.72
817.737,5224.48
818.834,5227.0
819.931,5211.58
821.028,5214.22
822.125,5132.86
823.221,5114.56
824.317,5084.92
825.414,5103.22
826.51,5053.7
827.606,5035.12
828.702,5011.42
829.797,5002.78
830.893,4978.84
831.988,4957.48
833.084,4935.64
834.179,4897.98
835.274,4861.42
836.369,4880.34
837.464,4893.36
838.559,4839.14
839.654,4844.08
840.748,4824.9
841.843,4822.9
842.937,4798.58
844.031,4736.5
845.125,4745.56
846.219,4724.88
847.313,4702.38
848.407,4702.74
849.5,4655.78
850.593,4660.04
851.687,4698.76
852.78,4664.14
853.873,4619.56
854.966,4588.96
856.059,4600.42
857.151,4591.16
858.244,4600.38
859.336,4598.04
860.428,4581.76
861.52,4555.3
862.612,4542.64
863.704,4535.0
864.796,4541.94
865.888,4509.9
866.979,4487.34
868.07,4488.52
869.162,4498.28
870.253,4489.3
871.344,4501.42
872.434,4496.72
873.525,4496.0
874.615,4476.16
875.706,4462.46
876.796,4452.08
877.886,4431.5
878.976,4447.18
880.066,4412.8
881.156,4419.54
882.245,4416.4
883.335,4403.98
884.424,4402.6
885.513,4395.48
886.602,4352.68
887.691,4376.28
888.78,4348.58
889.868,4343.6
890.957,4344.74
892.045,4324.5
893.133,4303.14
894.221,4299.06
895.309,4285.44
896.397,4281.5
897.484,4277.32
898.571,4309.1
899.659,4278.12
900.746,4227.3
901.833,4225.22
902.92,4223.26
904.006,4213.66
905.093,4198.32
906.179,4213.82
907.266,4220.5
908.352,4204.94
909.438,4175.62
910.523,4153.94
911.609,4140.06
912.695,4134.22
913.78,4117.24
914.865,4112.56
915.95,4107.84
917.035,4092.34
918.12,4099.48
919.204,4077.62
920.289,4073.12
921.373,4068.76
922.457,4061.5
923.541,4050.4
924.625,4043.96
925.709,4035.66
926.792,4017.16
927.876,4020.76
928.959,3998.76
930.042,3996.78
931.125,3979.4
932.208,3973.66
933.29,3965.72
934.373,3954.98
935.455,3950.38
936.537,3950.12
937.619,3943.18
938.701,3941.7
939.782,3942.94
940.864,3934.86
941.945,3927.34
943.026,3918.78
944.107,3913.96
945.188,3910.14
946.269,3908.6
947.349,3901.7
948.43,3897.98
949.51,3900.6
950.59,3893.0
951.67,3888.26
952.75,3884.16
953.829,3885.58
954.909,3882.48
955.988,3875.34
957.067,3874.04
958.146,3871.9
959.224,3866.14
960.303,3866.98
961.381,3863.56
962.459,3859.78
963.537,3858.02
964.615,3859.32
965.693,3855.06
966.771,3852.76
967.848,3854.16
968.925,3850.44
970.002,3847.0
971.079,3846.82
972.156,3846.18
973.232,3843.6
974.309,3840.26
975.385,3836.18
976.461,3835.0
977.537,3835.14
978.612,3834.16
979.688,3833.42
980.763,3828.38
981.838,3828.6
982.913,3828.3
983.988,3826.18
985.063,3825.46
986.137,3822.88
987.211,3823.28
988.285,3823.06
989.359,3821.32
990.433,3818.32
991.506,3818.02
992.58,3816.9
993.653,3815.26
994.726,3815.26
995.799,3811.48
996.872,3811.52
997.944,3809.76
999.016,3810.48
1000.09,3807.1
1001.16,3805.24
1002.23,3806.6
1003.3,3804.98
1004.38,3802.74
1005.45,3801.92
1006.52,3801.24
1007.59,3801.38
1008.66,3800.34
1009.73,3798.14
1010.8,3798.8
1011.87,3797.78
1012.94,3797.48
1014.01,3796.46
1015.08,3795.24
1016.15,3795.16
1017.22,3793.68
1018.29,3793.58
1019.36,3791.7
1020.42,3792.16
1021.49,3792.7
1022.56,3793.18
1023.63,3790.94
1024.7,3790.12
1025.76,3789.62
1026.83,3788.48
1027.9,3788.98
1028.97,3787.62
1030.03,3788.38
1031.1,3787.16
1032.17,3787.08
1033.23,3786.7
1034.3,3787.0
1035.36,3786.1
1036.43,3785.98
1037.5,3785.42
1038.56,3785.2
1039.63,3784.82
1040.69,3785.36
1041.76,3783.78
1042.82,3784.24
1043.89,3784.1
1044.95,3782.64
1046.01,3782.0
1047.08,3782.88
1048.14,3781.58
1049.2,3783.68
1050.27,3782.82
1051.33,3782.2
1052.39,3781.88
1053.46,3781.8
1054.52,3782.1
1055.58,3782.76
1056.64,3781.88
1057.7,3781.0
1058.77,3781.04
1059.83,3781.84
1060.89,3781.52
1061.95,3781.2
1063.01,3781.4
1064.07,3780.76
1065.13,3781.06
1066.19,3779.58
1067.25,3779.96
1068.05,3780.32