File: spectra/VLFR_01-LDPE_nobio_Raman_579523bc.csv
nm,Intensity
526.486,828.5
527.033,830.4
527.579,830.1
528.126,830.1
528.672,829.9
529.219,829.9
529.765,829.5
530.311,830.3
530.857,830.2
531.403,829.4
531.948,829.6
532.494,830.1
533.039,832.2
533.585,830.5
534.13,899.7
534.675,891.4
535.22,876.5
535.764,866.1
536.309,859.1
536.854,858.4
537.398,857.5
537.942,858.8
538.486,855.0
539.03,858.6
539.574,851.1
540.118,850.5
540.662,850.0
541.205,849.5
541.749,846.9
542.292,847.1
542.835,846.9
543.378,846.5
543.921,847.6
544.464,845.4
545.006,844.9
545.549,845.4
546.091,845.9
546.634,846.0
547.176,843.9
547.718,844.7
548.26,844.9
548.802,845.0
549.343,844.3
549.885,844.3
550.426,843.4
550.968,846.4
551.509,845.3
552.05,845.2
552.591,846.3
553.132,847.6
553.673,848.7
554.214,845.7
554.754,847.7
555.295,846.9
555.835,847.7
556.375,848.8
556.915,850.8
557.455,852.8
557.995,854.9
558.535,855.9
559.075,852.2
559.614,852.6
560.154,851.8
560.693,849.1
561.232,850.1
561.772,851.6
562.311,852.5
562.85,853.7
563.388,857.7
563.927,894.7
564.466,875.3
565.004,869.2
565.543,861.7
566.081,898.0
566.619,865.8
567.157,858.1
567.695,861.5
568.233,854.0
568.771,855.6
569.309,857.2
569.846,856.5
570.384,859.3
570.921,864.4
571.458,919.7
571.995,891.4
572.532,871.0
573.069,861.0
573.606,863.8
574.143,868.6
574.68,861.2
575.216,861.8
575.753,895.2
576.289,975.1
576.825,933.9
577.361,909.3
577.897,873.5
578.433,867.2
578.969,870.1
579.505,869.9
580.041,870.5
580.576,873.3
581.112,871.7
581.647,877.1
582.183,877.5
582.718,883.7
583.253,887.0
583.788,891.8
584.323,896.7
584.858,902.9
585.392,909.4
585.927,919.1
586.462,932.7
586.996,941.0
587.53,949.3
588.065,955.7
588.599,969.1
589.133,970.7
589.667,982.4
590.201,991.8
590.735,997.9
591.268,1004.1
591.802,1004.6
592.335,1009.7
592.869,1003.0
593.402,1008.3
593.936,1008.2
594.469,1006.1
595.002,1015.2
595.535,1016.6
596.068,1012.2
596.601,1016.2
597.133,1020.5
597.666,1020.1
598.199,1027.3
598.731,1026.8
599.264,1031.9
599.796,1034.4
600.328,1039.1
600.86,1036.7
601.393,1032.5
601.925,1031.8
602.457,1030.5
602.988,1023.5
603.52,1019.9
604.052,1010.7
604.583,1003.5
605.115,992.3
605.646,985.2
606.178,979.1
606.709,973.6
607.24,966.1
607.771,967.9
608.302,958.5
608.833,955.1
609.364,952.5
609.895,948.4
610.426,948.7
610.957,941.4
611.487,938.0
612.018,939.2
612.548,935.4
613.078,935.3
613.609,935.0
614.139,934.1
614.669,930.7
615.199,925.6
615.729,930.9
616.259,922.8
616.789,923.4
617.319,926.1
617.849,920.8
618.378,923.3
618.908,919.1
619.437,924.4
619.967,921.2
620.496,927.3
621.025,924.3
621.555,934.6
622.084,959.6
622.613,954.2
623.142,926.9
623.671,918.2
624.2,913.3
624.729,912.9
625.258,919.0
625.786,920.3
626.315,947.3
626.844,1158.7
627.372,1641.4
627.901,1347.4
628.429,1517.0
628.957,1395.9
629.486,1296.3
630.014,1185.2
630.542,1157.0
631.07,1037.1
631.598,956.5
632.126,933.3
632.654,919.8
633.182,915.8
633.71,911.2
634.237,907.2
634.765,908.5
635.293,910.3
635.82,907.3
636.348,910.3
636.875,913.2
637.403,909.6
637.93,912.2
638.458,917.3
638.985,918.9
639.512,919.4
640.039,919.4
640.566,925.1
641.093,926.5
641.62,928.7
642.147,927.2
642.674,925.5
643.201,930.9
643.728,931.8
644.255,932.2
644.781,931.6
645.308,936.4
645.835,932.9
646.361,932.2
646.888,936.7
647.414,931.1
647.941,931.8
648.467,933.5
648.993,933.4
649.52,928.4
650.046,933.5
650.572,932.2
651.098,927.7
651.625,933.0
652.151,929.3
652.677,932.0
653.203,931.1
653.729,931.7
654.255,931.0
654.78,929.9
655.306,929.7
655.832,927.6
656.358,927.9
656.884,929.6
657.409,925.5
657.935,921.4
658.461,918.4
658.986,917.2
659.512,915.2
660.037,914.5
660.563,913.9
661.088,906.4
661.614,904.1
662.139,902.5
662.664,899.1
663.058,900.1