File: spectra/VLFR_02-HDPE_nobio_Raman_beca73c5.csv
nm,Intensity
526.508,830.6
527.055,830.3
527.602,830.3
528.149,829.8
528.695,829.8
529.241,831.0
529.787,830.9
530.334,830.6
530.879,829.6
531.425,830.1
531.971,833.3
532.516,830.7
533.062,831.6
533.607,830.1
534.152,965.3
534.697,955.9
535.242,941.0
535.786,923.4
536.331,914.0
536.876,910.1
537.42,907.5
537.964,906.5
538.508,904.4
539.052,903.1
539.596,905.0
540.14,900.2
540.683,900.3
541.227,902.2
541.77,902.3
542.313,903.8
542.856,907.3
543.399,907.4
543.942,907.3
544.485,907.8
545.027,910.8
545.57,909.9
546.112,912.9
546.654,914.8
547.196,918.3
547.738,915.7
548.28,919.9
548.822,915.1
549.363,919.0
549.905,922.7
550.446,923.7
550.988,923.4
551.529,926.1
552.07,924.4
552.611,925.9
553.152,930.3
553.692,930.9
554.233,934.7
554.773,935.6
555.314,932.6
555.854,931.3
556.394,934.0
556.934,942.9
557.474,943.0
558.014,944.8
558.553,947.8
559.093,948.0
559.632,947.2
560.172,949.6
560.711,951.3
561.25,950.9
561.789,947.1
562.328,957.4
562.867,958.8
563.406,965.3
563.944,1004.2
564.483,983.4
565.021,969.9
565.559,976.3
566.098,1028.7
566.636,977.0
567.174,979.9
567.711,974.9
568.249,975.2
568.787,977.1
569.324,987.4
569.862,992.2
570.399,992.9
570.936,1003.1
571.474,1084.2
572.011,1023.7
572.548,1015.1
573.084,1014.7
573.621,1016.1
574.158,1032.9
574.694,1039.3
575.231,1041.6
575.767,1087.5
576.303,1169.1
576.84,1132.9
577.376,1123.8
577.912,1112.3
578.447,1128.7
578.983,1133.6
579.519,1166.4
580.054,1181.2
580.59,1199.0
581.125,1225.7
581.661,1250.1
582.196,1272.8
582.731,1302.7
583.266,1335.8
583.801,1364.1
584.336,1393.8
584.87,1413.2
585.405,1435.7
585.94,1467.0
586.474,1500.1
587.008,1536.1
587.543,1572.2
588.077,1598.7
588.611,1630.0
589.145,1652.9
589.679,1693.4
590.213,1725.9
590.747,1768.4
591.28,1802.5
591.814,1835.5
592.347,1859.2
592.881,1873.2
593.414,1890.7
593.947,1913.7
594.48,1928.9
595.014,1962.5
595.547,1999.0
596.079,2022.0
596.612,2052.6
597.145,2070.9
597.678,2087.2
598.21,2132.2
598.743,2158.2
599.275,2179.5
599.807,2189.1
600.34,2182.2
600.872,2188.2
601.404,2200.5
601.936,2191.7
602.468,2178.8
603.0,2165.5
603.532,2138.2
604.063,2111.0
604.595,2080.9
605.126,2024.4
605.658,1989.2
606.189,1947.1
606.721,1916.7
607.252,1900.5
607.783,1872.1
608.314,1844.2
608.845,1817.4
609.376,1796.1
609.907,1780.4
610.438,1761.5
610.968,1735.1
611.499,1730.4
612.03,1716.9
612.56,1706.4
613.091,1697.0
613.621,1690.1
614.151,1670.3
614.681,1659.0
615.212,1644.0
615.742,1625.6
616.272,1609.2
616.802,1598.4
617.332,1600.7
617.861,1593.2
618.391,1575.9
618.921,1564.6
619.45,1552.7
619.98,1542.2
620.509,1531.5
621.039,1521.1
621.568,1515.2
622.097,1534.1
622.627,1522.7
623.156,1505.4
623.685,1484.3
624.214,1483.0
624.743,1482.3
625.272,1470.0
625.801,1463.1
626.33,1478.9
626.858,1638.6
627.387,1945.0
627.916,1736.2
628.444,1898.3
628.973,1796.4
629.501,1699.3
630.029,1626.0
630.558,1616.5
631.086,1530.5
631.614,1457.0
632.142,1451.3
632.67,1452.4
633.198,1439.3
633.726,1436.4
634.254,1438.1
634.782,1437.4
635.31,1448.8
635.838,1444.0
636.365,1454.7
636.893,1456.6
637.421,1460.9
637.948,1467.3
638.476,1468.2
639.003,1475.6
639.531,1482.6
640.058,1478.5
640.585,1486.4
641.113,1491.6
641.64,1496.6
642.167,1496.5
642.694,1501.9
643.221,1494.8
643.748,1516.8
644.275,1514.7
644.802,1514.7
645.329,1514.2
645.856,1502.2
646.382,1527.3
646.909,1528.4
647.436,1529.5
647.962,1531.2
648.489,1529.1
649.016,1528.7
649.542,1531.1
650.069,1528.5
650.595,1535.0
651.121,1532.9
651.648,1542.6
652.174,1554.4
652.7,1552.5
653.227,1547.2
653.753,1548.8
654.279,1549.7
654.805,1547.2
655.331,1558.4
655.857,1552.3
656.383,1546.4
656.909,1545.1
657.435,1539.3
657.961,1529.5
658.487,1526.8
659.013,1514.1
659.538,1511.4
660.064,1505.0
660.59,1486.3
661.116,1486.1
661.641,1478.3
662.167,1456.1
662.692,1444.7
663.087,1450.2