File: spectra/VLFR_06-PET_bio_Raman_87abc64c.csv
nm,Intensity
526.547,831.5
527.095,831.55
527.642,831.75
528.189,831.55
528.736,832.1
529.283,832.6
529.829,832.85
530.376,832.65
530.922,831.95
531.468,833.55
532.014,837.8
532.56,833.45
533.106,833.0
533.651,843.0
534.196,1553.6
534.742,1349.3
535.287,1164.65
535.832,1056.3
536.376,989.05
536.921,966.7
537.465,953.55
538.01,951.6
538.554,953.95
539.098,953.55
539.642,961.6
540.186,970.55
540.729,948.25
541.273,944.0
541.816,943.4
542.36,941.85
542.903,945.0
543.446,950.75
543.988,953.75
544.531,953.75
545.074,956.35
545.616,958.3
546.158,960.2
546.701,962.65
547.243,961.0
547.785,967.7
548.326,968.7
548.868,972.25
549.41,975.35
549.951,978.0
550.492,995.85
551.034,988.1
551.575,989.65
552.116,992.3
552.656,998.95
553.197,1001.5
553.738,1001.0
554.278,1000.8
554.819,1008.35
555.359,1016.15
555.899,1042.4
556.439,1052.7
556.979,1056.55
557.519,1149.0
558.058,1074.6
558.598,1075.1
559.137,1047.45
559.677,1038.95
560.216,1039.85
560.755,1041.6
561.294,1051.8
561.833,1051.6
562.371,1066.05
562.91,1079.8
563.449,1079.6
563.987,1080.2
564.525,1083.55
565.064,1112.8
565.602,1158.05
566.14,1149.45
566.678,1100.35
567.216,1093.7
567.753,1145.4
568.291,1109.2
568.828,1105.85
569.366,1114.7
569.903,1135.7
570.44,1168.05
570.977,1240.95
571.514,1294.45
572.051,1213.25
572.588,1155.45
573.125,1144.5
573.661,1150.1
574.198,1169.85
574.734,1164.8
575.271,1186.35
575.807,1173.05
576.343,1190.7
576.879,1203.0
577.415,1184.25
577.951,1184.3
578.486,1188.2
579.022,1190.6
579.557,1193.55
580.093,1197.05
580.628,1205.65
581.164,1218.25
581.699,1272.65
582.234,1975.7
582.769,1249.05
583.304,1218.7
583.838,1225.4
584.373,1236.0
584.908,1246.45
585.442,1324.05
585.977,1629.2
586.511,1449.2
587.045,1280.4
587.58,1259.6
588.114,1260.55
588.648,1257.55
589.182,1259.4
589.715,1252.2
590.249,1261.85
590.783,1259.6
591.316,1263.8
591.85,1267.55
592.383,1263.0
592.917,1267.55
593.45,1267.5
593.983,1261.65
594.516,1274.45
595.049,1274.45
595.582,1277.2
596.115,1284.7
596.648,1281.7
597.18,1283.0
597.713,1293.15
598.245,1293.95
598.778,1296.0
599.31,1293.65
599.842,1302.45
600.375,1293.15
600.907,1298.8
601.439,1298.65
601.971,1297.5
602.503,1299.8
603.034,1299.9
603.566,1309.0
604.098,1303.95
604.629,1301.4
605.161,1305.85
605.692,1285.75
606.224,1288.85
606.755,1290.25
607.286,1301.15
607.817,1301.35
608.348,1298.75
608.879,1308.5
609.41,1298.3
609.941,1308.5
610.472,1306.55
611.002,1304.55
611.533,1304.8
612.063,1309.0
612.594,1315.1
613.124,1323.85
613.655,1331.2
614.185,1333.8
614.715,1330.0
615.245,1333.6
615.775,1338.4
616.305,1332.55
616.835,1338.4
617.365,1339.3
617.895,1350.9
618.425,1354.5
618.954,1351.2
619.484,1343.5
620.013,1347.3
620.543,1347.15
621.072,1355.15
621.602,1355.5
622.131,1359.75
622.66,1365.9
623.189,1370.45
623.718,1369.35
624.247,1375.2
624.776,1379.6
625.305,1385.45
625.834,1394.55
626.363,1388.45
626.891,1398.1
627.42,1394.85
627.949,1401.3
628.477,1418.4
629.006,1444.6
629.534,1440.2
630.062,1439.75
630.591,1447.05
631.119,1498.9
631.647,1581.85
632.175,1569.5
632.703,1518.65
633.231,1511.25
633.759,1497.9
634.287,1482.3
634.815,1473.9
635.343,1484.15
635.871,1539.85
636.398,1631.2
636.926,1613.2
637.454,1525.95
637.981,1514.25
638.509,1511.9
639.036,1506.95
639.564,1522.3
640.091,1523.3
640.618,1518.85
641.146,1524.95
641.673,1533.7
642.2,1546.05
642.727,1541.5
643.254,1525.35
643.781,1528.95
644.308,1526.95
644.835,1535.0
645.362,1539.75
645.889,1541.95
646.416,1543.75
646.942,1559.65
647.469,1552.75
647.996,1555.1
648.522,1554.25
649.049,1557.05
649.576,1561.85
650.102,1554.15
650.629,1554.25
651.155,1558.35
651.682,1563.55
652.208,1552.1
652.734,1565.05
653.261,1570.1
653.787,1573.5
654.313,1566.35
654.839,1573.55
655.365,1569.9
655.892,1574.1
656.418,1563.25
656.944,1572.75
657.47,1573.25
657.996,1577.3
658.522,1576.75
659.048,1584.0
659.574,1580.1
660.099,1577.1
660.625,1575.65
661.151,1570.15
661.677,1556.25
662.203,1555.85
662.728,1553.0
663.123,1553.05