File: spectra/VLFR_02-HDPE_bio_Raman_a59dab61.csv
nm,Intensity
526.547,832.35
527.095,832.85
527.642,832.75
528.189,832.85
528.736,832.75
529.283,833.1
529.829,833.35
530.376,831.9
530.922,832.85
531.468,833.1
532.014,835.85
532.56,832.1
533.106,832.9
533.651,833.55
534.196,904.2
534.742,899.55
535.287,891.9
535.832,869.0
536.376,861.1
536.921,860.0
537.465,859.0
538.01,856.9
538.554,857.05
539.098,852.95
539.642,852.1
540.186,850.9
540.729,848.6
541.273,848.95
541.816,849.9
542.36,848.9
542.903,848.85
543.446,848.15
543.988,850.1
544.531,848.1
545.074,848.95
545.616,847.6
546.158,849.25
546.701,849.35
547.243,848.3
547.785,848.6
548.326,849.75
548.868,849.9
549.41,848.75
549.951,848.35
550.492,848.65
551.034,848.5
551.575,849.3
552.116,849.2
552.656,849.15
553.197,850.4
553.738,852.6
554.278,854.0
554.819,854.1
555.359,853.65
555.899,856.05
556.439,855.75
556.979,858.3
557.519,860.5
558.058,860.05
558.598,859.7
559.137,857.35
559.677,858.35
560.216,857.65
560.755,855.9
561.294,857.5
561.833,858.75
562.371,859.3
562.91,863.1
563.449,865.0
563.987,977.5
564.525,885.0
565.064,876.15
565.602,871.9
566.14,961.7
566.678,868.25
567.216,867.2
567.753,870.25
568.291,861.7
568.828,863.9
569.366,864.05
569.903,863.2
570.44,868.15
570.977,873.2
571.514,1083.95
572.051,890.95
572.588,870.2
573.125,864.6
573.661,864.8
574.198,872.75
574.734,862.75
575.271,866.8
575.807,904.55
576.343,1071.15
576.879,968.85
577.415,928.6
577.951,876.35
578.486,868.25
579.022,866.4
579.557,865.95
580.093,864.35
580.628,863.05
581.164,864.2
581.699,864.65
582.234,865.55
582.769,864.65
583.304,864.6
583.838,863.35
584.373,864.9
584.908,863.95
585.442,865.8
585.977,865.65
586.511,866.7
587.045,865.65
587.58,866.6
588.114,867.0
588.648,867.8
589.182,869.2
589.715,868.7
590.249,867.35
590.783,869.3
591.316,869.6
591.85,870.2
592.383,870.8
592.917,869.95
593.45,871.85
593.983,873.5
594.516,874.7
595.049,874.45
595.582,875.35
596.115,876.25
596.648,878.55
597.18,880.5
597.713,879.25
598.245,881.35
598.778,882.8
599.31,884.8
599.842,882.15
600.375,885.65
600.907,884.7
601.439,884.4
601.971,889.1
602.503,886.1
603.034,883.85
603.566,884.95
604.098,885.2
604.629,884.5
605.161,880.25
605.692,881.15
606.224,877.85
606.755,878.0
607.286,875.75
607.817,875.3
608.348,875.5
608.879,876.15
609.41,875.05
609.941,874.95
610.472,873.6
611.002,874.75
611.533,877.6
612.063,873.05
612.594,873.6
613.124,875.8
613.655,873.8
614.185,873.55
614.715,873.8
615.245,875.2
615.775,874.6
616.305,879.2
616.835,881.4
617.365,889.15
617.895,889.65
618.425,888.5
618.954,884.6
619.484,892.45
620.013,895.7
620.543,894.5
621.072,905.35
621.602,928.1
622.131,973.75
622.66,961.6
623.189,909.25
623.718,898.65
624.247,896.05
624.776,895.4
625.305,903.15
625.834,914.65
626.363,972.55
626.891,1493.05
627.42,2042.0
627.949,1555.55
628.477,2112.55
629.006,1602.0
629.534,1414.8
630.062,1238.65
630.591,1198.65
631.119,1009.75
631.647,920.75
632.175,903.0
632.703,896.05
633.231,890.7
633.759,886.45
634.287,881.1
634.815,876.4
635.343,876.05
635.871,873.1
636.398,872.15
636.926,870.7
637.454,866.9
637.981,866.1
638.509,864.55
639.036,865.2
639.564,864.7
640.091,865.1
640.618,863.15
641.146,864.3
641.673,865.8
642.2,861.85
642.727,862.6
643.254,861.5
643.781,862.55
644.308,862.45
644.835,861.8
645.362,860.65
645.889,861.4
646.416,859.75
646.942,859.9
647.469,861.0
647.996,861.4
648.522,862.35
649.049,860.85
649.576,861.75
650.102,861.3
650.629,860.95
651.155,862.15
651.682,861.7
652.208,862.6
652.734,862.5
653.261,861.8
653.787,861.7
654.313,859.75
654.839,862.85
655.365,861.3
655.892,861.15
656.418,862.15
656.944,860.35
657.47,863.05
657.996,860.75
658.522,860.4
659.048,860.2
659.574,861.0
660.099,864.25
660.625,859.35
661.151,858.6
661.677,859.15
662.203,858.05
662.728,856.0
663.123,856.55