File: spectra/VLFR_01-LDPE_nobio_Raman_aa51660e.csv
nm,Intensity
526.486,826.4
527.033,827.2
527.579,827.2
528.126,826.5
528.672,827.4
529.219,827.6
529.765,829.6
530.311,827.6
530.857,826.8
531.403,826.8
531.948,831.0
532.494,827.4
533.039,827.8
533.585,827.5
534.13,899.1
534.675,887.8
535.22,877.3
535.764,866.9
536.309,857.1
536.854,854.2
537.398,855.1
537.942,852.4
538.486,851.1
539.03,847.9
539.574,846.5
540.118,846.1
540.662,843.7
541.205,841.5
541.749,842.1
542.292,843.1
542.835,843.9
543.378,841.5
543.921,842.0
544.464,839.8
545.006,840.5
545.549,839.5
546.091,840.0
546.634,840.8
547.176,839.0
547.718,841.4
548.26,840.9
548.802,840.7
549.343,839.4
549.885,837.3
550.426,840.4
550.968,837.8
551.509,837.0
552.05,839.7
552.591,840.6
553.132,840.0
553.673,843.5
554.214,844.2
554.754,843.9
555.295,843.5
555.835,844.9
556.375,846.3
556.915,850.6
557.455,849.6
557.995,853.6
558.535,854.5
559.075,852.3
559.614,851.1
560.154,849.9
560.693,848.8
561.232,849.5
561.772,850.4
562.311,852.2
562.85,855.8
563.388,859.9
563.927,908.4
564.466,881.7
565.004,873.9
565.543,867.4
566.081,931.4
566.619,874.6
567.157,864.9
567.695,870.7
568.233,864.7
568.771,867.4
569.309,869.3
569.846,871.9
570.384,876.3
570.921,883.6
571.458,962.2
571.995,919.7
572.532,898.0
573.069,893.8
573.606,897.4
574.143,909.2
574.68,908.0
575.216,919.3
575.753,969.3
576.289,1066.4
576.825,1022.9
577.361,1006.3
577.897,977.7
578.433,989.3
578.969,1000.6
579.505,1012.8
580.041,1031.8
580.576,1047.6
581.112,1063.9
581.647,1072.4
582.183,1088.0
582.718,1105.1
583.253,1119.2
583.788,1137.3
584.323,1140.8
584.858,1151.5
585.392,1164.1
585.927,1173.5
586.462,1187.6
586.996,1208.7
587.53,1212.4
588.065,1225.8
588.599,1248.3
589.133,1263.0
589.667,1271.7
590.201,1291.8
590.735,1299.8
591.268,1314.7
591.802,1316.0
592.335,1344.3
592.869,1347.8
593.402,1355.5
593.936,1361.2
594.469,1362.6
595.002,1379.5
595.535,1397.6
596.068,1408.4
596.601,1422.7
597.133,1442.9
597.666,1450.6
598.199,1478.3
598.731,1486.3
599.264,1505.5
599.796,1506.4
600.328,1512.4
600.86,1518.0
601.393,1504.9
601.925,1500.5
602.457,1484.0
602.988,1477.5
603.52,1457.1
604.052,1429.8
604.583,1407.5
605.115,1383.9
605.646,1347.7
606.178,1320.0
606.709,1301.9
607.24,1286.3
607.771,1258.6
608.302,1257.8
608.833,1237.5
609.364,1217.5
609.895,1204.1
610.426,1191.8
610.957,1187.0
611.487,1178.9
612.018,1164.5
612.548,1161.2
613.078,1158.4
613.609,1156.6
614.139,1141.4
614.669,1131.5
615.199,1129.1
615.729,1113.4
616.259,1103.8
616.789,1100.5
617.319,1101.6
617.849,1096.4
618.378,1093.0
618.908,1091.0
619.437,1085.0
619.967,1085.0
620.496,1081.1
621.025,1077.4
621.555,1089.3
622.084,1103.7
622.613,1103.6
623.142,1077.1
623.671,1077.5
624.2,1066.1
624.729,1065.3
625.258,1066.3
625.786,1077.2
626.315,1101.0
626.844,1297.9
627.372,1781.6
627.901,1490.9
628.429,1676.7
628.957,1573.8
629.486,1461.4
630.014,1350.7
630.542,1336.8
631.07,1199.2
631.598,1123.2
632.126,1104.7
632.654,1091.6
633.182,1082.5
633.71,1082.7
634.237,1085.2
634.765,1079.5
635.293,1077.4
635.82,1085.8
636.348,1081.8
636.875,1088.7
637.403,1083.8
637.93,1081.4
638.458,1089.6
638.985,1092.7
639.512,1093.3
640.039,1096.3
640.566,1092.6
641.093,1103.6
641.62,1106.7
642.147,1103.2
642.674,1105.5
643.201,1107.1
643.728,1110.2
644.255,1104.4
644.781,1114.0
645.308,1111.7
645.835,1116.8
646.361,1115.3
646.888,1116.0
647.414,1122.0
647.941,1114.5
648.467,1121.7
648.993,1119.3
649.52,1115.3
650.046,1120.9
650.572,1127.3
651.098,1110.5
651.625,1123.5
652.151,1123.2
652.677,1129.7
653.203,1127.5
653.729,1135.7
654.255,1129.8
654.78,1127.1
655.306,1122.9
655.832,1116.6
656.358,1113.1
656.884,1112.8
657.409,1103.4
657.935,1104.6
658.461,1099.9
658.986,1088.4
659.512,1079.2
660.037,1069.2
660.563,1063.6
661.088,1054.7
661.614,1044.7
662.139,1030.5
662.664,1026.1
663.058,1017.7