File: spectra/VLFR_08-PLA_nobio_Raman_83f2115e.csv
nm,Intensity
526.486,830.1
527.033,830.9
527.579,829.7
528.126,830.9
528.672,830.5
529.219,829.7
529.765,830.6
530.311,831.6
530.857,830.2
531.403,830.9
531.948,834.0
532.494,832.5
533.039,829.2
533.585,833.3
534.13,1035.1
534.675,1008.8
535.22,976.4
535.764,954.5
536.309,949.0
536.854,953.9
537.398,945.2
537.942,943.1
538.486,937.2
539.03,936.6
539.574,933.3
540.118,929.8
540.662,943.3
541.205,950.9
541.749,940.0
542.292,932.6
542.835,937.7
543.378,956.8
543.921,969.4
544.464,953.5
545.006,941.3
545.549,936.2
546.091,936.7
546.634,943.1
547.176,945.2
547.718,939.2
548.26,945.4
548.802,943.1
549.343,947.0
549.885,945.6
550.426,942.4
550.968,953.2
551.509,951.9
552.05,956.2
552.591,958.7
553.132,964.0
553.673,955.6
554.214,971.8
554.754,962.5
555.295,954.3
555.835,957.0
556.375,952.9
556.915,958.6
557.455,974.3
557.995,1073.1
558.535,993.9
559.075,974.2
559.614,964.4
560.154,971.7
560.693,965.1
561.232,958.6
561.772,963.5
562.311,966.9
562.85,972.7
563.388,1002.9
563.927,988.9
564.466,979.7
565.004,995.7
565.543,995.8
566.081,1021.6
566.619,994.6
567.157,983.5
567.695,984.7
568.233,989.0
568.771,984.8
569.309,989.5
569.846,987.5
570.384,984.5
570.921,991.1
571.458,1001.7
571.995,1007.9
572.532,1002.6
573.069,1004.4
573.606,1011.8
574.143,1004.6
574.68,1015.6
575.216,995.0
575.753,992.2
576.289,1003.6
576.825,1062.2
577.361,1018.7
577.897,997.9
578.433,996.1
578.969,998.0
579.505,999.0
580.041,998.1
580.576,1000.6
581.112,999.3
581.647,996.7
582.183,1001.9
582.718,1003.0
583.253,1007.4
583.788,1004.9
584.323,1008.5
584.858,1004.4
585.392,1005.0
585.927,1007.3
586.462,1018.6
586.996,1053.2
587.53,1078.9
588.065,1035.4
588.599,1011.3
589.133,1009.0
589.667,1010.8
590.201,1005.0
590.735,1014.8
591.268,1009.0
591.802,1010.0
592.335,1014.7
592.869,1005.5
593.402,1006.9
593.936,1006.1
594.469,1013.1
595.002,1010.9
595.535,1013.4
596.068,1011.2
596.601,1016.8
597.133,1015.3
597.666,1017.5
598.199,1016.5
598.731,1024.1
599.264,1020.8
599.796,1024.4
600.328,1020.2
600.86,1023.9
601.393,1021.1
601.925,1022.9
602.457,1022.3
602.988,1028.1
603.52,1032.2
604.052,1023.0
604.583,1027.4
605.115,1026.9
605.646,1022.6
606.178,1024.4
606.709,1022.4
607.24,1025.2
607.771,1029.0
608.302,1031.5
608.833,1033.4
609.364,1037.4
609.895,1040.0
610.426,1036.1
610.957,1032.5
611.487,1034.2
612.018,1042.3
612.548,1045.5
613.078,1043.1
613.609,1049.0
614.139,1048.3
614.669,1052.7
615.199,1047.0
615.729,1043.6
616.259,1051.9
616.789,1050.6
617.319,1059.0
617.849,1052.1
618.378,1054.6
618.908,1052.2
619.437,1055.9
619.967,1055.1
620.496,1051.4
621.025,1053.6
621.555,1054.7
622.084,1056.9
622.613,1066.4
623.142,1075.7
623.671,1069.6
624.2,1065.7
624.729,1062.6
625.258,1060.1
625.786,1055.8
626.315,1052.1
626.844,1064.7
627.372,1060.0
627.901,1071.3
628.429,1138.7
628.957,1124.9
629.486,1113.6
630.014,1124.7
630.542,1170.2
631.07,1538.3
631.598,1321.0
632.126,1182.5
632.654,1160.4
633.182,1243.3
633.71,1218.8
634.237,1118.5
634.765,1068.6
635.293,1053.2
635.82,1040.3
636.348,1043.4
636.875,1043.6
637.403,1037.6
637.93,1041.4
638.458,1037.3
638.985,1036.9
639.512,1032.7
640.039,1031.2
640.566,1030.4
641.093,1030.1
641.62,1032.8
642.147,1030.4
642.674,1029.5
643.201,1027.0
643.728,1021.9
644.255,1019.3
644.781,1012.5
645.308,1016.3
645.835,1012.6
646.361,1007.1
646.888,1013.5
647.414,1007.0
647.941,1005.3
648.467,1007.2
648.993,1004.3
649.52,1005.3
650.046,999.7
650.572,998.9
651.098,1001.5
651.625,995.0
652.151,991.6
652.677,995.9
653.203,993.7
653.729,994.0
654.255,995.8
654.78,994.0
655.306,990.5
655.832,987.3
656.358,985.9
656.884,994.9
657.409,985.4
657.935,987.7
658.461,983.7
658.986,983.0
659.512,982.0
660.037,985.1
660.563,981.2
661.088,976.9
661.614,974.6
662.139,970.7
662.664,978.9
663.058,977.4