File: spectra/VLFR_02-HDPE_nobio_Raman_6ad41a0a.csv
nm,Intensity
526.486,829.6
527.033,831.1
527.579,828.2
528.126,829.3
528.672,829.6
529.219,828.3
529.765,830.0
530.311,830.3
530.857,829.9
531.403,827.9
531.948,831.6
532.494,831.3
533.039,828.3
533.585,828.8
534.13,870.7
534.675,870.1
535.22,862.7
535.764,854.7
536.309,854.0
536.854,850.8
537.398,849.3
537.942,851.0
538.486,848.2
539.03,850.2
539.574,847.3
540.118,849.1
540.662,848.1
541.205,846.8
541.749,846.4
542.292,847.2
542.835,849.6
543.378,849.2
543.921,848.6
544.464,847.0
545.006,848.7
545.549,846.4
546.091,846.9
546.634,847.5
547.176,847.0
547.718,847.6
548.26,848.4
548.802,846.7
549.343,849.4
549.885,847.8
550.426,848.1
550.968,848.2
551.509,846.7
552.05,847.5
552.591,848.2
553.132,848.0
553.673,849.7
554.214,848.0
554.754,850.2
555.295,850.3
555.835,849.5
556.375,849.4
556.915,851.5
557.455,852.6
557.995,852.7
558.535,855.6
559.075,852.1
559.614,854.5
560.154,853.0
560.693,852.9
561.232,854.0
561.772,853.1
562.311,855.6
562.85,854.4
563.388,858.8
563.927,899.5
564.466,869.1
565.004,867.6
565.543,864.7
566.081,927.0
566.619,868.3
567.157,861.7
567.695,861.9
568.233,857.6
568.771,856.8
569.309,859.8
569.846,857.6
570.384,861.4
570.921,863.6
571.458,926.1
571.995,877.8
572.532,861.6
573.069,860.4
573.606,861.0
574.143,867.2
574.68,860.8
575.216,862.3
575.753,913.8
576.289,930.4
576.825,903.8
577.361,889.0
577.897,865.1
578.433,862.0
578.969,860.2
579.505,862.0
580.041,863.4
580.576,858.8
581.112,860.3
581.647,857.4
582.183,863.1
582.718,858.3
583.253,859.3
583.788,858.5
584.323,862.2
584.858,861.0
585.392,862.7
585.927,865.6
586.462,863.8
586.996,865.3
587.53,866.2
588.065,866.5
588.599,865.8
589.133,866.9
589.667,866.4
590.201,869.6
590.735,869.2
591.268,868.5
591.802,870.1
592.335,868.1
592.869,871.7
593.402,870.5
593.936,873.5
594.469,874.0
595.002,872.9
595.535,876.2
596.068,878.6
596.601,880.4
597.133,881.3
597.666,886.7
598.199,881.9
598.731,887.7
599.264,888.0
599.796,893.4
600.328,894.5
600.86,893.8
601.393,891.8
601.925,895.8
602.457,894.4
602.988,891.0
603.52,892.8
604.052,888.6
604.583,886.4
605.115,885.3
605.646,883.3
606.178,882.7
606.709,879.4
607.24,877.2
607.771,877.4
608.302,874.1
608.833,876.1
609.364,874.2
609.895,874.2
610.426,874.8
610.957,872.9
611.487,875.0
612.018,875.6
612.548,872.5
613.078,872.9
613.609,873.5
614.139,873.2
614.669,871.4
615.199,869.1
615.729,872.9
616.259,872.9
616.789,873.1
617.319,877.3
617.849,876.7
618.378,876.3
618.908,875.7
619.437,873.2
619.967,875.2
620.496,875.5
621.025,876.3
621.555,885.8
622.084,895.0
622.613,899.2
623.142,878.4
623.671,873.1
624.2,875.1
624.729,876.3
625.258,877.4
625.786,881.1
626.315,893.1
626.844,1027.9
627.372,1319.0
627.901,1133.2
628.429,1208.4
628.957,1172.4
629.486,1105.3
630.014,1029.5
630.542,1012.4
631.07,942.1
631.598,893.4
632.126,877.7
632.654,872.8
633.182,875.1
633.71,868.7
634.237,868.9
634.765,866.4
635.293,868.2
635.82,865.9
636.348,866.2
636.875,866.7
637.403,865.8
637.93,862.1
638.458,861.7
638.985,860.9
639.512,862.1
640.039,860.8
640.566,861.1
641.093,863.5
641.62,863.5
642.147,860.8
642.674,862.4
643.201,862.6
643.728,860.1
644.255,861.0
644.781,862.2
645.308,862.0
645.835,861.7
646.361,863.5
646.888,864.7
647.414,863.0
647.941,863.9
648.467,866.5
648.993,864.2
649.52,864.1
650.046,864.4
650.572,867.4
651.098,864.8
651.625,864.7
652.151,864.8
652.677,864.6
653.203,865.3
653.729,862.9
654.255,864.2
654.78,869.9
655.306,864.2
655.832,865.8
656.358,863.7
656.884,861.9
657.409,863.1
657.935,863.6
658.461,863.9
658.986,860.1
659.512,864.2
660.037,864.3
660.563,861.0
661.088,858.0
661.614,857.4
662.139,855.0
662.664,858.5
663.058,856.5