File: spectra/VLFR_07-PET_nobio_Raman_e6a0c62d.csv
nm,Intensity
791.377,12942.6
792.477,11646.7
793.576,11039.9
794.676,10610.6
795.775,10403.7
796.874,10348.5
797.973,10299.8
799.072,10468.7
800.171,10232.0
801.27,10364.0
802.368,10295.2
803.467,10190.6
804.565,10003.5
805.664,10030.8
806.762,9956.12
807.86,9847.34
808.958,9702.42
810.056,9515.96
811.153,9661.26
812.251,9466.68
813.349,9526.08
814.446,9167.64
815.543,9230.96
816.64,9102.54
817.737,9050.92
818.834,8894.24
819.931,8876.82
821.028,8817.6
822.125,8772.34
823.221,8592.32
824.317,8515.38
825.414,8646.84
826.51,8672.22
827.606,8392.32
828.702,8276.22
829.797,8363.96
830.893,8351.62
831.988,8107.82
833.084,8091.72
834.179,8111.92
835.274,8018.32
836.369,8056.82
837.464,7975.12
838.559,8070.22
839.654,7892.88
840.748,7977.02
841.843,8167.32
842.937,7790.32
844.031,7724.4
845.125,7554.42
846.219,7394.3
847.313,7304.36
848.407,7323.06
849.5,7254.96
850.593,7135.68
851.687,7136.22
852.78,7167.52
853.873,7149.1
854.966,7073.1
856.059,6965.0
857.151,6929.6
858.244,7002.46
859.336,7024.58
860.428,7063.82
861.52,6922.4
862.612,6745.9
863.704,6734.9
864.796,6772.92
865.888,6592.68
866.979,6537.2
868.07,6471.02
869.162,6470.1
870.253,6673.92
871.344,6640.78
872.434,6774.0
873.525,6867.84
874.615,6624.62
875.706,6438.0
876.796,6363.26
877.886,6319.82
878.976,6214.88
880.066,6204.4
881.156,6167.14
882.245,6164.0
883.335,6071.34
884.424,6117.28
885.513,6125.14
886.602,6013.48
887.691,5955.12
888.78,5944.68
889.868,5874.08
890.957,5850.56
892.045,5841.42
893.133,5780.18
894.221,5743.28
895.309,5703.74
896.397,5708.1
897.484,5829.26
898.571,6484.3
899.659,6072.7
900.746,5593.9
901.833,5475.46
902.92,5443.2
904.006,5431.42
905.093,5407.38
906.179,5478.46
907.266,5746.04
908.352,5931.66
909.438,5604.32
910.523,5357.28
911.609,5202.62
912.695,5143.5
913.78,5052.74
914.865,5118.14
915.95,4998.58
917.035,4992.86
918.12,4981.32
919.204,4940.56
920.289,4928.04
921.373,4871.86
922.457,4812.36
923.541,4821.6
924.625,4760.72
925.709,4754.2
926.792,4723.42
927.876,4696.0
928.959,4640.04
930.042,4620.0
931.125,4596.86
932.208,4541.22
933.29,4528.36
934.373,4517.68
935.455,4466.4
936.537,4457.08
937.619,4440.3
938.701,4415.76
939.782,4378.42
940.864,4384.08
941.945,4351.02
943.026,4326.22
944.107,4299.56
945.188,4283.04
946.269,4284.54
947.349,4258.16
948.43,4245.96
949.51,4219.8
950.59,4213.74
951.67,4192.84
952.75,4186.22
953.829,4164.48
954.909,4152.82
955.988,4120.22
957.067,4129.14
958.146,4109.4
959.224,4098.34
960.303,4080.96
961.381,4084.88
962.459,4064.2
963.537,4052.14
964.615,4051.22
965.693,4018.0
966.771,4033.3
967.848,4019.1
968.925,4017.52
970.002,3990.64
971.079,3991.66
972.156,3983.14
973.232,3968.48
974.309,3965.34
975.385,3957.38
976.461,3943.42
977.537,3941.66
978.612,3930.42
979.688,3933.3
980.763,3923.02
981.838,3907.88
982.913,3915.36
983.988,3908.18
985.063,3895.06
986.137,3889.92
987.211,3886.2
988.285,3883.84
989.359,3868.4
990.433,3870.62
991.506,3865.3
992.58,3861.1
993.653,3853.58
994.726,3848.88
995.799,3844.96
996.872,3840.44
997.944,3837.36
999.016,3830.5
1000.09,3828.46
1001.16,3820.94
1002.23,3818.34
1003.3,3812.68
1004.38,3813.76
1005.45,3807.02
1006.52,3802.64
1007.59,3798.1
1008.66,3796.52
1009.73,3790.46
1010.8,3790.88
1011.87,3788.24
1012.94,3785.32
1014.01,3785.34
1015.08,3779.18
1016.15,3777.84
1017.22,3776.94
1018.29,3773.94
1019.36,3770.78
1020.42,3769.16
1021.49,3772.68
1022.56,3776.1
1023.63,3777.8
1024.7,3769.58
1025.76,3764.16
1026.83,3758.62
1027.9,3757.44
1028.97,3753.44
1030.03,3749.84
1031.1,3745.74
1032.17,3745.44
1033.23,3747.04
1034.3,3748.56
1035.36,3750.24
1036.43,3748.94
1037.5,3746.66
1038.56,3740.12
1039.63,3735.8
1040.69,3735.44
1041.76,3733.26
1042.82,3733.72
1043.89,3732.72
1044.95,3730.68
1046.01,3729.56
1047.08,3729.7
1048.14,3728.28
1049.2,3728.34
1050.27,3727.4
1051.33,3727.84
1052.39,3727.2
1053.46,3726.72
1054.52,3725.48
1055.58,3726.26
1056.64,3725.52
1057.7,3724.8
1058.77,3723.44
1059.83,3725.1
1060.89,3723.42
1061.95,3724.54
1063.01,3723.44
1064.07,3723.62
1065.13,3723.28
1066.19,3722.48
1067.25,3722.18
1068.05,3722.14