File: spectra/VLFR_02-HDPE_nobio_Raman_6f6388c4.csv
cm-1,Intensity
-123.878,1854.55
-105.821,1854.55
-87.8007,1856.3
-69.8161,1856.5
-51.8675,1855.9
-33.9547,1858.2
-16.0776,1875.6
1.76388,2966.5
19.5698,1858.85
37.3403,1858.3
55.0755,2137.95
72.7754,3065.35
90.4402,3076.25
108.07,3133.75
125.665,3152.85
143.225,3157.8
160.75,3201.8
178.241,3235.7
195.697,3277.1
213.119,3288.3
230.506,3280.6
247.859,3304.1
265.178,3377.25
282.463,3416.05
299.713,3473.15
316.93,3495.85
334.113,3510.3
351.263,3591.1
368.379,3636.1
385.461,3659.45
402.51,3736.65
419.526,3779.45
436.508,3882.3
453.458,3847.05
470.374,3968.45
487.257,3943.3
504.107,4074.7
520.925,4064.0
537.71,4136.35
554.462,4226.35
571.182,4246.9
587.87,4309.75
604.525,4316.2
621.148,4301.55
637.739,4453.0
654.297,4500.5
670.824,4527.8
687.319,4661.2
703.782,4639.25
720.213,4634.85
736.613,4710.1
752.981,4721.5
769.317,4819.75
785.623,4870.2
801.897,4932.65
818.139,4994.2
834.351,5007.95
850.532,4944.4
866.681,5070.15
882.8,5076.4
898.888,5188.65
914.945,5366.85
930.972,5373.55
946.968,5366.6
962.934,5391.15
978.869,5457.5
994.774,5503.1
1010.65,5456.25
1026.49,5580.35
1042.31,5715.0
1058.09,5769.65
1073.85,5838.55
1089.57,5946.65
1105.27,5807.85
1120.93,5949.6
1136.57,5875.6
1152.18,6056.35
1167.75,6147.65
1183.3,6242.65
1198.82,6245.2
1214.31,6250.9
1229.77,6286.75
1245.2,6363.35
1260.6,6394.55
1275.97,6453.15
1291.32,6648.3
1306.63,6720.25
1321.92,6835.25
1337.18,6853.65
1352.41,6878.8
1367.61,6740.8
1382.78,6623.95
1397.93,6752.7
1413.05,6834.55
1428.14,7023.1
1443.2,7149.45
1458.23,7160.15
1473.23,7134.9
1488.21,7054.7
1503.16,6936.2
1518.08,7131.9
1532.97,7139.1
1547.84,7230.8
1562.68,7513.35
1577.49,7475.4
1592.27,7432.1
1607.03,7382.65
1621.76,7222.4
1636.46,7179.4
1651.14,7340.3
1665.78,7308.05
1680.41,7282.45
1695.0,7290.7
1709.57,7399.6
1724.11,7466.45
1738.62,7228.25
1753.11,7199.8
1767.57,7300.5
1782.01,7411.65
1796.41,7405.25
1810.8,7569.9
1825.15,7371.35
1839.48,7499.0
1853.79,7568.4
1868.06,7577.0
1882.31,7473.85
1896.54,7586.55
1910.74,7399.05
1924.91,7676.2
1939.06,7712.8
1953.19,7784.1
1967.28,7859.15
1981.35,7903.05
1995.4,7910.2
2009.42,7934.55
2023.42,8143.65
2037.39,7886.65
2051.33,8007.45
2065.25,8122.65
2079.15,8148.0
2093.01,8294.1
2106.86,8399.55
2120.68,8374.7
2134.47,8315.75
2148.24,8339.9
2161.99,8485.45
2175.71,8444.9
2189.41,8703.15
2203.08,8603.7
2216.73,8829.15
2230.35,8690.7
2243.95,8825.7
2257.52,8945.0
2271.07,8885.85
2284.6,8719.3
2298.1,8847.3
2311.58,9134.8
2325.03,9287.05
2338.46,9286.2
2351.87,9185.6
2365.25,9121.6
2378.61,9107.55
2391.94,9165.8
2405.26,9249.2
2418.54,9404.3
2431.81,9549.9
2445.05,9464.4
2458.27,9669.7
2471.46,9575.5
2484.63,9658.3
2497.78,9505.7
2510.9,9709.85
2524.0,9744.4
2537.08,9454.75
2550.14,9675.85
2563.17,9698.9
2576.18,9637.2
2589.17,9636.7
2602.13,9765.55
2615.07,9929.75
2627.99,9661.1
2640.89,9640.05
2653.76,9682.5
2666.61,9833.4
2679.44,9562.2
2692.25,10048.8
2705.03,9994.3
2717.79,9865.2
2730.53,9842.4
2743.25,9768.5
2755.94,9720.25
2768.61,9661.75
2781.27,9518.7
2793.89,9604.75
2806.5,9703.25
2819.09,9857.45
2831.65,9659.75
2844.19,9881.15
2856.71,9723.05
2869.21,9730.0
2881.69,10011.4
2894.14,9818.1
2906.58,9365.5
2918.99,9688.5
2931.38,9771.05
2943.75,9803.35
2956.1,9289.35
2968.42,9428.65
2980.73,9796.05
2993.01,9056.45
3005.28,9437.5
3017.52,9415.0
3029.74,9120.5
3041.94,9354.0
3054.12,9076.9
3066.28,9210.8
3078.42,9205.3
3090.54,8977.5
3102.63,8837.5
3114.71,8800.4
3126.77,8703.65
3138.8,8531.35
3150.82,8784.85
3162.81,8688.1
3174.78,8687.35
3186.74,8585.65
3198.67,8457.1
3210.58,8691.4
3222.47,8569.95
3234.35,8531.65
3246.2,8442.8
3258.03,8465.35
3269.84,8337.35
3281.64,8487.45
3293.41,8350.5
3305.16,8331.85
3316.89,8316.45
3328.61,8298.5
3340.3,7842.1
3351.97,8073.8
3363.63,8031.2
3375.26,8143.25
3386.88,7711.75
3398.47,7838.6
3410.05,7671.6
3421.6,7641.95
3433.14,7576.85
3444.66,7803.75
3456.15,7883.0
3467.63,7506.55
3479.09,7660.35
3490.53,7438.55
3501.96,7423.5
3513.36,7449.05
3524.74,7183.25
3536.11,7461.15
3547.45,6877.6
3558.78,6940.0
3570.09,6997.15
3581.37,7296.45
3592.64,6899.25
3603.9,7118.7
3615.13,6759.55
3626.34,6772.8
3637.54,6694.3
3648.72,6640.05
3659.87,6599.25
3665.45,6706.45