File: spectra/VLFR_02-HDPE_nobio_Raman_08dae773.csv
nm,Intensity
528.65,1832.93
529.155,1833.37
529.66,1833.8
530.165,1833.41
530.67,1833.57
531.175,1834.17
531.68,1846.71
532.185,2452.57
532.69,1833.85
533.194,1833.69
533.699,1857.9
534.204,1923.83
534.708,1921.32
535.213,1921.69
535.717,1917.13
536.222,1908.97
536.726,1907.97
537.231,1909.11
537.735,1913.49
538.239,1907.17
538.743,1907.74
539.247,1908.32
539.751,1907.45
540.255,1909.15
540.759,1909.6
541.263,1909.97
541.767,1913.73
542.271,1911.8
542.775,1913.69
543.279,1911.69
543.782,1917.51
544.286,1914.92
544.789,1915.23
545.293,1917.85
545.796,1918.38
546.3,1917.53
546.803,1921.78
547.306,1918.92
547.81,1916.89
548.313,1921.44
548.816,1918.97
549.319,1921.67
549.822,1922.02
550.325,1922.07
550.828,1922.08
551.331,1924.35
551.834,1926.6
552.337,1925.49
552.839,1922.4
553.342,1925.4
553.844,1929.19
554.347,1929.91
554.849,1932.42
555.352,1931.85
555.854,1934.73
556.357,1935.29
556.859,1932.63
557.361,1935.29
557.863,1938.11
558.365,1940.8
558.867,1937.71
559.369,1939.93
559.871,1940.23
560.373,1940.99
560.875,1943.65
561.377,1945.05
561.878,1945.69
562.38,1943.4
562.881,1953.74
563.383,1955.6
563.884,2025.17
564.386,1970.96
564.887,1969.23
565.388,1965.85
565.89,2007.46
566.391,2010.89
566.892,1963.27
567.393,1970.01
567.894,1957.57
568.395,1955.05
568.896,1959.71
569.396,1963.74
569.897,1963.27
570.398,1973.89
570.898,1972.36
571.399,2083.72
571.9,1995.59
572.4,1982.35
572.9,1976.49
573.401,1978.63
573.901,1993.43
574.401,1987.55
574.901,1990.15
575.401,2053.38
575.901,2045.25
576.401,2086.58
576.901,2070.83
577.401,2038.05
577.901,2023.69
578.4,2023.35
578.9,2029.89
579.399,2041.08
579.899,2050.65
580.398,2058.51
580.898,2067.3
581.397,2074.33
581.896,2086.94
582.395,2098.95
582.895,2105.24
583.394,2115.67
583.893,2130.75
584.391,2130.86
584.89,2148.19
585.389,2157.49
585.888,2166.39
586.386,2186.1
586.885,2199.57
587.384,2213.48
587.882,2232.85
588.38,2250.21
588.879,2255.23
589.377,2259.51
589.875,2284.69
590.373,2321.14
590.871,2332.18
591.369,2349.4
591.867,2376.3
592.365,2389.92
592.863,2410.47
593.361,2429.47
593.858,2446.05
594.356,2461.97
594.853,2482.89
595.351,2504.46
595.848,2540.13
596.345,2543.32
596.843,2570.97
597.34,2602.31
597.837,2600.69
598.334,2635.21
598.831,2667.79
599.328,2683.35
599.824,2681.72
600.321,2704.76
600.818,2686.25
601.314,2696.39
601.811,2701.13
602.307,2687.07
602.804,2691.01
603.3,2675.62
603.796,2653.59
604.293,2643.11
604.789,2605.8
605.285,2589.39
605.781,2565.9
606.277,2542.2
606.772,2531.49
607.268,2508.24
607.764,2489.19
608.259,2461.94
608.755,2440.08
609.25,2429.99
609.746,2411.72
610.241,2407.29
610.736,2392.18
611.231,2389.75
611.727,2368.24
612.222,2362.37
612.716,2337.29
613.211,2329.96
613.706,2320.12
614.201,2309.33
614.695,2309.25
615.19,2290.59
615.684,2290.91
616.179,2284.13
616.673,2276.09
617.168,2267.7
617.662,2264.77
618.156,2261.05
618.65,2253.05
619.144,2241.57
619.638,2241.71
620.131,2236.3
620.625,2226.02
621.119,2230.9
621.612,2247.85
622.106,2259.17
622.599,2242.28
623.093,2211.65
623.586,2200.19
624.079,2204.39
624.572,2193.26
625.065,2194.56
625.558,2189.7
626.051,2204.47
626.544,2331.51
627.037,2873.53
627.529,2747.91
628.022,2617.56
628.514,2952.01
629.007,2600.75
629.499,2498.99
629.991,2416.91
630.483,2377.1
630.976,2282.31
631.468,2192.31
631.959,2172.86
632.451,2163.24
632.943,2169.35
633.435,2167.2
633.926,2173.09
634.418,2167.96
634.909,2167.44
635.401,2168.49
635.892,2166.38
636.383,2167.14
636.874,2163.1
637.365,2175.12
637.856,2174.23
638.347,2174.19
638.838,2169.1
639.329,2174.67
639.819,2171.84
640.31,2187.54
640.8,2184.33
641.291,2187.17
641.781,2184.81
642.271,2198.07
642.761,2200.69
643.251,2196.05
643.741,2205.6
644.231,2205.79
644.721,2203.15
645.211,2214.05
645.7,2214.85
646.19,2214.71
646.679,2208.08
647.169,2204.64
647.658,2198.69
648.147,2208.3
648.636,2204.99
649.125,2202.67
649.614,2197.84
650.103,2198.75
650.592,2204.59
651.08,2203.02
651.569,2192.7
652.058,2200.0
652.546,2193.95
653.034,2195.35
653.523,2180.13
654.011,2190.57
654.499,2182.02
654.987,2172.4
655.475,2176.26
655.963,2161.44
656.45,2156.66
656.938,2161.68
657.425,2146.17
657.913,2141.72
658.4,2123.43
658.888,2120.75
659.375,2114.38
659.862,2109.23
660.349,2108.94
660.836,2095.56
661.079,2086.39