File: spectra/VLFR_07-PET_nobio_Raman_93514403.csv
nm,Intensity
791.377,11867.9
792.477,10682.9
793.576,10181.4
794.676,9862.6
795.775,9663.5
796.874,9615.98
797.973,9646.18
799.072,9587.88
800.171,9515.5
801.27,9424.8
802.368,9626.66
803.467,9325.96
804.565,9260.86
805.664,9200.14
806.762,9141.84
807.86,9021.4
808.958,9005.24
810.056,8942.56
811.153,8745.02
812.251,8740.44
813.349,8754.86
814.446,8526.66
815.543,8455.78
816.64,8348.5
817.737,8444.56
818.834,8224.22
819.931,8194.5
821.028,8139.58
822.125,8032.26
823.221,7896.64
824.317,7967.56
825.414,7994.38
826.51,8030.24
827.606,7748.26
828.702,7702.3
829.797,7730.1
830.893,7807.62
831.988,7622.24
833.084,7573.94
834.179,7410.94
835.274,7462.92
836.369,7423.54
837.464,7558.76
838.559,7446.36
839.654,7511.78
840.748,7414.08
841.843,7664.8
842.937,7395.26
844.031,7214.88
845.125,7077.52
846.219,6955.78
847.313,6898.3
848.407,6928.96
849.5,6782.54
850.593,6795.46
851.687,6749.14
852.78,6794.28
853.873,6719.84
854.966,6660.48
856.059,6569.54
857.151,6579.3
858.244,6637.76
859.336,6647.46
860.428,6736.1
861.52,6495.62
862.612,6434.62
863.704,6326.96
864.796,6414.2
865.888,6328.22
866.979,6189.86
868.07,6254.92
869.162,6152.16
870.253,6237.14
871.344,6294.86
872.434,6500.98
873.525,6457.36
874.615,6349.88
875.706,6232.2
876.796,6039.62
877.886,6033.82
878.976,6014.16
880.066,5925.38
881.156,5943.26
882.245,5880.24
883.335,5923.7
884.424,5884.98
885.513,5872.4
886.602,5802.46
887.691,5730.1
888.78,5653.1
889.868,5667.2
890.957,5701.04
892.045,5631.82
893.133,5553.92
894.221,5554.06
895.309,5504.52
896.397,5459.04
897.484,5604.14
898.571,6180.52
899.659,5865.94
900.746,5414.02
901.833,5292.22
902.92,5258.72
904.006,5244.04
905.093,5263.36
906.179,5338.54
907.266,5545.4
908.352,5717.18
909.438,5435.14
910.523,5174.8
911.609,5052.16
912.695,4999.98
913.78,4927.2
914.865,4932.88
915.95,4875.0
917.035,4883.82
918.12,4838.5
919.204,4839.36
920.289,4770.2
921.373,4767.92
922.457,4715.66
923.541,4704.58
924.625,4654.38
925.709,4643.1
926.792,4611.96
927.876,4589.86
928.959,4553.2
930.042,4503.34
931.125,4507.84
932.208,4462.1
933.29,4451.74
934.373,4415.54
935.455,4395.98
936.537,4364.36
937.619,4344.94
938.701,4346.18
939.782,4326.34
940.864,4312.42
941.945,4282.84
943.026,4265.38
944.107,4247.84
945.188,4236.36
946.269,4220.44
947.349,4201.4
948.43,4187.32
949.51,4181.04
950.59,4150.08
951.67,4149.18
952.75,4126.78
953.829,4122.44
954.909,4104.36
955.988,4099.66
957.067,4087.02
958.146,4076.02
959.224,4060.88
960.303,4046.28
961.381,4036.44
962.459,4026.62
963.537,4018.38
964.615,4009.72
965.693,3996.16
966.771,3989.98
967.848,3994.9
968.925,3984.6
970.002,3971.76
971.079,3964.88
972.156,3957.06
973.232,3944.96
974.309,3940.22
975.385,3927.12
976.461,3929.6
977.537,3919.3
978.612,3907.18
979.688,3904.4
980.763,3893.04
981.838,3893.7
982.913,3887.26
983.988,3885.34
985.063,3875.68
986.137,3876.68
987.211,3868.12
988.285,3863.18
989.359,3859.94
990.433,3852.44
991.506,3844.78
992.58,3841.6
993.653,3838.22
994.726,3834.58
995.799,3828.56
996.872,3825.52
997.944,3821.28
999.016,3818.3
1000.09,3815.08
1001.16,3810.26
1002.23,3804.06
1003.3,3807.28
1004.38,3799.24
1005.45,3793.82
1006.52,3796.48
1007.59,3789.32
1008.66,3785.2
1009.73,3780.98
1010.8,3781.68
1011.87,3780.82
1012.94,3775.44
1014.01,3772.32
1015.08,3774.36
1016.15,3770.7
1017.22,3768.7
1018.29,3766.22
1019.36,3762.84
1020.42,3762.36
1021.49,3767.72
1022.56,3770.86
1023.63,3769.18
1024.7,3765.22
1025.76,3759.72
1026.83,3753.94
1027.9,3751.34
1028.97,3747.3
1030.03,3744.46
1031.1,3742.66
1032.17,3741.28
1033.23,3743.02
1034.3,3744.9
1035.36,3746.98
1036.43,3744.12
1037.5,3740.24
1038.56,3735.74
1039.63,3732.88
1040.69,3732.8
1041.76,3730.74
1042.82,3730.16
1043.89,3729.42
1044.95,3728.52
1046.01,3726.94
1047.08,3726.04
1048.14,3726.5
1049.2,3726.02
1050.27,3725.94
1051.33,3723.18
1052.39,3724.1
1053.46,3723.42
1054.52,3723.42
1055.58,3724.18
1056.64,3723.24
1057.7,3722.54
1058.77,3722.2
1059.83,3723.04
1060.89,3722.64
1061.95,3721.88
1063.01,3720.78
1064.07,3720.64
1065.13,3719.8
1066.19,3720.52
1067.25,3720.56
1068.05,3719.66