File: spectra/VLFR_08-PLA_bio_Raman_49cc82cc.csv
nm,Intensity
528.626,1859.0
529.132,1859.9
529.637,1858.4
530.143,1858.2
530.648,1861.5
531.153,1865.5
531.658,1937.4
532.164,6680.5
532.669,1862.4
533.174,1864.7
533.679,2386.2
534.184,3657.1
534.689,3283.1
535.194,3043.8
535.699,2765.8
536.203,2700.6
536.708,2737.3
537.213,2614.5
537.717,2652.7
538.222,2498.6
538.726,2429.1
539.231,2424.1
539.735,2308.8
540.239,2396.8
540.744,2554.5
541.248,2537.6
541.752,2398.6
542.256,2384.9
542.76,2382.8
543.264,2636.1
543.768,2797.5
544.272,2566.8
544.776,2372.4
545.28,2320.5
545.784,2289.7
546.287,2276.4
546.791,2302.2
547.294,2316.5
547.798,2320.4
548.301,2323.5
548.805,2321.0
549.308,2338.5
549.811,2317.0
550.315,2348.5
550.818,2389.8
551.321,2420.7
551.824,2425.4
552.327,2445.7
552.83,2456.3
553.333,2370.1
553.835,2526.3
554.338,2465.8
554.841,2403.4
555.343,2343.0
555.846,2307.8
556.349,2320.0
556.851,2365.2
557.353,2589.6
557.856,3733.3
558.358,3406.0
558.86,2626.9
559.362,2526.6
559.864,2477.0
560.366,2429.7
560.868,2393.0
561.37,2379.5
561.872,2374.9
562.374,2404.0
562.876,2558.7
563.377,2999.7
563.879,2687.2
564.38,2530.1
564.882,2778.2
565.383,2804.5
565.885,3087.3
566.386,2999.1
566.887,2493.2
567.388,2445.2
567.889,2589.0
568.391,2521.6
568.892,2512.8
569.392,2498.3
569.893,2463.8
570.394,2490.9
570.895,2499.8
571.395,2752.8
571.896,2791.8
572.397,2660.6
572.897,2674.1
573.397,2686.8
573.898,2676.1
574.398,2794.0
574.898,2561.8
575.398,2498.2
575.898,2535.2
576.398,3112.6
576.898,3580.4
577.398,2710.9
577.898,2496.8
578.398,2474.2
578.897,2493.8
579.397,2479.6
579.896,2472.4
580.396,2462.3
580.895,2459.7
581.395,2466.5
581.894,2491.1
582.393,2497.9
582.892,2483.2
583.391,2481.7
583.89,2490.6
584.389,2523.9
584.888,2501.9
585.387,2507.1
585.886,2526.3
586.384,2658.3
586.883,3135.5
587.381,3459.6
587.88,3086.3
588.378,2571.4
588.876,2495.9
589.375,2522.6
589.873,2501.3
590.371,2497.9
590.869,2509.7
591.367,2508.4
591.865,2521.8
592.363,2519.4
592.86,2517.5
593.358,2480.0
593.856,2502.6
594.353,2514.6
594.851,2516.2
595.348,2530.3
595.845,2521.9
596.342,2557.2
596.84,2525.6
597.337,2548.4
597.834,2549.3
598.331,2511.3
598.828,2561.1
599.324,2539.5
599.821,2559.0
600.318,2556.6
600.814,2550.9
601.311,2548.5
601.807,2571.4
602.304,2565.7
602.8,2553.0
603.296,2573.1
603.792,2578.5
604.288,2566.6
604.784,2556.5
605.28,2563.8
605.776,2565.4
606.272,2569.1
606.767,2554.0
607.263,2578.7
607.759,2574.5
608.254,2588.1
608.749,2581.4
609.245,2588.9
609.74,2577.7
610.235,2563.6
610.73,2580.3
611.225,2572.4
611.72,2552.6
612.215,2545.3
612.71,2586.8
613.204,2563.2
613.699,2559.3
614.194,2565.2
614.688,2571.8
615.182,2551.1
615.677,2586.6
616.171,2587.6
616.665,2578.5
617.159,2595.5
617.653,2571.1
618.147,2570.8
618.641,2558.5
619.135,2581.5
619.628,2560.1
620.122,2574.0
620.615,2573.5
621.109,2561.7
621.602,2550.4
622.095,2619.5
622.589,2669.2
623.082,2763.8
623.575,2692.8
624.068,2636.6
624.561,2574.5
625.053,2570.0
625.546,2550.4
626.039,2565.7
626.531,2573.6
627.024,2568.3
627.516,2630.6
628.008,2903.9
628.501,3686.3
628.993,3347.4
629.485,3443.8
629.977,3475.0
630.469,4336.2
630.96,8654.4
631.452,6685.8
631.944,4495.8
632.435,4088.0
632.927,4929.3
633.418,5397.1
633.91,4274.5
634.401,3189.4
634.892,2746.3
635.383,2577.3
635.874,2520.5
636.365,2497.7
636.856,2492.7
637.346,2467.0
637.837,2444.7
638.327,2458.7
638.818,2428.4
639.308,2435.3
639.799,2417.9
640.289,2426.9
640.779,2430.0
641.269,2427.2
641.759,2420.4
642.249,2424.9
642.738,2447.9
643.228,2367.0
643.718,2391.7
644.207,2367.4
644.697,2355.8
645.186,2352.2
645.675,2355.9
646.164,2319.4
646.653,2321.6
647.142,2331.2
647.631,2309.3
648.12,2329.8
648.609,2276.8
649.098,2275.8
649.586,2297.9
650.075,2265.5
650.563,2301.9
651.051,2271.8
651.539,2298.6
652.027,2271.8
652.515,2282.4
653.003,2237.2
653.491,2248.2
653.979,2234.3
654.467,2247.6
654.954,2241.5
655.442,2213.6
655.929,2242.0
656.416,2217.0
656.904,2238.0
657.391,2211.1
657.878,2224.5
658.365,2193.7
658.851,2184.3
659.338,2175.3
659.825,2183.5
660.311,2184.3
660.798,2175.1
661.041,2167.3