File: spectra/VLFR_07-PET_nobio_Raman_5fa93e9b.csv
nm,Intensity
791.588,10599.2
792.685,9964.9
793.781,9636.8
794.878,9375.4
795.975,9141.6
797.071,9260.8
798.168,9309.3
799.264,9245.2
800.36,9166.1
801.456,9183.3
802.552,9195.5
803.648,8923.3
804.744,8842.1
805.84,8849.0
806.936,8806.1
808.031,8751.6
809.127,8708.5
810.222,8514.9
811.317,8494.5
812.412,8557.0
813.507,8377.3
814.602,8273.2
815.697,8291.2
816.792,8232.0
817.887,8154.8
818.981,8091.8
820.076,8070.6
821.17,8014.6
822.265,7983.2
823.359,7896.0
824.453,7825.7
825.547,7923.2
826.641,7830.4
827.735,7662.7
828.828,7635.2
829.922,7575.9
831.016,7689.7
832.109,7506.8
833.202,7456.1
834.295,7419.0
835.388,7308.0
836.481,7356.0
837.574,7347.7
838.667,7366.0
839.76,7249.5
840.852,7391.1
841.945,7449.8
843.037,7254.1
844.129,7129.5
845.221,6928.1
846.314,6924.0
847.405,6881.9
848.497,6807.2
849.589,6777.8
850.681,6714.8
851.772,6654.8
852.863,6749.7
853.955,6653.3
855.046,6596.5
856.137,6524.2
857.228,6514.7
858.318,6635.5
859.409,6568.1
860.5,6632.0
861.59,6477.4
862.681,6424.4
863.771,6360.1
864.861,6422.7
865.951,6287.1
867.041,6224.9
868.131,6200.4
869.22,6229.6
870.31,6277.5
871.399,6400.5
872.488,6463.8
873.578,6442.3
874.667,6250.8
875.756,6164.2
876.845,6059.3
877.933,5986.1
879.022,6004.5
880.11,5992.4
881.199,5893.1
882.287,5957.2
883.375,5932.2
884.463,5882.4
885.551,5860.3
886.639,5812.7
887.726,5772.8
888.814,5688.5
889.901,5728.9
890.988,5698.6
892.075,5644.1
893.162,5577.5
894.249,5537.4
895.336,5520.2
896.423,5545.0
897.509,5777.4
898.595,6092.0
899.682,5725.1
900.768,5452.2
901.854,5324.9
902.94,5298.8
904.025,5291.3
905.111,5193.3
906.196,5408.2
907.282,5593.2
908.367,5582.5
909.452,5343.9
910.537,5121.6
911.622,5013.6
912.706,5013.6
913.791,4998.0
914.875,4918.6
915.959,4900.6
917.044,4862.1
918.128,4848.5
919.211,4807.4
920.295,4785.3
921.379,4754.5
922.462,4752.9
923.546,4702.3
924.629,4674.9
925.712,4652.9
926.795,4626.1
927.877,4580.2
928.96,4566.8
930.043,4534.8
931.125,4509.7
932.207,4485.4
933.289,4473.2
934.371,4446.1
935.453,4418.6
936.535,4398.5
937.616,4369.9
938.697,4365.8
939.779,4356.2
940.86,4334.9
941.941,4309.2
943.022,4290.2
944.102,4279.3
945.183,4253.1
946.263,4246.7
947.343,4222.7
948.423,4219.6
949.503,4215.0
950.583,4185.9
951.663,4179.7
952.742,4162.1
953.822,4152.4
954.901,4134.3
955.98,4137.6
957.059,4116.0
958.137,4102.4
959.216,4092.6
960.294,4086.8
961.373,4064.4
962.451,4056.4
963.529,4052.8
964.607,4044.3
965.684,4028.9
966.762,4032.9
967.839,4006.7
968.917,4003.4
969.994,4003.1
971.071,3999.0
972.147,3982.7
973.224,3974.2
974.3,3964.4
975.377,3960.7
976.453,3949.5
977.529,3947.4
978.605,3949.6
979.68,3935.7
980.756,3930.3
981.831,3916.8
982.907,3915.7
983.982,3918.2
985.057,3913.2
986.131,3902.7
987.206,3895.2
988.28,3893.6
989.355,3892.8
990.429,3883.9
991.503,3884.2
992.576,3871.6
993.65,3869.6
994.723,3860.9
995.797,3862.0
996.87,3855.7
997.943,3852.7
999.016,3846.0
1000.09,3844.1
1001.16,3844.6
1002.23,3836.8
1003.31,3836.4
1004.38,3834.2
1005.45,3829.3
1006.52,3826.8
1007.59,3819.7
1008.66,3820.2
1009.73,3817.3
1010.81,3816.1
1011.88,3813.5
1012.95,3809.7
1014.02,3811.4
1015.09,3807.2
1016.16,3805.1
1017.23,3805.7
1018.3,3800.3
1019.37,3798.1
1020.44,3803.9
1021.51,3804.3
1022.58,3804.4
1023.64,3802.3
1024.71,3796.1
1025.78,3795.7
1026.85,3789.8
1027.92,3786.3
1028.99,3783.3
1030.05,3781.9
1031.12,3781.3
1032.19,3781.4
1033.26,3781.9
1034.32,3781.8
1035.39,3784.5
1036.46,3782.5
1037.52,3777.8
1038.59,3773.5
1039.66,3772.1
1040.72,3770.3
1041.79,3770.1
1042.86,3767.3
1043.92,3769.7
1044.99,3767.9
1046.05,3766.0
1047.12,3765.2
1048.18,3764.8
1049.25,3765.7
1050.31,3760.9
1051.37,3764.8
1052.44,3761.6
1053.5,3763.8
1054.57,3762.9
1055.63,3764.0
1056.69,3764.5
1057.76,3761.8
1058.82,3761.3
1059.88,3762.8
1060.95,3762.7
1062.01,3762.3
1063.07,3761.8
1064.13,3760.9
1065.19,3759.9
1066.26,3761.4
1067.32,3760.1
1068.11,3760.4