File: spectra/VLFR_02-HDPE_bio_Raman_74f3bc30.csv
nm,Intensity
526.547,832.9
527.095,832.75
527.642,832.6
528.189,832.85
528.736,831.3
529.283,833.0
529.829,832.25
530.376,832.35
530.922,831.6
531.468,832.2
532.014,833.45
532.56,832.4
533.106,832.85
533.651,833.6
534.196,883.55
534.742,881.75
535.287,881.7
535.832,860.25
536.376,853.3
536.921,851.6
537.465,851.15
538.01,850.95
538.554,850.25
539.098,848.2
539.642,846.05
540.186,846.5
540.729,845.45
541.273,846.4
541.816,846.75
542.36,846.4
542.903,846.3
543.446,846.2
543.988,845.95
544.531,846.0
545.074,847.45
545.616,846.9
546.158,847.6
546.701,844.65
547.243,847.35
547.785,847.95
548.326,847.6
548.868,846.45
549.41,847.4
549.951,847.8
550.492,849.1
551.034,848.6
551.575,848.85
552.116,848.05
552.656,849.2
553.197,850.45
553.738,851.3
554.278,851.05
554.819,851.05
555.359,853.5
555.899,852.45
556.439,852.05
556.979,853.1
557.519,854.95
558.058,856.25
558.598,856.45
559.137,853.35
559.677,855.1
560.216,855.7
560.755,854.3
561.294,853.55
561.833,856.7
562.371,856.85
562.91,857.85
563.449,861.2
563.987,929.95
564.525,868.75
565.064,868.3
565.602,867.1
566.14,919.25
566.678,864.55
567.216,862.6
567.753,865.75
568.291,861.6
568.828,861.85
569.366,864.45
569.903,863.25
570.44,865.95
570.977,871.4
571.514,989.1
572.051,882.35
572.588,871.25
573.125,868.85
573.661,870.6
574.198,874.0
574.734,871.7
575.271,877.7
575.807,900.55
576.343,994.25
576.879,939.55
577.415,921.05
577.951,896.55
578.486,897.95
579.022,899.6
579.557,903.35
580.093,908.25
580.628,912.15
581.164,911.45
581.699,914.25
582.234,915.55
582.769,914.95
583.304,920.05
583.838,916.95
584.373,916.0
584.908,914.65
585.442,915.15
585.977,915.7
586.511,913.75
587.045,912.75
587.58,913.6
588.114,913.35
588.648,915.5
589.182,913.25
589.715,914.3
590.249,912.5
590.783,915.8
591.316,921.5
591.85,921.55
592.383,919.8
592.917,923.75
593.45,923.25
593.983,927.0
594.516,927.75
595.049,932.45
595.582,933.5
596.115,935.1
596.648,937.45
597.18,938.15
597.713,941.2
598.245,940.9
598.778,943.8
599.31,941.45
599.842,942.05
600.375,945.5
600.907,944.6
601.439,942.6
601.971,942.25
602.503,943.75
603.034,942.4
603.566,938.9
604.098,938.1
604.629,938.0
605.161,930.3
605.692,927.35
606.224,927.35
606.755,924.0
607.286,922.7
607.817,922.65
608.348,922.15
608.879,921.35
609.41,922.1
609.941,917.2
610.472,916.95
611.002,919.65
611.533,918.2
612.063,916.0
612.594,916.9
613.124,916.85
613.655,916.2
614.185,915.7
614.715,915.95
615.245,913.55
615.775,911.5
616.305,911.85
616.835,915.3
617.365,921.0
617.895,919.75
618.425,917.75
618.954,915.6
619.484,921.85
620.013,918.3
620.543,917.9
621.072,924.0
621.602,939.75
622.131,972.7
622.66,960.1
623.189,929.6
623.718,916.1
624.247,915.4
624.776,917.4
625.305,919.35
625.834,930.5
626.363,971.7
626.891,1351.0
627.42,1764.9
627.949,1410.75
628.477,1842.55
629.006,1339.45
629.534,1248.25
630.062,1143.2
630.591,1114.65
631.119,989.9
631.647,932.9
632.175,918.15
632.703,915.6
633.231,912.05
633.759,908.45
634.287,901.4
634.815,901.2
635.343,898.1
635.871,896.55
636.398,897.05
636.926,894.8
637.454,893.05
637.981,892.05
638.509,892.05
639.036,888.65
639.564,887.5
640.091,888.65
640.618,887.85
641.146,889.65
641.673,889.6
642.2,888.55
642.727,886.5
643.254,885.35
643.781,887.1
644.308,886.75
644.835,888.9
645.362,885.25
645.889,888.1
646.416,885.6
646.942,887.3
647.469,887.85
647.996,889.25
648.522,885.15
649.049,889.2
649.576,886.7
650.102,887.7
650.629,886.85
651.155,883.85
651.682,885.25
652.208,884.9
652.734,886.25
653.261,886.2
653.787,884.55
654.313,885.95
654.839,883.95
655.365,883.05
655.892,882.2
656.418,883.85
656.944,881.75
657.47,883.4
657.996,880.8
658.522,879.4
659.048,879.3
659.574,878.9
660.099,878.55
660.625,876.05
661.151,876.75
661.677,875.6
662.203,875.4
662.728,873.8
663.123,872.45