File: spectra/VLFR_06-PET_bio_Raman_d31b7f04.csv
nm,Intensity
528.635,1840.9
529.14,1842.1
529.645,1841.5
530.151,1842.9
530.656,1843.6
531.161,1845.8
531.666,1890.5
532.171,4005.9
532.676,1850.1
533.181,1861.5
533.686,4416.8
534.191,10514.5
534.696,8100.0
535.201,6032.6
535.705,4438.2
536.21,3448.8
536.715,3084.8
537.219,2899.0
537.724,2790.1
538.228,2835.1
538.733,2831.4
539.237,2854.2
539.741,3047.4
540.246,2828.1
540.75,2630.4
541.254,2492.9
541.758,2470.8
542.262,2494.6
542.766,2514.1
543.27,2477.8
543.774,2535.6
544.278,2469.2
544.781,2530.1
545.285,2527.0
545.789,2518.7
546.292,2562.6
546.796,2544.6
547.299,2570.5
547.803,2568.6
548.306,2580.0
548.809,2588.0
549.313,2583.8
549.816,2603.2
550.319,2785.8
550.822,3402.1
551.325,2692.6
551.828,2686.9
552.331,2717.3
552.834,3267.1
553.337,2756.2
553.839,2790.1
554.342,2763.0
554.845,2810.0
555.347,3080.5
555.85,3431.9
556.352,3534.2
556.854,3614.1
557.357,4876.3
557.859,4227.4
558.361,3844.1
558.863,3466.7
559.365,3070.0
559.867,3002.0
560.369,2964.6
560.871,3044.0
561.373,3138.1
561.875,3209.2
562.377,3280.8
562.878,3446.1
563.38,3362.4
563.881,3274.5
564.383,3319.3
564.884,3741.6
565.386,4397.7
565.887,4737.8
566.388,3762.8
566.889,3369.2
567.391,3747.3
567.892,3984.7
568.393,3422.9
568.893,3416.7
569.394,3514.4
569.895,3744.9
570.396,4344.1
570.897,5846.7
571.397,6707.9
571.898,5113.9
572.398,4053.5
572.899,3696.1
573.399,3666.9
573.899,3873.1
574.399,3775.0
574.9,3823.0
575.4,4214.8
575.9,3794.1
576.4,4191.1
576.899,4195.9
577.399,3818.1
577.899,3739.1
578.399,3795.2
578.898,3685.3
579.398,3811.7
579.897,3784.5
580.397,3972.2
580.896,4114.2
581.396,4439.1
581.895,10050.2
582.394,8961.2
582.893,4207.0
583.392,4043.3
583.891,4101.2
584.39,4129.7
584.889,4311.3
585.387,5908.0
585.886,10603.4
586.385,8019.7
586.883,4662.6
587.382,4269.8
587.88,4145.1
588.379,4086.8
588.877,4080.7
589.375,4055.8
589.873,4117.9
590.371,4033.1
590.869,4057.2
591.367,4093.4
591.865,4115.6
592.363,4096.8
592.86,4078.9
593.358,4138.1
593.856,4066.9
594.353,4184.2
594.851,4135.5
595.348,4103.1
595.845,4192.0
596.342,4268.1
596.84,4220.8
597.337,4184.9
597.834,4202.5
598.331,4216.5
598.827,4235.1
599.324,4245.5
599.821,4252.4
600.318,4225.6
600.814,4237.3
601.311,4291.8
601.807,4224.1
602.303,4311.3
602.8,4328.2
603.296,4351.3
603.792,4353.4
604.288,4191.8
604.784,4309.2
605.28,4220.0
605.776,4317.6
606.272,4317.4
606.767,4377.2
607.263,4311.1
607.758,4326.9
608.254,4307.4
608.749,4391.9
609.244,4336.3
609.74,4354.0
610.235,4340.4
610.73,4350.5
611.225,4327.2
611.72,4353.5
612.215,4295.4
612.709,4368.6
613.204,4317.1
613.699,4369.5
614.193,4451.1
614.688,4389.3
615.182,4388.8
615.676,4376.7
616.171,4571.5
616.665,4459.0
617.159,4478.1
617.653,4539.1
618.147,4548.2
618.641,4546.3
619.134,4530.9
619.628,4571.8
620.122,4502.4
620.615,4457.3
621.109,4607.9
621.602,4593.7
622.095,4499.6
622.588,4642.2
623.082,4623.9
623.575,4605.9
624.068,4688.6
624.56,4761.3
625.053,4756.8
625.546,4683.4
626.039,4629.9
626.531,4697.6
627.024,4763.7
627.516,4734.9
628.008,4843.7
628.501,4982.9
628.993,5161.6
629.485,5293.1
629.977,5139.4
630.469,5140.8
630.961,5663.7
631.452,6724.2
631.944,6980.5
632.436,6348.3
632.927,5942.0
633.418,5865.1
633.91,5528.3
634.401,5330.7
634.892,5369.7
635.383,5455.1
635.874,6089.6
636.365,7437.5
636.856,6623.5
637.347,5741.6
637.837,5422.4
638.328,5424.3
638.818,5290.5
639.309,5272.6
639.799,5260.4
640.289,5379.0
640.78,5250.0
641.27,5309.1
641.76,5292.3
642.249,5397.6
642.739,5404.1
643.229,5234.8
643.719,5360.6
644.208,5366.2
644.698,5331.1
645.187,5300.8
645.676,5332.8
646.165,5230.9
646.655,5256.3
647.144,5296.0
647.633,5384.8
648.121,5433.2
648.61,5362.6
649.099,5411.2
649.587,5196.9
650.076,5195.2
650.564,5405.1
651.053,5331.7
651.541,5189.6
652.029,5197.6
652.517,5136.7
653.005,5145.0
653.493,5040.0
653.981,5120.1
654.468,5038.4
654.956,5032.6
655.444,4956.6
655.931,5105.8
656.418,4906.8
656.906,4977.1
657.393,4845.0
657.88,4875.0
658.367,4887.6
658.854,4844.3
659.341,4729.0
659.827,4660.9
660.314,4650.3
660.8,4622.7
661.044,4637.7