File: spectra/VLFR_08-PLA_nobio_Raman_72745376.csv
nm,Intensity
526.486,827.9
527.033,829.4
527.579,829.2
528.126,828.7
528.672,827.6
529.219,828.0
529.765,828.5
530.311,829.1
530.857,828.7
531.403,829.6
531.948,832.6
532.494,830.2
533.039,829.3
533.585,829.9
534.13,1047.4
534.675,996.5
535.22,952.6
535.764,931.8
536.309,915.5
536.854,919.4
537.398,909.7
537.942,908.1
538.486,894.7
539.03,888.7
539.574,884.9
540.118,878.9
540.662,893.4
541.205,897.4
541.749,889.7
542.292,882.4
542.835,881.8
543.378,900.7
543.921,914.7
544.464,895.0
545.006,881.3
545.549,875.7
546.091,873.5
546.634,872.6
547.176,875.8
547.718,876.8
548.26,875.3
548.802,877.2
549.343,878.9
549.885,881.9
550.426,878.4
550.968,880.7
551.509,885.7
552.05,884.8
552.591,887.5
553.132,887.4
553.673,880.4
554.214,891.6
554.754,883.2
555.295,875.7
555.835,875.8
556.375,875.7
556.915,878.1
557.455,895.2
557.995,1032.3
558.535,928.3
559.075,891.6
559.614,890.4
560.154,881.9
560.693,881.5
561.232,875.3
561.772,877.2
562.311,879.1
562.85,892.2
563.388,925.2
563.927,904.4
564.466,890.2
565.004,914.2
565.543,911.0
566.081,938.2
566.619,906.2
567.157,884.1
567.695,889.2
568.233,889.7
568.771,889.9
569.309,889.1
569.846,885.8
570.384,884.5
570.921,890.1
571.458,906.7
571.995,910.8
572.532,904.1
573.069,904.4
573.606,906.4
574.143,901.5
574.68,912.8
575.216,888.7
575.753,894.4
576.289,907.3
576.825,976.5
577.361,917.0
577.897,890.7
578.433,888.7
578.969,889.2
579.505,887.3
580.041,885.9
580.576,884.6
581.112,887.9
581.647,887.3
582.183,885.6
582.718,889.0
583.253,888.7
583.788,888.4
584.323,888.2
584.858,886.8
585.392,888.0
585.927,888.4
586.462,902.1
586.996,941.6
587.53,970.6
588.065,921.0
588.599,893.4
589.133,890.9
589.667,888.5
590.201,886.3
590.735,886.6
591.268,884.6
591.802,886.1
592.335,884.2
592.869,887.1
593.402,887.7
593.936,885.9
594.469,886.3
595.002,885.9
595.535,885.7
596.068,884.6
596.601,884.4
597.133,885.8
597.666,886.6
598.199,889.0
598.731,886.5
599.264,883.7
599.796,887.3
600.328,887.5
600.86,884.9
601.393,884.1
601.925,888.5
602.457,885.6
602.988,883.5
603.52,885.4
604.052,884.9
604.583,885.2
605.115,883.9
605.646,881.2
606.178,883.6
606.709,881.5
607.24,884.6
607.771,881.2
608.302,885.6
608.833,880.7
609.364,882.3
609.895,884.9
610.426,883.8
610.957,881.4
611.487,882.5
612.018,881.8
612.548,883.0
613.078,885.0
613.609,884.7
614.139,885.9
614.669,883.0
615.199,884.2
615.729,885.2
616.259,883.1
616.789,884.7
617.319,884.1
617.849,885.4
618.378,885.8
618.908,882.0
619.437,879.7
619.967,883.1
620.496,880.4
621.025,885.0
621.555,886.0
622.084,883.4
622.613,892.7
623.142,902.8
623.671,896.4
624.2,887.9
624.729,885.2
625.258,884.8
625.786,882.8
626.315,883.7
626.844,886.8
627.372,885.8
627.901,894.4
628.429,972.7
628.957,956.6
629.486,956.5
630.014,964.8
630.542,1024.2
631.07,1464.1
631.598,1204.0
632.126,1040.1
632.654,1011.6
633.182,1118.4
633.71,1081.7
634.237,971.4
634.765,911.3
635.293,894.6
635.82,885.4
636.348,880.9
636.875,879.8
637.403,879.5
637.93,877.4
638.458,877.6
638.985,876.7
639.512,878.9
640.039,874.9
640.566,875.5
641.093,878.8
641.62,879.9
642.147,879.7
642.674,874.6
643.201,875.0
643.728,875.1
644.255,871.0
644.781,870.9
645.308,869.2
645.835,866.1
646.361,869.5
646.888,871.3
647.414,867.6
647.941,872.3
648.467,870.7
648.993,868.0
649.52,869.2
650.046,869.6
650.572,869.6
651.098,867.1
651.625,866.8
652.151,865.2
652.677,866.8
653.203,867.3
653.729,866.8
654.255,867.4
654.78,869.6
655.306,868.1
655.832,868.6
656.358,866.0
656.884,866.7
657.409,868.5
657.935,867.9
658.461,867.3
658.986,866.0
659.512,863.0
660.037,863.4
660.563,864.1
661.088,864.9
661.614,865.0
662.139,862.8
662.664,866.1
663.058,861.6