File: spectra/VLFR_01-LDPE_nobio_Raman_e90c3bbf.csv
nm,Intensity
526.508,830.85
527.055,830.0
527.602,830.7
528.149,830.25
528.695,830.25
529.241,829.65
529.787,830.4
530.334,830.05
530.879,829.55
531.425,830.65
531.971,833.75
532.516,831.45
533.062,830.2
533.607,830.25
534.152,915.45
534.697,902.3
535.242,891.8
535.786,876.7
536.331,868.55
536.876,864.75
537.42,865.85
537.964,865.25
538.508,861.95
539.052,857.9
539.596,856.75
540.14,856.35
540.683,855.95
541.227,853.5
541.77,853.2
542.313,853.6
542.856,852.85
543.399,852.65
543.942,852.3
544.485,851.95
545.027,851.75
545.57,850.7
546.112,851.1
546.654,849.15
547.196,850.15
547.738,849.7
548.28,850.3
548.822,849.55
549.363,849.15
549.905,847.9
550.446,849.8
550.988,851.65
551.529,849.3
552.07,850.65
552.611,850.95
553.152,852.95
553.692,855.75
554.233,856.55
554.773,856.75
555.314,857.35
555.854,859.6
556.394,861.95
556.934,864.4
557.474,867.45
558.014,869.65
558.553,868.8
559.093,868.25
559.632,870.4
560.172,869.55
560.711,869.55
561.25,872.0
561.789,875.5
562.328,878.6
562.867,883.05
563.406,890.6
563.944,942.8
564.483,910.2
565.021,907.3
565.559,904.9
566.098,958.4
566.636,913.2
567.174,908.7
567.711,912.9
568.249,910.6
568.787,916.35
569.324,921.8
569.862,930.2
570.399,939.75
570.936,955.05
571.474,1051.65
572.011,1000.4
572.548,985.95
573.084,996.3
573.621,1014.5
574.158,1035.1
574.694,1045.2
575.231,1069.65
575.767,1140.2
576.303,1262.45
576.84,1248.85
577.376,1259.85
577.912,1265.05
578.447,1309.85
578.983,1357.05
579.519,1404.8
580.054,1469.5
580.59,1518.25
581.125,1570.9
581.661,1622.9
582.196,1684.95
582.731,1729.45
583.266,1772.95
583.801,1824.45
584.336,1858.75
584.87,1888.3
585.405,1937.05
585.94,1974.3
586.474,2036.15
587.008,2091.1
587.543,2159.75
588.077,2204.65
588.611,2259.4
589.145,2316.05
589.679,2390.45
590.213,2446.6
590.747,2522.7
591.28,2588.95
591.814,2645.0
592.347,2659.7
592.881,2684.4
593.414,2714.85
593.947,2752.65
594.48,2788.05
595.014,2824.3
595.547,2896.35
596.079,2945.9
596.612,2998.9
597.145,3061.25
597.678,3113.95
598.21,3201.4
598.743,3258.95
599.275,3312.7
599.807,3348.95
600.34,3368.4
600.872,3354.5
601.404,3347.6
601.936,3318.85
602.468,3276.75
603.0,3249.9
603.532,3180.7
604.063,3093.85
604.595,2986.35
605.126,2885.25
605.658,2771.2
606.189,2672.15
606.721,2586.65
607.252,2526.1
607.783,2456.3
608.314,2398.0
608.845,2331.6
609.376,2276.4
609.907,2224.35
610.438,2175.75
610.968,2141.15
611.499,2100.9
612.03,2073.15
612.56,2064.55
613.091,2043.15
613.621,2010.65
614.151,1981.95
614.681,1953.0
615.212,1922.4
615.742,1881.3
616.272,1860.85
616.802,1845.35
617.332,1822.4
617.861,1795.2
618.391,1782.6
618.921,1767.15
619.45,1749.8
619.98,1735.45
620.509,1709.6
621.039,1713.05
621.568,1717.15
622.097,1735.95
622.627,1731.55
623.156,1694.65
623.685,1683.2
624.214,1677.1
624.743,1673.7
625.272,1678.5
625.801,1672.5
626.33,1709.2
626.858,1956.2
627.387,2462.05
627.916,2140.95
628.444,2399.3
628.973,2213.2
629.501,2096.6
630.029,1985.3
630.558,1967.7
631.086,1835.9
631.614,1766.45
632.142,1744.5
632.67,1732.85
633.198,1739.4
633.726,1750.45
634.254,1754.6
634.782,1755.75
635.31,1761.65
635.838,1772.35
636.365,1774.2
636.893,1789.1
637.421,1796.35
637.948,1804.05
638.476,1809.9
639.003,1824.45
639.531,1829.25
640.058,1847.2
640.585,1855.0
641.113,1866.6
641.64,1885.0
642.167,1902.05
642.694,1913.2
643.221,1911.85
643.748,1911.3
644.275,1925.3
644.802,1928.05
645.329,1931.5
645.856,1942.5
646.382,1939.2
646.909,1951.9
647.436,1964.6
647.962,1959.05
648.489,1958.6
649.016,1952.15
649.542,1954.9
650.069,1954.95
650.595,1953.9
651.121,1964.0
651.648,1970.55
652.174,1975.05
652.7,1983.5
653.227,1993.2
653.753,1994.55
654.279,1985.35
654.805,1979.9
655.331,1969.05
655.857,1956.85
656.383,1936.8
656.909,1933.9
657.435,1908.35
657.961,1878.05
658.487,1861.2
659.013,1829.25
659.538,1799.05
660.064,1757.65
660.59,1729.4
661.116,1685.65
661.641,1644.25
662.167,1620.75
662.692,1593.3
663.087,1560.45