File: spectra/VLFR_08-PLA_nobio_Raman_9c3d25cb.csv
nm,Intensity
526.5,828.7
527.047,829.0
527.594,829.6
528.14,828.0
528.687,828.6
529.233,827.6
529.779,829.4
530.325,828.5
530.871,828.4
531.417,829.7
531.962,836.8
532.508,829.7
533.053,828.9
533.599,829.1
534.144,915.2
534.689,916.1
535.234,910.9
535.778,914.9
536.323,909.1
536.867,915.2
537.412,914.8
537.956,924.4
538.5,918.7
539.044,922.5
539.588,921.3
540.132,922.2
540.675,929.3
541.219,932.8
541.762,930.6
542.305,934.7
542.848,938.5
543.391,938.5
543.934,944.6
544.477,947.7
545.02,949.9
545.562,946.7
546.105,954.1
546.647,956.0
547.189,952.0
547.731,955.7
548.273,958.8
548.815,959.5
549.356,963.3
549.898,967.9
550.439,971.9
550.981,967.4
551.522,972.6
552.063,974.9
552.604,978.4
553.145,980.3
553.686,983.1
554.226,991.0
554.767,987.6
555.307,990.8
555.848,989.7
556.388,995.6
556.928,994.8
557.468,1004.0
558.008,1012.2
558.547,1008.7
559.087,1006.9
559.626,1012.6
560.166,1024.4
560.705,1025.2
561.244,1025.6
561.783,1035.2
562.322,1039.2
562.861,1041.7
563.4,1056.0
563.939,1058.5
564.477,1068.4
565.015,1080.4
565.554,1086.3
566.092,1094.1
566.63,1090.1
567.168,1104.5
567.706,1111.8
568.244,1120.0
568.781,1137.8
569.319,1148.4
569.857,1155.3
570.394,1171.6
570.931,1171.5
571.468,1185.0
572.005,1200.8
572.542,1202.9
573.079,1223.2
573.616,1231.1
574.153,1240.0
574.689,1263.7
575.226,1250.8
575.762,1260.0
576.298,1263.3
576.834,1268.7
577.371,1275.8
577.907,1282.6
578.442,1276.0
578.978,1275.4
579.514,1282.0
580.049,1282.1
580.585,1284.4
581.12,1285.1
581.656,1294.7
582.191,1291.9
582.726,1286.3
583.261,1286.4
583.796,1283.2
584.331,1291.0
584.865,1278.2
585.4,1272.3
585.935,1291.0
586.469,1286.4
587.004,1286.0
587.538,1291.5
588.072,1282.3
588.606,1270.0
589.14,1278.1
589.674,1268.0
590.208,1272.5
590.742,1278.8
591.275,1273.0
591.809,1271.3
592.342,1264.7
592.876,1262.4
593.409,1263.6
593.942,1268.3
594.476,1270.4
595.009,1267.2
595.542,1264.5
596.075,1265.0
596.607,1267.2
597.14,1263.5
597.673,1258.9
598.205,1265.6
598.738,1258.3
599.27,1259.9
599.803,1262.4
600.335,1266.2
600.867,1262.3
601.399,1245.0
601.931,1252.3
602.463,1255.3
602.995,1246.8
603.527,1253.5
604.058,1255.2
604.59,1258.6
605.122,1242.2
605.653,1246.0
606.184,1233.9
606.716,1232.3
607.247,1239.9
607.778,1239.6
608.309,1239.3
608.84,1242.5
609.371,1250.7
609.902,1241.3
610.433,1230.6
610.964,1243.2
611.494,1233.3
612.025,1241.8
612.556,1241.6
613.086,1241.1
613.616,1243.5
614.147,1246.9
614.677,1249.1
615.207,1244.2
615.737,1240.1
616.267,1233.2
616.797,1247.0
617.327,1236.0
617.857,1242.4
618.387,1240.4
618.917,1227.8
619.446,1242.7
619.976,1231.5
620.505,1227.8
621.035,1227.0
621.564,1224.5
622.093,1233.7
622.623,1233.1
623.152,1230.7
623.681,1227.9
624.21,1239.3
624.739,1225.6
625.268,1224.7
625.797,1226.9
626.326,1219.4
626.855,1217.2
627.383,1213.7
627.912,1220.0
628.441,1217.6
628.969,1225.6
629.498,1222.1
630.026,1224.8
630.554,1233.0
631.083,1258.0
631.611,1240.0
632.139,1223.0
632.667,1218.8
633.195,1217.2
633.724,1208.7
634.252,1194.7
634.779,1188.3
635.307,1189.0
635.835,1184.5
636.363,1189.9
636.891,1183.9
637.418,1179.8
637.946,1176.0
638.474,1175.1
639.001,1173.4
639.529,1172.2
640.056,1163.2
640.583,1163.2
641.111,1165.9
641.638,1162.8
642.165,1149.8
642.692,1153.6
643.22,1152.4
643.747,1145.6
644.274,1131.9
644.801,1140.4
645.328,1139.9
645.854,1130.4
646.381,1133.0
646.908,1132.6
647.435,1129.8
647.962,1131.7
648.488,1129.2
649.015,1123.0
649.542,1121.0
650.068,1115.0
650.595,1110.1
651.121,1108.4
651.648,1118.1
652.174,1105.3
652.7,1107.8
653.227,1110.1
653.753,1098.9
654.279,1110.5
654.805,1100.1
655.331,1098.9
655.858,1098.6
656.384,1091.5
656.91,1097.2
657.436,1097.6
657.962,1093.1
658.488,1093.2
659.013,1090.3
659.539,1089.8
660.065,1091.6
660.591,1087.4
661.117,1081.7
661.642,1076.0
662.168,1076.2
662.694,1080.6
663.088,1079.0