File: spectra/VLFR_06-PET_nobio_Raman_3b3a3576.csv
nm,Intensity
526.508,831.1
527.055,831.2
527.602,830.05
528.149,830.25
528.695,830.0
529.241,830.05
529.787,831.1
530.334,830.25
530.879,830.35
531.425,830.05
531.971,832.95
532.516,831.65
533.062,830.65
533.607,840.85
534.152,2164.8
534.697,1790.85
535.242,1437.0
535.786,1218.25
536.331,1080.3
536.876,1028.15
537.42,1008.2
537.964,994.8
538.508,1006.65
539.052,999.05
539.596,1018.45
540.14,1029.8
540.683,984.25
541.227,974.8
541.77,967.75
542.313,971.25
542.856,969.5
543.399,969.5
543.942,984.6
544.485,978.25
545.027,980.7
545.57,983.05
546.112,985.8
546.654,987.1
547.196,995.45
547.738,992.7
548.28,995.2
548.822,1000.45
549.363,1003.2
549.905,1007.0
550.446,1025.85
550.988,1033.3
551.529,1014.0
552.07,1022.05
552.611,1032.7
553.152,1051.2
553.692,1036.8
554.233,1032.85
554.773,1041.45
555.314,1054.5
555.854,1106.05
556.394,1120.0
556.934,1126.15
557.474,1275.2
558.014,1158.95
558.553,1150.1
559.093,1104.5
559.632,1080.5
560.172,1080.75
560.711,1086.2
561.25,1090.95
561.789,1095.85
562.328,1117.45
562.867,1133.4
563.406,1140.5
563.944,1128.55
564.483,1138.25
565.021,1191.55
565.559,1260.75
566.098,1259.5
566.636,1162.8
567.174,1152.0
567.711,1241.55
568.249,1170.1
568.787,1166.2
569.324,1176.15
569.862,1207.0
570.399,1255.15
570.936,1392.9
571.474,1520.35
572.011,1360.3
572.548,1238.55
573.084,1215.1
573.621,1218.85
574.158,1258.45
574.694,1234.95
575.231,1274.4
575.767,1250.45
576.303,1282.4
576.84,1298.9
577.376,1270.85
577.912,1256.45
578.447,1263.15
578.983,1270.55
579.519,1277.65
580.054,1276.2
580.59,1288.15
581.125,1308.35
581.661,1399.85
582.196,2688.65
582.731,1376.05
583.266,1325.85
583.801,1319.9
584.336,1336.8
584.87,1352.7
585.405,1466.95
585.94,2041.1
586.474,1763.0
587.008,1412.0
587.543,1367.6
588.077,1352.55
588.611,1354.2
589.145,1352.75
589.679,1354.95
590.213,1359.85
590.747,1362.55
591.28,1367.0
591.814,1372.95
592.347,1378.6
592.881,1372.25
593.414,1366.85
593.947,1375.7
594.48,1379.9
595.014,1390.7
595.547,1393.8
596.079,1391.35
596.612,1402.0
597.145,1401.8
597.678,1399.9
598.21,1409.05
598.743,1413.4
599.275,1420.65
599.807,1412.55
600.34,1411.6
600.872,1413.75
601.404,1415.95
601.936,1415.3
602.468,1417.9
603.0,1422.4
603.532,1426.0
604.063,1423.8
604.595,1428.15
605.126,1422.6
605.658,1413.7
606.189,1414.3
606.721,1417.3
607.252,1419.6
607.783,1422.6
608.314,1439.45
608.845,1434.25
609.376,1434.05
609.907,1437.2
610.438,1430.6
610.968,1432.75
611.499,1440.45
612.03,1437.35
612.56,1451.7
613.091,1468.0
613.621,1472.3
614.151,1468.8
614.681,1474.9
615.212,1478.95
615.742,1474.6
616.272,1476.55
616.802,1481.9
617.332,1491.2
617.861,1503.15
618.391,1500.65
618.921,1504.35
619.45,1503.9
619.98,1501.0
620.509,1497.85
621.039,1501.8
621.568,1503.2
622.097,1512.2
622.627,1528.95
623.156,1527.7
623.685,1532.8
624.214,1548.25
624.743,1565.55
625.272,1555.95
625.801,1561.8
626.33,1561.6
626.858,1571.45
627.387,1571.25
627.916,1585.8
628.444,1606.65
628.973,1639.9
629.501,1642.6
630.029,1636.2
630.558,1647.0
631.086,1716.85
631.614,1866.9
632.142,1857.8
632.67,1775.25
633.198,1755.1
633.726,1728.15
634.254,1713.2
634.782,1708.4
635.31,1724.1
635.838,1788.85
636.365,1941.25
636.893,1948.9
637.421,1787.25
637.948,1756.15
638.476,1750.8
639.003,1758.2
639.531,1772.1
640.058,1765.45
640.585,1771.85
641.113,1783.9
641.64,1797.0
642.167,1809.75
642.694,1812.65
643.221,1799.4
643.748,1801.8
644.275,1800.6
644.802,1807.0
645.329,1816.5
645.856,1818.5
646.382,1818.3
646.909,1835.1
647.436,1848.1
647.962,1845.5
648.489,1838.35
649.016,1844.8
649.542,1838.45
650.069,1845.1
650.595,1836.75
651.121,1843.55
651.648,1850.65
652.174,1861.05
652.7,1872.55
653.227,1869.5
653.753,1874.4
654.279,1871.2
654.805,1866.3
655.331,1872.55
655.857,1872.95
656.383,1874.45
656.909,1880.3
657.435,1883.95
657.961,1877.55
658.487,1891.15
659.013,1890.4
659.538,1894.65
660.064,1893.4
660.59,1879.0
661.116,1876.7
661.641,1876.85
662.167,1863.75
662.692,1873.1
663.087,1863.55