File: spectra/VLFR_08-PLA_bio_Raman_d1001c75.csv
nm,Intensity
528.65,1848.2
529.155,1849.1
529.66,1849.2
530.165,1850.7
530.67,1848.85
531.175,1850.55
531.68,1878.6
532.185,3070.3
532.69,1850.8
533.194,1852.35
533.699,2026.7
534.204,2395.9
534.708,2325.7
535.213,2308.45
535.717,2252.5
536.222,2225.25
536.726,2252.3
537.231,2212.9
537.735,2242.75
538.239,2221.05
538.743,2197.85
539.247,2204.9
539.751,2164.4
540.255,2189.95
540.759,2233.5
541.263,2232.25
541.767,2189.5
542.271,2188.65
542.775,2206.35
543.279,2285.2
543.782,2337.85
544.286,2256.9
544.789,2206.25
545.293,2195.6
545.796,2198.85
546.3,2189.6
546.803,2212.35
547.306,2213.0
547.81,2219.45
548.313,2219.05
548.816,2239.2
549.319,2230.1
549.822,2229.35
550.325,2232.5
550.828,2267.7
551.331,2285.9
551.834,2290.7
552.337,2287.15
552.839,2309.5
553.342,2281.2
553.844,2304.5
554.347,2298.75
554.849,2287.0
555.352,2255.1
555.854,2255.55
556.357,2265.55
556.859,2288.35
557.361,2315.55
557.863,2666.1
558.365,2514.75
558.867,2337.2
559.369,2335.45
559.871,2325.35
560.373,2304.45
560.875,2298.0
561.377,2299.55
561.878,2310.45
562.38,2306.2
562.881,2359.45
563.383,2467.75
563.884,2385.0
564.386,2359.2
564.887,2438.2
565.388,2426.5
565.89,2489.0
566.391,2485.15
566.892,2356.35
567.393,2345.75
567.894,2397.25
568.395,2385.75
568.896,2388.6
569.396,2382.9
569.897,2372.3
570.398,2380.9
570.898,2393.95
571.399,2491.2
571.9,2470.55
572.4,2442.6
572.9,2429.4
573.401,2448.0
573.901,2459.35
574.401,2477.6
574.901,2432.2
575.401,2392.9
575.901,2414.05
576.401,2555.45
576.901,2635.75
577.401,2423.1
577.901,2379.55
578.4,2370.85
578.9,2385.4
579.399,2362.45
579.899,2383.35
580.398,2363.75
580.898,2370.3
581.397,2375.7
581.896,2374.55
582.395,2382.05
582.895,2373.6
583.394,2378.15
583.893,2378.4
584.391,2367.95
584.89,2364.5
585.389,2367.6
585.888,2372.65
586.386,2389.85
586.885,2503.3
587.384,2633.35
587.882,2493.25
588.38,2398.9
588.879,2360.85
589.377,2359.8
589.875,2363.4
590.373,2334.4
590.871,2346.75
591.369,2345.8
591.867,2361.05
592.365,2368.7
592.863,2362.55
593.361,2350.7
593.858,2355.4
594.356,2347.55
594.853,2361.0
595.351,2352.0
595.848,2358.55
596.345,2361.4
596.843,2358.4
597.34,2346.8
597.837,2370.05
598.334,2359.15
598.831,2356.3
599.328,2360.8
599.824,2358.4
600.321,2372.2
600.818,2355.2
601.314,2363.95
601.811,2357.95
602.307,2356.6
602.804,2363.8
603.3,2371.55
603.796,2338.15
604.293,2370.15
604.789,2353.85
605.285,2361.5
605.781,2365.55
606.277,2356.6
606.772,2344.8
607.268,2359.0
607.764,2354.05
608.259,2360.0
608.755,2360.1
609.25,2350.85
609.746,2361.2
610.241,2349.2
610.736,2356.4
611.231,2347.35
611.727,2343.5
612.222,2339.05
612.716,2338.55
613.211,2351.9
613.706,2332.95
614.201,2346.75
614.695,2346.3
615.19,2355.7
615.684,2334.8
616.179,2343.15
616.673,2336.4
617.168,2313.8
617.662,2334.35
618.156,2340.9
618.65,2330.25
619.144,2336.5
619.638,2325.95
620.131,2319.0
620.625,2324.25
621.119,2319.4
621.612,2344.7
622.106,2318.15
622.599,2353.1
623.093,2366.2
623.586,2368.25
624.079,2333.0
624.572,2323.25
625.065,2323.7
625.558,2311.15
626.051,2308.75
626.544,2302.85
627.037,2316.25
627.529,2310.8
628.022,2413.5
628.514,2656.95
629.007,2544.15
629.499,2559.0
629.991,2586.25
630.483,2823.9
630.976,4253.6
631.468,3564.85
631.959,2876.5
632.451,2699.6
632.943,2933.3
633.435,3095.65
633.926,2766.4
634.418,2443.35
634.909,2324.25
635.401,2279.15
635.892,2258.75
636.383,2264.9
636.874,2247.35
637.365,2228.65
637.856,2254.85
638.347,2231.2
638.838,2230.7
639.329,2232.95
639.819,2225.05
640.31,2220.8
640.8,2223.95
641.291,2225.05
641.781,2220.15
642.271,2224.6
642.761,2208.65
643.251,2189.45
643.741,2189.1
644.231,2195.55
644.721,2186.2
645.211,2188.2
645.7,2179.0
646.19,2188.4
646.679,2167.55
647.169,2152.25
647.658,2162.35
648.147,2174.9
648.636,2153.55
649.125,2152.25
649.614,2153.9
650.103,2144.5
650.592,2147.45
651.08,2148.5
651.569,2142.15
652.058,2143.6
652.546,2127.65
653.034,2136.15
653.523,2134.25
654.011,2121.1
654.499,2122.2
654.987,2122.9
655.475,2112.7
655.963,2112.3
656.45,2102.45
656.938,2104.15
657.425,2098.7
657.913,2111.8
658.4,2080.85
658.888,2093.2
659.375,2084.95
659.862,2085.8
660.349,2085.2
660.836,2072.85
661.079,2075.0