File: spectra/VLFR_06-PET_bio_Raman_c0ad7885.csv
nm,Intensity
528.65,1883.5
529.155,1887.45
529.66,1885.55
530.165,1889.8
530.67,1888.75
531.175,1898.15
531.68,1941.45
532.185,4118.95
532.69,1922.3
533.194,1981.4
533.699,10317.1
534.204,36434.4
534.708,38928.1
535.213,40208.7
535.717,41425.5
536.222,40727.1
536.726,41784.8
537.231,42876.6
537.735,43566.0
538.239,43694.3
538.743,44717.7
539.247,45760.8
539.751,47242.0
540.255,47598.5
540.759,47795.2
541.263,48309.8
541.767,49322.3
542.271,49750.9
542.775,51298.3
543.279,51623.2
543.782,52230.4
544.286,52705.8
544.789,53112.8
545.293,53864.0
545.796,54207.9
546.3,55147.2
546.803,55880.6
547.306,55990.9
547.81,56114.9
548.313,57225.7
548.816,57521.6
549.319,57595.3
549.822,57911.9
550.325,58487.2
550.828,59283.9
551.331,59151.3
551.834,60322.5
552.337,60581.6
552.839,60503.1
553.342,61177.1
553.844,61154.4
554.347,61972.8
554.849,62367.4
555.352,62402.4
555.854,62830.8
556.357,63079.8
556.859,63397.8
557.361,63258.1
557.863,63564.9
558.365,63906.6
558.867,64227.7
559.369,64432.6
559.871,64753.5
560.373,64597.1
560.875,64706.1
561.377,65057.8
561.878,65085.1
562.38,65050.1
562.881,65245.1
563.383,65307.9
563.884,65330.6
564.386,65474.6
564.887,65478.7
565.388,65508.6
565.89,65529.6
566.391,65508.6
566.892,65512.9
567.393,65535.0
567.894,65535.0
568.395,65535.0
568.896,65535.0
569.396,65535.0
569.897,65535.0
570.398,65535.0
570.898,65535.0
571.399,65535.0
571.9,65535.0
572.4,65535.0
572.9,65535.0
573.401,65535.0
573.901,65535.0
574.401,65535.0
574.901,65535.0
575.401,65535.0
575.901,65535.0
576.401,65535.0
576.901,65535.0
577.401,65535.0
577.901,65535.0
578.4,65535.0
578.9,65535.0
579.399,65535.0
579.899,65535.0
580.398,65535.0
580.898,65535.0
581.397,65535.0
581.896,65535.0
582.395,65535.0
582.895,65535.0
583.394,65535.0
583.893,65535.0
584.391,65535.0
584.89,65535.0
585.389,65535.0
585.888,65535.0
586.386,65535.0
586.885,65535.0
587.384,65535.0
587.882,65535.0
588.38,65535.0
588.879,65535.0
589.377,65535.0
589.875,65535.0
590.373,65535.0
590.871,65535.0
591.369,65535.0
591.867,65535.0
592.365,65535.0
592.863,65535.0
593.361,65535.0
593.858,65535.0
594.356,65535.0
594.853,65535.0
595.351,65535.0
595.848,65535.0
596.345,65535.0
596.843,65535.0
597.34,65535.0
597.837,65535.0
598.334,65535.0
598.831,65535.0
599.328,65535.0
599.824,65535.0
600.321,65535.0
600.818,65535.0
601.314,65535.0
601.811,65535.0
602.307,65535.0
602.804,65535.0
603.3,65535.0
603.796,65535.0
604.293,65535.0
604.789,65535.0
605.285,65535.0
605.781,65535.0
606.277,65535.0
606.772,65535.0
607.268,65535.0
607.764,65535.0
608.259,65535.0
608.755,65535.0
609.25,65535.0
609.746,65535.0
610.241,65535.0
610.736,65535.0
611.231,65535.0
611.727,65535.0
612.222,65535.0
612.716,65535.0
613.211,65535.0
613.706,65535.0
614.201,65535.0
614.695,65535.0
615.19,65535.0
615.684,65535.0
616.179,65535.0
616.673,65535.0
617.168,65535.0
617.662,65535.0
618.156,65535.0
618.65,65535.0
619.144,65535.0
619.638,65535.0
620.131,65535.0
620.625,65535.0
621.119,65535.0
621.612,65535.0
622.106,65535.0
622.599,65535.0
623.093,65535.0
623.586,65535.0
624.079,65535.0
624.572,65535.0
625.065,65535.0
625.558,65535.0
626.051,65535.0
626.544,65535.0
627.037,65535.0
627.529,65535.0
628.022,65535.0
628.514,65535.0
629.007,65535.0
629.499,65535.0
629.991,65535.0
630.483,65535.0
630.976,65535.0
631.468,65535.0
631.959,65535.0
632.451,65535.0
632.943,65535.0
633.435,65535.0
633.926,65535.0
634.418,65535.0
634.909,65535.0
635.401,65535.0
635.892,65535.0
636.383,65535.0
636.874,65535.0
637.365,65535.0
637.856,65535.0
638.347,65535.0
638.838,65535.0
639.329,65535.0
639.819,65535.0
640.31,65535.0
640.8,65515.2
641.291,65535.0
641.781,65531.3
642.271,65535.0
642.761,65475.3
643.251,65442.5
643.741,65486.1
644.231,65459.1
644.721,65135.3
645.211,65476.4
645.7,65307.0
646.19,65204.4
646.679,65356.3
647.169,65117.1
647.658,64877.1
648.147,64941.1
648.636,64662.6
649.125,64353.5
649.614,64501.5
650.103,64418.3
650.592,63920.0
651.08,64114.3
651.569,63180.6
652.058,63558.4
652.546,62936.9
653.034,63149.4
653.523,63346.9
654.011,62332.9
654.499,61843.9
654.987,62063.8
655.475,62031.8
655.963,61579.1
656.45,61900.2
656.938,61045.7
657.425,61539.3
657.913,60006.9
658.4,60235.3
658.888,59086.9
659.375,58146.9
659.862,58420.4
660.349,57959.5
660.836,58019.1
661.079,57964.2