File: spectra/VLFR_06-PET_bio_Raman_2c5c79ab.csv
nm,Intensity
526.508,829.5
527.055,829.8
527.602,828.8
528.149,829.9
528.695,832.1
529.241,828.5
529.787,828.7
530.334,830.1
530.879,830.4
531.425,830.1
531.971,834.6
532.516,831.1
533.062,830.3
533.607,839.0
534.152,2169.2
534.697,1791.4
535.242,1431.6
535.786,1196.9
536.331,1059.3
536.876,1003.9
537.42,982.0
537.964,977.8
538.508,984.9
539.052,978.5
539.596,996.8
540.14,1004.9
540.683,960.6
541.227,947.6
541.77,940.3
542.313,940.4
542.856,941.9
543.399,938.8
543.942,950.1
544.485,943.4
545.027,947.2
545.57,951.0
546.112,949.0
546.654,956.6
547.196,954.6
547.738,955.1
548.28,958.0
548.822,959.8
549.363,962.2
549.905,960.2
550.446,979.3
550.988,992.3
551.529,973.7
552.07,972.4
552.611,986.0
553.152,1002.6
553.692,983.9
554.233,981.5
554.773,988.5
555.314,1005.0
555.854,1060.4
556.394,1062.6
556.934,1076.8
557.474,1237.6
558.014,1112.5
558.553,1100.1
559.093,1049.4
559.632,1015.2
560.172,1019.5
560.711,1022.2
561.25,1024.3
561.789,1033.3
562.328,1050.6
562.867,1063.3
563.406,1063.8
563.944,1055.4
564.483,1062.9
565.021,1125.1
565.559,1194.4
566.098,1193.7
566.636,1088.9
567.174,1063.5
567.711,1167.4
568.249,1084.0
568.787,1081.8
569.324,1080.7
569.862,1113.1
570.399,1161.4
570.936,1320.6
571.474,1469.9
572.011,1280.0
572.548,1152.9
573.084,1118.4
573.621,1119.4
574.158,1154.3
574.694,1130.8
575.231,1165.7
575.767,1146.4
576.303,1179.6
576.84,1201.0
577.376,1157.3
577.912,1141.9
578.447,1143.4
578.983,1146.8
579.519,1152.3
580.054,1158.8
580.59,1172.6
581.125,1195.1
581.661,1279.0
582.196,2671.3
582.731,1247.4
583.266,1187.5
583.801,1187.9
584.336,1201.0
584.87,1224.3
585.405,1339.0
585.94,1954.1
586.474,1654.9
587.008,1271.5
587.543,1215.1
588.077,1213.7
588.611,1206.0
589.145,1204.5
589.679,1206.6
590.213,1207.5
590.747,1210.4
591.28,1210.7
591.814,1212.8
592.347,1213.2
592.881,1210.8
593.414,1212.5
593.947,1211.9
594.48,1219.5
595.014,1223.1
595.547,1235.4
596.079,1227.3
596.612,1233.6
597.145,1229.4
597.678,1240.8
598.21,1235.8
598.743,1236.2
599.275,1245.2
599.807,1247.5
600.34,1244.5
600.872,1239.9
601.404,1242.5
601.936,1251.9
602.468,1242.1
603.0,1249.7
603.532,1248.8
604.063,1253.7
604.595,1242.8
605.126,1240.5
605.658,1241.0
606.189,1234.1
606.721,1241.1
607.252,1251.4
607.783,1248.5
608.314,1254.6
608.845,1256.7
609.376,1258.4
609.907,1251.5
610.438,1255.8
610.968,1257.9
611.499,1257.4
612.03,1262.3
612.56,1272.8
613.091,1281.0
613.621,1271.0
614.151,1285.9
614.681,1285.0
615.212,1280.3
615.742,1288.7
616.272,1276.8
616.802,1294.9
617.332,1297.8
617.861,1310.4
618.391,1311.5
618.921,1304.9
619.45,1303.0
619.98,1303.0
620.509,1301.0
621.039,1297.9
621.568,1305.8
622.097,1307.4
622.627,1311.2
623.156,1316.8
623.685,1333.7
624.214,1336.1
624.743,1341.0
625.272,1349.0
625.801,1348.5
626.33,1343.5
626.858,1345.8
627.387,1347.4
627.916,1353.1
628.444,1376.5
628.973,1403.5
629.501,1413.0
630.029,1399.6
630.558,1411.8
631.086,1481.7
631.614,1622.5
632.142,1615.1
632.67,1526.6
633.198,1508.5
633.726,1482.2
634.254,1455.3
634.782,1445.3
635.31,1451.5
635.838,1527.4
636.365,1660.2
636.893,1683.0
637.421,1514.7
637.948,1475.3
638.476,1466.3
639.003,1474.1
639.531,1476.2
640.058,1484.8
640.585,1481.4
641.113,1488.1
641.64,1491.1
642.167,1499.3
642.694,1515.9
643.221,1500.4
643.748,1504.8
644.275,1496.7
644.802,1499.1
645.329,1504.5
645.856,1512.3
646.382,1511.2
646.909,1526.6
647.436,1526.8
647.962,1531.8
648.489,1533.9
649.016,1519.7
649.542,1531.2
650.069,1535.5
650.595,1549.7
651.121,1527.6
651.648,1544.2
652.174,1544.8
652.7,1541.9
653.227,1541.6
653.753,1552.9
654.279,1553.7
654.805,1561.8
655.331,1556.1
655.857,1557.9
656.383,1563.0
656.909,1563.6
657.435,1560.7
657.961,1558.0
658.487,1562.7
659.013,1573.1
659.538,1558.8
660.064,1556.6
660.59,1561.8
661.116,1551.3
661.641,1552.7
662.167,1557.1
662.692,1551.1
663.087,1557.1