File: spectra/VLFR_07-PET_nobio_Raman_18a5fd0c.csv
nm,Intensity
791.377,11313.5
792.477,10533.3
793.576,9899.56
794.676,9575.74
795.775,9496.7
796.874,9473.26
797.973,9432.68
799.072,9436.96
800.171,9258.96
801.27,9222.54
802.368,9403.8
803.467,9016.9
804.565,8960.38
805.664,8886.86
806.762,8799.8
807.86,8734.8
808.958,8710.54
810.056,8643.2
811.153,8565.68
812.251,8524.06
813.349,8534.76
814.446,8331.4
815.543,8433.98
816.64,8313.16
817.737,8232.98
818.834,8238.66
819.931,8134.4
821.028,8107.18
822.125,8040.12
823.221,7966.3
824.317,7975.88
825.414,7871.24
826.51,7937.24
827.606,7726.5
828.702,7733.62
829.797,7660.3
830.893,7616.94
831.988,7558.52
833.084,7462.12
834.179,7463.66
835.274,7331.52
836.369,7285.18
837.464,7491.02
838.559,7389.44
839.654,7260.48
840.748,7489.74
841.843,7574.48
842.937,7289.46
844.031,7165.86
845.125,7019.46
846.219,6904.1
847.313,6873.9
848.407,6807.26
849.5,6717.1
850.593,6837.24
851.687,6727.68
852.78,6780.88
853.873,6719.92
854.966,6696.04
856.059,6565.44
857.151,6602.58
858.244,6606.6
859.336,6746.38
860.428,6701.26
861.52,6572.94
862.612,6454.44
863.704,6367.9
864.796,6453.26
865.888,6354.64
866.979,6301.68
868.07,6217.24
869.162,6228.36
870.253,6256.56
871.344,6363.4
872.434,6493.86
873.525,6559.36
874.615,6333.84
875.706,6169.12
876.796,6057.92
877.886,6042.2
878.976,5947.06
880.066,5960.52
881.156,5924.26
882.245,5924.3
883.335,5820.36
884.424,5854.56
885.513,5864.46
886.602,5788.98
887.691,5703.14
888.78,5676.14
889.868,5593.82
890.957,5612.82
892.045,5601.94
893.133,5505.46
894.221,5499.26
895.309,5454.54
896.397,5372.58
897.484,5548.0
898.571,6087.94
899.659,5812.08
900.746,5324.86
901.833,5237.96
902.92,5243.72
904.006,5183.82
905.093,5198.44
906.179,5246.88
907.266,5530.88
908.352,5581.18
909.438,5309.62
910.523,5100.7
911.609,4973.94
912.695,4942.22
913.78,4885.72
914.865,4917.82
915.95,4845.68
917.035,4821.44
918.12,4807.22
919.204,4801.44
920.289,4753.8
921.373,4733.38
922.457,4713.14
923.541,4650.58
924.625,4666.66
925.709,4625.32
926.792,4622.98
927.876,4577.78
928.959,4540.8
930.042,4493.48
931.125,4499.16
932.208,4459.74
933.29,4441.82
934.373,4429.98
935.455,4388.54
936.537,4372.9
937.619,4353.16
938.701,4345.94
939.782,4340.0
940.864,4296.46
941.945,4278.1
943.026,4270.18
944.107,4259.66
945.188,4230.56
946.269,4220.46
947.349,4214.34
948.43,4198.5
949.51,4176.84
950.59,4178.74
951.67,4144.22
952.75,4132.74
953.829,4142.06
954.909,4106.0
955.988,4108.04
957.067,4074.54
958.146,4080.42
959.224,4068.26
960.303,4043.34
961.381,4049.76
962.459,4031.78
963.537,4025.0
964.615,4012.84
965.693,4003.04
966.771,3998.66
967.848,4001.24
968.925,3983.8
970.002,3974.5
971.079,3972.9
972.156,3956.5
973.232,3946.3
974.309,3937.84
975.385,3939.52
976.461,3923.78
977.537,3920.88
978.612,3919.42
979.688,3903.92
980.763,3895.78
981.838,3894.14
982.913,3888.44
983.988,3887.9
985.063,3883.1
986.137,3877.92
987.211,3870.1
988.285,3862.72
989.359,3860.66
990.433,3856.72
991.506,3854.08
992.58,3840.54
993.653,3842.86
994.726,3834.72
995.799,3829.9
996.872,3827.56
997.944,3821.04
999.016,3820.2
1000.09,3816.54
1001.16,3810.94
1002.23,3808.16
1003.3,3803.8
1004.38,3799.66
1005.45,3794.56
1006.52,3794.74
1007.59,3788.86
1008.66,3788.1
1009.73,3781.3
1010.8,3781.02
1011.87,3777.84
1012.94,3778.38
1014.01,3774.86
1015.08,3771.3
1016.15,3771.88
1017.22,3769.58
1018.29,3767.54
1019.36,3763.2
1020.42,3763.78
1021.49,3766.54
1022.56,3771.12
1023.63,3767.98
1024.7,3764.76
1025.76,3759.46
1026.83,3753.52
1027.9,3753.78
1028.97,3747.28
1030.03,3744.32
1031.1,3743.28
1032.17,3742.22
1033.23,3744.92
1034.3,3745.3
1035.36,3747.3
1036.43,3747.04
1037.5,3741.32
1038.56,3736.5
1039.63,3734.18
1040.69,3733.42
1041.76,3732.32
1042.82,3730.52
1043.89,3731.36
1044.95,3728.82
1046.01,3728.06
1047.08,3728.52
1048.14,3727.88
1049.2,3726.7
1050.27,3725.84
1051.33,3725.4
1052.39,3725.96
1053.46,3724.52
1054.52,3724.66
1055.58,3725.14
1056.64,3723.74
1057.7,3722.98
1058.77,3722.96
1059.83,3721.72
1060.89,3723.6
1061.95,3722.9
1063.01,3722.82
1064.07,3722.2
1065.13,3720.92
1066.19,3721.48
1067.25,3721.16
1068.05,3721.78