File: spectra/VLFR_08-PLA_nobio_Raman_78dc589a.csv
nm,Intensity
526.532,829.767
527.079,830.167
527.625,830.267
528.172,830.367
528.718,829.933
529.265,830.467
529.811,830.433
530.357,829.833
530.903,830.7
531.449,829.833
531.994,835.967
532.54,830.7
533.085,830.467
533.63,832.633
534.176,1000.93
534.721,961.267
535.266,929.567
535.81,911.467
536.355,906.533
536.9,906.867
537.444,899.167
537.988,896.867
538.533,887.433
539.077,885.0
539.621,880.933
540.165,877.067
540.708,891.967
541.252,889.8
541.795,882.833
542.339,879.233
542.882,881.1
543.425,900.933
543.968,906.4
544.511,886.767
545.054,877.333
545.597,874.833
546.139,875.833
546.682,874.433
547.224,878.167
547.766,875.567
548.308,876.567
548.85,877.233
549.392,878.967
549.934,879.033
550.475,879.767
551.017,881.4
551.558,884.233
552.1,886.233
552.641,887.667
553.182,886.3
553.723,884.033
554.264,889.6
554.804,886.067
555.345,880.667
555.885,877.867
556.426,878.4
556.966,880.367
557.506,895.533
558.046,997.567
558.586,908.5
559.126,893.133
559.665,887.5
560.205,885.3
560.745,882.8
561.284,881.3
561.823,880.2
562.362,884.367
562.901,892.5
563.44,918.5
563.979,897.967
564.518,892.567
565.056,910.6
565.595,906.933
566.133,933.233
566.671,901.967
567.21,887.633
567.748,892.8
568.285,892.367
568.823,893.0
569.361,893.567
569.899,889.8
570.436,890.867
570.974,895.3
571.511,908.333
572.048,907.133
572.585,902.267
573.122,903.667
573.659,908.267
574.196,902.433
574.733,911.4
575.269,893.667
575.806,896.0
576.342,910.833
576.878,961.267
577.414,912.367
577.951,893.933
578.486,895.0
579.022,894.933
579.558,892.9
580.094,894.267
580.629,891.5
581.165,893.667
581.7,892.6
582.236,893.067
582.771,894.833
583.306,892.9
583.841,894.9
584.376,896.033
584.911,896.167
585.445,896.6
585.98,897.033
586.514,908.367
587.049,939.8
587.583,960.0
588.117,915.467
588.651,896.633
589.186,897.4
589.72,893.6
590.253,895.133
590.787,895.167
591.321,894.1
591.854,893.4
592.388,893.667
592.921,895.433
593.455,895.6
593.988,894.233
594.521,893.433
595.054,894.533
595.587,894.533
596.12,894.8
596.653,895.3
597.186,893.167
597.718,895.867
598.251,895.133
598.783,896.067
599.316,895.8
599.848,895.967
600.38,894.133
600.912,893.633
601.444,895.033
601.976,894.7
602.508,893.633
603.04,893.833
603.572,893.367
604.103,894.6
604.635,892.867
605.167,893.6
605.698,893.033
606.229,889.667
606.761,893.8
607.292,892.867
607.823,892.7
608.354,892.433
608.885,892.067
609.416,891.967
609.947,892.4
610.477,892.267
611.008,893.233
611.539,892.167
612.069,893.133
612.6,892.833
613.13,894.267
613.66,893.933
614.19,895.333
614.721,894.9
615.251,894.2
615.781,895.2
616.311,895.833
616.841,894.567
617.37,893.533
617.9,892.8
618.43,895.067
618.96,892.3
619.489,892.4
620.019,894.167
620.548,893.733
621.077,891.667
621.607,894.5
622.136,894.667
622.665,903.4
623.194,906.567
623.723,901.767
624.252,897.767
624.781,895.433
625.31,893.433
625.839,893.833
626.368,892.333
626.896,894.733
627.425,896.933
627.953,905.2
628.482,965.667
629.01,948.033
629.539,948.967
630.067,957.7
630.596,1016.47
631.124,1361.7
631.652,1115.07
632.18,1013.17
632.708,995.633
633.236,1078.17
633.764,1039.47
634.292,952.133
634.82,912.833
635.348,900.233
635.876,894.867
636.403,891.867
636.931,889.167
637.459,889.733
637.986,889.233
638.514,886.8
639.041,888.267
639.568,888.167
640.096,886.8
640.623,887.833
641.15,887.6
641.678,888.567
642.205,888.233
642.732,886.433
643.259,885.5
643.786,884.367
644.313,883.333
644.84,881.333
645.367,883.067
645.894,880.333
646.421,880.367
646.948,878.967
647.474,878.933
648.001,878.467
648.528,877.833
649.054,881.367
649.581,878.733
650.108,879.6
650.634,876.7
651.161,876.833
651.687,877.967
652.214,877.3
652.74,876.4
653.266,877.8
653.793,876.8
654.319,877.7
654.845,876.867
655.371,877.533
655.897,877.967
656.424,877.5
656.95,876.367
657.476,876.733
658.002,877.367
658.528,876.533
659.054,875.5
659.58,875.933
660.106,875.667
660.631,875.6
661.157,872.8
661.683,875.133
662.209,874.133
662.735,871.733
663.129,873.867