File: spectra/VLFR_08-PLA_bio_Raman_8ee738dd.csv
nm,Intensity
526.547,832.35
527.095,833.05
527.642,832.8
528.189,832.9
528.736,832.7
529.283,832.55
529.829,831.75
530.376,832.15
530.922,833.05
531.468,832.35
532.014,846.65
532.56,832.1
533.106,832.15
533.651,834.55
534.196,991.7
534.742,967.35
535.287,944.55
535.832,935.95
536.376,933.5
536.921,930.95
537.465,926.95
538.01,927.25
538.554,920.9
539.098,918.7
539.642,917.3
540.186,913.2
540.729,922.35
541.273,923.65
541.816,919.4
542.36,918.05
542.903,923.85
543.446,928.05
543.988,936.25
544.531,925.6
545.074,920.45
545.616,918.2
546.158,919.0
546.701,920.55
547.243,920.6
547.785,922.95
548.326,920.9
548.868,921.25
549.41,925.3
549.951,926.85
550.492,927.5
551.034,926.8
551.575,931.5
552.116,933.2
552.656,934.5
553.197,933.05
553.738,933.15
554.278,936.6
554.819,933.0
555.359,930.55
555.899,931.2
556.439,930.35
556.979,930.8
557.519,941.25
558.058,1001.95
558.598,946.45
559.137,941.95
559.677,939.8
560.216,940.05
560.755,939.9
561.294,938.9
561.833,939.75
562.371,937.25
562.91,944.7
563.449,962.2
563.987,950.05
564.525,946.35
565.064,959.9
565.602,957.1
566.14,974.85
566.678,953.8
567.216,947.8
567.753,950.05
568.291,950.6
568.828,952.9
569.366,952.3
569.903,952.5
570.44,953.2
570.977,950.7
571.514,964.05
572.051,964.05
572.588,964.25
573.125,963.15
573.661,965.35
574.198,962.0
574.734,966.45
575.271,957.8
575.807,958.25
576.343,969.3
576.879,1002.1
577.415,970.55
577.951,965.3
578.486,960.55
579.022,966.4
579.557,966.85
580.093,965.35
580.628,962.75
581.164,966.9
581.699,963.95
582.234,967.45
582.769,965.5
583.304,969.15
583.838,971.75
584.373,968.85
584.908,968.9
585.442,970.4
585.977,969.75
586.511,980.25
587.045,999.2
587.58,1008.4
588.114,984.6
588.648,974.15
589.182,973.05
589.715,973.9
590.249,973.3
590.783,975.4
591.316,974.75
591.85,975.65
592.383,975.85
592.917,977.2
593.45,977.5
593.983,977.3
594.516,978.0
595.049,978.8
595.582,981.9
596.115,978.2
596.648,981.4
597.18,981.0
597.713,981.7
598.245,984.0
598.778,985.6
599.31,985.35
599.842,986.05
600.375,985.25
600.907,987.15
601.439,987.8
601.971,985.7
602.503,987.8
603.034,990.25
603.566,990.5
604.098,991.35
604.629,990.95
605.161,991.1
605.692,986.95
606.224,985.25
606.755,984.45
607.286,987.45
607.817,985.25
608.348,990.95
608.879,992.1
609.41,993.85
609.941,990.45
610.472,995.85
611.002,994.6
611.533,996.35
612.063,1000.65
612.594,999.5
613.124,1000.3
613.655,1003.85
614.185,1003.9
614.715,1004.1
615.245,1007.8
615.775,1007.45
616.305,1009.1
616.835,1008.35
617.365,1013.95
617.895,1011.25
618.425,1012.7
618.954,1013.5
619.484,1016.4
620.013,1014.05
620.543,1015.25
621.072,1016.45
621.602,1016.45
622.131,1019.9
622.66,1028.8
623.189,1027.1
623.718,1031.0
624.247,1029.0
624.776,1033.1
625.305,1031.6
625.834,1030.7
626.363,1033.65
626.891,1034.05
627.42,1036.85
627.949,1042.65
628.477,1071.6
629.006,1070.9
629.534,1071.45
630.062,1079.15
630.591,1106.45
631.119,1274.05
631.647,1161.0
632.175,1105.0
632.703,1096.55
633.231,1140.8
633.759,1129.35
634.287,1084.65
634.815,1068.6
635.343,1058.6
635.871,1059.0
636.398,1065.85
636.926,1066.95
637.454,1064.25
637.981,1067.6
638.509,1066.2
639.036,1071.4
639.564,1069.25
640.091,1074.6
640.618,1070.05
641.146,1078.75
641.673,1076.0
642.2,1083.3
642.727,1077.95
643.254,1078.35
643.781,1080.8
644.308,1084.6
644.835,1082.15
645.362,1083.45
645.889,1088.25
646.416,1091.0
646.942,1085.3
647.469,1088.7
647.996,1092.35
648.522,1088.85
649.049,1094.65
649.576,1093.4
650.102,1098.85
650.629,1096.9
651.155,1097.2
651.682,1101.05
652.208,1105.1
652.734,1105.7
653.261,1108.65
653.787,1108.35
654.313,1111.6
654.839,1116.05
655.365,1117.7
655.892,1122.4
656.418,1124.1
656.944,1133.35
657.47,1136.5
657.996,1139.0
658.522,1146.55
659.048,1148.4
659.574,1152.95
660.099,1157.05
660.625,1161.15
661.151,1161.75
661.677,1162.4
662.203,1172.7
662.728,1179.8
663.123,1178.35