File: spectra/VLFR_07-PET_nobio_Raman_4070d58e.csv
nm,Intensity
791.377,11885.3
792.477,10962.3
793.576,10090.0
794.676,9808.52
795.775,9523.96
796.874,9481.38
797.973,9544.98
799.072,9425.82
800.171,9397.84
801.27,9381.24
802.368,9300.36
803.467,9033.26
804.565,8897.48
805.664,8862.56
806.762,8850.78
807.86,8731.9
808.958,8644.8
810.056,8643.98
811.153,8519.98
812.251,8495.16
813.349,8397.5
814.446,8387.76
815.543,8212.14
816.64,8225.44
817.737,8129.28
818.834,8064.62
819.931,7998.02
821.028,8074.68
822.125,7945.0
823.221,7836.98
824.317,7762.82
825.414,7913.06
826.51,7813.44
827.606,7645.4
828.702,7551.5
829.797,7523.42
830.893,7591.9
831.988,7441.98
833.084,7317.42
834.179,7291.3
835.274,7166.56
836.369,7316.52
837.464,7258.36
838.559,7239.12
839.654,7258.98
840.748,7440.1
841.843,7454.7
842.937,7267.78
844.031,7042.8
845.125,6745.78
846.219,6774.08
847.313,6859.7
848.407,6737.32
849.5,6664.6
850.593,6640.06
851.687,6610.26
852.78,6613.6
853.873,6546.94
854.966,6594.14
856.059,6483.0
857.151,6398.54
858.244,6577.08
859.336,6602.14
860.428,6569.4
861.52,6402.64
862.612,6253.02
863.704,6322.18
864.796,6287.84
865.888,6127.2
866.979,6126.58
868.07,6085.7
869.162,6085.78
870.253,6094.72
871.344,6284.82
872.434,6456.6
873.525,6415.88
874.615,6197.26
875.706,5983.74
876.796,5920.2
877.886,5786.94
878.976,5711.92
880.066,5832.72
881.156,5734.54
882.245,5820.32
883.335,5675.62
884.424,5658.4
885.513,5689.4
886.602,5625.84
887.691,5538.3
888.78,5500.26
889.868,5454.06
890.957,5432.36
892.045,5412.16
893.133,5403.38
894.221,5359.28
895.309,5275.12
896.397,5319.7
897.484,5578.7
898.571,6139.28
899.659,5600.58
900.746,5185.18
901.833,5132.4
902.92,5071.62
904.006,5103.0
905.093,5064.86
906.179,5180.82
907.266,5582.84
908.352,5507.48
909.438,5199.14
910.523,4958.92
911.609,4870.02
912.695,4842.26
913.78,4810.66
914.865,4757.34
915.95,4756.1
917.035,4735.3
918.12,4707.34
919.204,4687.94
920.289,4675.24
921.373,4629.82
922.457,4623.36
923.541,4574.4
924.625,4570.4
925.709,4538.0
926.792,4536.02
927.876,4493.36
928.959,4480.46
930.042,4434.64
931.125,4412.74
932.208,4390.02
933.29,4404.2
934.373,4350.8
935.455,4352.0
936.537,4317.58
937.619,4323.08
938.701,4289.22
939.782,4282.48
940.864,4281.92
941.945,4238.46
943.026,4233.02
944.107,4235.84
945.188,4200.74
946.269,4189.24
947.349,4169.56
948.43,4167.24
949.51,4147.62
950.59,4123.66
951.67,4124.58
952.75,4111.42
953.829,4108.76
954.909,4094.82
955.988,4069.14
957.067,4070.66
958.146,4051.44
959.224,4049.12
960.303,4027.04
961.381,4025.52
962.459,4014.76
963.537,4004.76
964.615,4005.14
965.693,3993.94
966.771,3991.02
967.848,3978.48
968.925,3965.18
970.002,3959.92
971.079,3955.12
972.156,3947.54
973.232,3933.84
974.309,3936.26
975.385,3921.16
976.461,3916.32
977.537,3920.94
978.612,3901.66
979.688,3898.84
980.763,3891.08
981.838,3888.12
982.913,3885.46
983.988,3875.98
985.063,3874.56
986.137,3870.96
987.211,3862.48
988.285,3865.44
989.359,3855.82
990.433,3846.4
991.506,3842.48
992.58,3837.72
993.653,3838.98
994.726,3830.34
995.799,3832.8
996.872,3828.88
997.944,3821.38
999.016,3817.78
1000.09,3815.02
1001.16,3809.26
1002.23,3812.28
1003.3,3801.74
1004.38,3800.88
1005.45,3802.08
1006.52,3796.64
1007.59,3793.2
1008.66,3788.46
1009.73,3787.56
1010.8,3783.84
1011.87,3782.92
1012.94,3780.86
1014.01,3783.48
1015.08,3777.2
1016.15,3779.12
1017.22,3776.48
1018.29,3774.36
1019.36,3773.5
1020.42,3773.88
1021.49,3778.98
1022.56,3781.1
1023.63,3778.62
1024.7,3772.62
1025.76,3768.6
1026.83,3762.0
1027.9,3760.54
1028.97,3758.12
1030.03,3755.7
1031.1,3753.28
1032.17,3752.66
1033.23,3754.5
1034.3,3757.06
1035.36,3759.7
1036.43,3757.8
1037.5,3751.7
1038.56,3746.94
1039.63,3745.22
1040.69,3743.34
1041.76,3742.6
1042.82,3741.9
1043.89,3741.84
1044.95,3740.56
1046.01,3738.5
1047.08,3739.26
1048.14,3738.06
1049.2,3738.02
1050.27,3738.42
1051.33,3738.22
1052.39,3738.58
1053.46,3738.08
1054.52,3737.14
1055.58,3738.06
1056.64,3736.76
1057.7,3734.8
1058.77,3735.64
1059.83,3735.5
1060.89,3735.5
1061.95,3735.12
1063.01,3735.1
1064.07,3735.16
1065.13,3734.88
1066.19,3734.7
1067.25,3734.24
1068.05,3734.04