File: spectra/VLFR_01-LDPE_nobio_Raman_06428634.csv
nm,Intensity
526.532,830.767
527.079,829.933
527.625,830.0
528.172,830.267
528.718,830.833
529.265,830.5
529.811,830.933
530.357,830.367
530.903,830.333
531.449,829.767
531.994,835.267
532.54,830.533
533.085,830.4
533.63,831.4
534.176,915.1
534.721,900.8
535.266,888.933
535.81,876.967
536.355,870.633
536.9,868.733
537.444,870.2
537.988,870.267
538.533,866.033
539.077,864.067
539.621,861.0
540.165,861.3
540.708,857.733
541.252,857.7
541.795,856.2
542.339,856.667
542.882,856.3
543.425,856.9
543.968,856.867
544.511,855.833
545.054,856.233
545.597,856.033
546.139,854.667
546.682,855.033
547.224,853.667
547.766,855.533
548.308,854.1
548.85,852.033
549.392,853.767
549.934,854.2
550.475,854.067
551.017,853.4
551.558,854.633
552.1,853.733
552.641,852.567
553.182,855.6
553.723,857.3
554.264,856.033
554.804,858.8
555.345,857.7
555.885,860.067
556.426,861.467
556.966,864.233
557.506,864.8
558.046,868.2
558.586,867.067
559.126,863.4
559.665,864.167
560.205,862.233
560.745,863.1
561.284,862.933
561.823,865.1
562.362,866.533
562.901,870.467
563.44,873.567
563.979,941.933
564.518,892.567
565.056,887.067
565.595,881.6
566.133,965.167
566.671,884.967
567.21,880.767
567.748,875.9
568.285,874.5
568.823,875.867
569.361,878.4
569.899,879.667
570.436,884.633
570.974,892.4
571.511,1012.23
572.048,921.233
572.585,899.133
573.122,894.1
573.659,900.033
574.196,906.0
574.733,903.7
575.269,910.433
575.806,958.8
576.342,1047.83
576.878,1006.6
577.414,972.267
577.951,949.467
578.486,953.2
579.022,962.933
579.558,971.567
580.094,985.0
580.629,991.3
581.165,1004.17
581.7,1010.07
582.236,1023.73
582.771,1029.07
583.306,1039.17
583.841,1046.6
584.376,1056.83
584.911,1064.17
585.445,1075.3
585.98,1084.57
586.514,1099.7
587.049,1111.83
587.583,1125.37
588.117,1136.73
588.651,1152.6
589.186,1161.07
589.72,1177.27
590.253,1192.63
590.787,1207.1
591.321,1217.57
591.854,1220.53
592.388,1224.2
592.921,1232.1
593.455,1228.7
593.988,1231.37
594.521,1232.43
595.054,1242.23
595.587,1244.87
596.12,1248.8
596.653,1253.93
597.186,1254.47
597.718,1260.67
598.251,1274.6
598.783,1280.17
599.316,1281.67
599.848,1289.73
600.38,1286.53
600.912,1281.57
601.444,1272.9
601.976,1268.23
602.508,1263.1
603.04,1255.13
603.572,1243.53
604.103,1229.93
604.635,1205.6
605.167,1186.5
605.698,1170.77
606.229,1158.13
606.761,1138.93
607.292,1125.9
607.823,1120.8
608.354,1110.07
608.885,1102.5
609.416,1095.33
609.947,1084.97
610.477,1074.67
611.008,1071.23
611.539,1067.93
612.069,1058.77
612.6,1056.4
613.13,1054.8
613.66,1050.8
614.19,1041.97
614.721,1037.4
615.251,1034.83
615.781,1030.07
616.311,1022.9
616.841,1022.7
617.37,1025.23
617.9,1022.53
618.43,1018.57
618.96,1012.4
619.489,1016.27
620.019,1011.97
620.548,1011.3
621.077,1010.0
621.607,1018.9
622.136,1039.77
622.665,1036.77
623.194,1012.23
623.723,1002.37
624.252,1000.67
624.781,1002.9
625.31,1002.73
625.839,1011.83
626.368,1036.9
626.896,1273.67
627.425,1638.8
627.953,1399.7
628.482,1673.97
629.01,1488.8
629.539,1387.9
630.067,1286.6
630.596,1257.23
631.124,1126.03
631.652,1058.23
632.18,1031.93
632.708,1020.53
633.236,1018.53
633.764,1016.1
634.292,1011.03
634.82,1012.3
635.348,1012.27
635.876,1014.67
636.403,1015.73
636.931,1019.33
637.459,1017.03
637.986,1021.3
638.514,1021.7
639.041,1024.17
639.568,1025.43
640.096,1029.2
640.623,1032.9
641.15,1035.93
641.678,1032.5
642.205,1037.8
642.732,1038.3
643.259,1036.57
643.786,1039.5
644.313,1037.67
644.84,1041.27
645.367,1038.0
645.894,1036.9
646.421,1039.87
646.948,1036.17
647.474,1035.23
648.001,1036.73
648.528,1033.93
649.054,1027.27
649.581,1028.77
650.108,1027.83
650.634,1024.67
651.161,1023.8
651.687,1022.47
652.214,1023.87
652.74,1024.17
653.266,1025.67
653.793,1022.3
654.319,1020.0
654.845,1020.47
655.371,1016.43
655.897,1014.47
656.424,1007.63
656.95,1008.53
657.476,1003.67
658.002,998.9
658.528,997.0
659.054,988.233
659.58,987.7
660.106,983.8
660.631,973.967
661.157,972.233
661.683,965.1
662.209,959.467
662.735,955.333
663.129,951.433