File: spectra/VLFR_01-LDPE_nobio_Raman_6be11c50.csv
nm,Intensity
526.508,830.9
527.055,829.4
527.602,830.0
528.149,830.05
528.695,829.75
529.241,830.25
529.787,830.15
530.334,830.55
530.879,830.1
531.425,830.35
531.971,833.8
532.516,831.05
533.062,830.15
533.607,829.8
534.152,899.25
534.697,889.9
535.242,881.7
535.786,868.5
536.331,865.15
536.876,859.7
537.42,860.95
537.964,858.0
538.508,857.75
539.052,855.55
539.596,852.95
540.14,852.75
540.683,850.95
541.227,852.6
541.77,850.3
542.313,850.9
542.856,850.7
543.399,851.7
543.942,852.25
544.485,849.5
545.027,850.1
545.57,851.6
546.112,852.15
546.654,851.05
547.196,850.6
547.738,849.35
548.28,849.6
548.822,850.3
549.363,850.35
549.905,850.2
550.446,850.3
550.988,851.3
551.529,849.3
552.07,851.9
552.611,851.8
553.152,851.5
553.692,854.8
554.233,852.1
554.773,855.25
555.314,854.2
555.854,858.55
556.394,859.0
556.934,862.9
557.474,862.8
558.014,866.75
558.553,867.15
559.093,865.7
559.632,864.9
560.172,864.25
560.711,866.7
561.25,869.45
561.789,870.5
562.328,873.55
562.867,878.05
563.406,884.6
563.944,929.55
564.483,904.1
565.021,899.5
565.559,896.0
566.098,949.65
566.636,903.85
567.174,905.45
567.711,909.25
568.249,908.4
568.787,916.2
569.324,921.9
569.862,928.25
570.399,941.3
570.936,953.15
571.474,1036.5
572.011,996.15
572.548,989.35
573.084,1001.1
573.621,1015.15
574.158,1038.35
574.694,1056.45
575.231,1081.45
575.767,1141.85
576.303,1262.25
576.84,1252.95
577.376,1270.7
577.912,1290.7
578.447,1341.05
578.983,1398.8
579.519,1458.55
580.054,1515.9
580.59,1583.05
581.125,1631.65
581.661,1693.65
582.196,1746.85
582.731,1798.9
583.266,1839.7
583.801,1872.35
584.336,1891.55
584.87,1919.4
585.405,1938.25
585.94,1992.05
586.474,2031.6
587.008,2068.25
587.543,2119.4
588.077,2163.15
588.611,2211.65
589.145,2252.35
589.679,2310.65
590.213,2369.75
590.747,2419.25
591.28,2490.5
591.814,2518.85
592.347,2552.0
592.881,2557.3
593.414,2591.9
593.947,2601.8
594.48,2634.7
595.014,2674.35
595.547,2710.0
596.079,2749.5
596.612,2787.25
597.145,2828.75
597.678,2873.4
598.21,2928.2
598.743,2985.75
599.275,3017.0
599.807,3036.95
600.34,3044.1
600.872,3037.2
601.404,3017.2
601.936,2970.9
602.468,2933.3
603.0,2899.65
603.532,2840.95
604.063,2760.95
604.595,2684.45
605.126,2584.6
605.658,2486.95
606.189,2411.5
606.721,2326.6
607.252,2265.0
607.783,2203.5
608.314,2161.15
608.845,2112.55
609.376,2068.15
609.907,2018.8
610.438,1979.4
610.968,1949.65
611.499,1915.85
612.03,1893.95
612.56,1893.45
613.091,1867.1
613.621,1841.4
614.151,1811.1
614.681,1793.65
615.212,1759.8
615.742,1725.15
616.272,1706.55
616.802,1690.8
617.332,1674.55
617.861,1658.8
618.391,1637.7
618.921,1620.25
619.45,1609.45
619.98,1594.5
620.509,1578.05
621.039,1572.9
621.568,1570.45
622.097,1587.75
622.627,1580.65
623.156,1556.65
623.685,1546.85
624.214,1548.4
624.743,1539.55
625.272,1531.15
625.801,1534.1
626.33,1556.75
626.858,1715.9
627.387,2042.9
627.916,1842.1
628.444,2017.0
628.973,1879.95
629.501,1808.4
630.029,1738.55
630.558,1730.55
631.086,1635.4
631.614,1583.4
632.142,1578.35
632.67,1571.6
633.198,1574.6
633.726,1570.15
634.254,1576.9
634.782,1585.05
635.31,1588.8
635.838,1592.55
636.365,1598.5
636.893,1595.75
637.421,1592.45
637.948,1592.05
638.476,1605.55
639.003,1609.9
639.531,1609.45
640.058,1624.7
640.585,1633.45
641.113,1640.75
641.64,1651.6
642.167,1663.55
642.694,1657.2
643.221,1670.6
643.748,1672.25
644.275,1674.4
644.802,1676.35
645.329,1682.95
645.856,1682.35
646.382,1689.7
646.909,1697.45
647.436,1697.45
647.962,1701.0
648.489,1702.65
649.016,1697.4
649.542,1697.8
650.069,1694.95
650.595,1699.05
651.121,1694.6
651.648,1704.85
652.174,1713.3
652.7,1713.9
653.227,1721.0
653.753,1725.9
654.279,1723.0
654.805,1706.6
655.331,1708.05
655.857,1687.2
656.383,1674.15
656.909,1677.5
657.435,1650.2
657.961,1638.4
658.487,1615.45
659.013,1584.75
659.538,1560.2
660.064,1535.75
660.59,1504.55
661.116,1478.1
661.641,1448.8
662.167,1419.0
662.692,1401.25
663.087,1376.85