File: spectra/VLFR_02-HDPE_bio_Raman_57e4c406.csv
nm,Intensity
526.508,830.4
527.055,829.4
527.602,830.0
528.149,829.6
528.695,830.0
529.241,830.3
529.787,830.6
530.334,829.8
530.879,830.5
531.425,830.2
531.971,837.1
532.516,831.6
533.062,830.5
533.607,831.2
534.152,885.3
534.697,876.4
535.242,865.6
535.786,858.4
536.331,854.2
536.876,850.3
537.42,851.0
537.964,849.2
538.508,848.8
539.052,846.1
539.596,845.5
540.14,842.1
540.683,842.5
541.227,841.9
541.77,842.1
542.313,843.0
542.856,842.2
543.399,841.4
543.942,843.4
544.485,842.7
545.027,840.8
545.57,841.9
546.112,842.7
546.654,841.3
547.196,840.5
547.738,840.6
548.28,839.8
548.822,841.3
549.363,841.2
549.905,841.5
550.446,839.2
550.988,841.9
551.529,840.4
552.07,841.7
552.611,841.4
553.152,843.1
553.692,842.4
554.233,843.6
554.773,843.1
555.314,842.4
555.854,844.7
556.394,845.2
556.934,847.1
557.474,850.3
558.014,851.5
558.553,853.0
559.093,850.1
559.632,848.8
560.172,849.8
560.711,850.1
561.25,847.9
561.789,849.1
562.328,852.1
562.867,853.4
563.406,856.2
563.944,930.6
564.483,874.8
565.021,866.7
565.559,864.2
566.098,1029.4
566.636,872.1
567.174,857.7
567.711,857.5
568.249,852.9
568.787,852.6
569.324,852.0
569.862,855.2
570.399,856.9
570.936,865.3
571.474,1002.4
572.011,880.0
572.548,857.7
573.084,852.5
573.621,856.0
574.158,862.4
574.694,853.7
575.231,864.8
575.767,947.1
576.303,943.3
576.84,913.2
577.376,893.6
577.912,862.5
578.447,857.3
578.983,852.3
579.519,855.4
580.054,856.6
580.59,857.2
581.125,857.1
581.661,855.8
582.196,856.6
582.731,858.6
583.266,859.6
583.801,864.2
584.336,862.4
584.87,863.0
585.405,867.1
585.94,871.5
586.474,872.7
587.008,876.6
587.543,878.9
588.077,881.3
588.611,883.6
589.145,886.9
589.679,894.0
590.213,898.4
590.747,900.7
591.28,904.5
591.814,910.4
592.347,909.0
592.881,913.8
593.414,910.8
593.947,909.9
594.48,912.5
595.014,909.4
595.547,915.0
596.079,911.4
596.612,911.6
597.145,912.8
597.678,909.2
598.21,910.7
598.743,907.2
599.275,909.0
599.807,909.3
600.34,905.5
600.872,905.2
601.404,905.0
601.936,898.6
602.468,897.2
603.0,898.9
603.532,895.7
604.063,893.7
604.595,897.2
605.126,891.2
605.658,888.9
606.189,885.5
606.721,884.4
607.252,885.3
607.783,887.8
608.314,883.7
608.845,883.1
609.376,882.7
609.907,882.2
610.438,880.5
610.968,884.7
611.499,885.5
612.03,879.9
612.56,879.4
613.091,876.5
613.621,876.6
614.151,876.6
614.681,877.8
615.212,874.7
615.742,879.2
616.272,878.2
616.802,877.1
617.332,878.4
617.861,878.2
618.391,877.4
618.921,878.0
619.45,879.2
619.98,878.7
620.509,879.3
621.039,882.9
621.568,886.1
622.097,898.4
622.627,896.4
623.156,881.3
623.685,877.1
624.214,877.7
624.743,878.2
625.272,879.6
625.801,887.4
626.33,900.9
626.858,1045.3
627.387,1387.3
627.916,1170.2
628.444,1256.0
628.973,1221.2
629.501,1152.2
630.029,1074.2
630.558,1055.5
631.086,960.6
631.614,901.2
632.142,888.8
632.67,882.5
633.198,875.7
633.726,876.4
634.254,876.5
634.782,875.0
635.31,873.8
635.838,875.2
636.365,874.6
636.893,873.5
637.421,871.8
637.948,873.2
638.476,872.4
639.003,873.7
639.531,874.1
640.058,874.9
640.585,878.2
641.113,877.9
641.64,880.0
642.167,877.0
642.694,880.2
643.221,881.9
643.748,881.4
644.275,882.6
644.802,881.0
645.329,881.6
645.856,881.8
646.382,884.0
646.909,883.8
647.436,883.1
647.962,885.0
648.489,882.5
649.016,881.6
649.542,882.7
650.069,879.1
650.595,877.8
651.121,877.0
651.648,876.4
652.174,877.5
652.7,879.2
653.227,876.7
653.753,877.7
654.279,876.6
654.805,874.2
655.331,874.3
655.857,873.0
656.383,869.9
656.909,872.3
657.435,870.8
657.961,871.5
658.487,873.3
659.013,869.7
659.538,868.1
660.064,868.7
660.59,867.7
661.116,869.2
661.641,864.4
662.167,865.1
662.692,863.7
663.087,863.8