File: spectra/VLFR_09-PET_bio_Raman_13d2484d.csv
nm,Intensity
526.549,832.65
527.096,832.35
527.643,832.1
528.19,832.85
528.737,832.45
529.283,832.3
529.83,831.6
530.376,831.7
530.922,832.3
531.468,831.4
532.014,839.35
532.559,831.75
533.105,831.85
533.65,832.25
534.196,871.9
534.741,875.0
535.286,876.0
535.83,879.05
536.375,876.5
536.92,879.45
537.464,877.9
538.008,881.8
538.553,880.25
539.097,880.95
539.641,882.75
540.184,882.45
540.728,883.3
541.271,885.35
541.815,886.8
542.358,887.15
542.901,887.3
543.444,887.6
543.987,889.05
544.53,889.05
545.072,890.1
545.615,890.75
546.157,891.9
546.699,894.1
547.242,893.5
547.784,894.55
548.325,896.3
548.867,895.55
549.409,895.5
549.95,893.8
550.492,893.65
551.033,895.2
551.574,893.5
552.115,897.0
552.656,894.1
553.197,894.95
553.737,894.5
554.278,895.5
554.818,895.3
555.358,895.7
555.899,896.6
556.439,897.1
556.979,895.6
557.518,895.7
558.058,897.95
558.598,895.3
559.137,897.65
559.677,899.35
560.216,900.0
560.755,898.95
561.294,898.9
561.833,899.15
562.372,903.0
562.91,901.1
563.449,904.05
563.987,908.15
564.526,911.15
565.064,910.25
565.602,910.05
566.14,907.4
566.678,906.75
567.216,907.75
567.754,905.7
568.291,905.85
568.829,906.15
569.366,907.85
569.904,909.2
570.441,908.0
570.978,906.75
571.515,908.1
572.052,908.1
572.589,907.15
573.125,910.0
573.662,912.1
574.199,909.35
574.735,911.7
575.271,912.95
575.807,913.55
576.344,911.45
576.88,914.7
577.415,915.7
577.951,916.35
578.487,914.7
579.023,914.65
579.558,914.55
580.094,916.5
580.629,917.45
581.164,917.4
581.699,917.25
582.234,921.05
582.769,919.05
583.304,917.35
583.839,918.6
584.374,918.2
584.908,921.5
585.443,920.55
585.977,923.85
586.511,920.6
587.046,922.55
587.58,921.9
588.114,921.2
588.648,919.5
589.182,918.3
589.716,921.35
590.249,921.45
590.783,920.35
591.316,921.1
591.85,921.2
592.383,920.4
592.917,917.9
593.45,919.25
593.983,920.8
594.516,918.35
595.049,920.55
595.582,920.85
596.115,921.05
596.647,920.3
597.18,924.1
597.712,922.4
598.245,924.1
598.777,923.15
599.31,925.8
599.842,919.15
600.374,920.6
600.906,920.05
601.438,919.45
601.97,921.35
602.502,919.2
603.034,921.5
603.565,920.95
604.097,919.3
604.628,919.0
605.16,920.8
605.691,915.85
606.223,919.0
606.754,917.95
607.285,918.65
607.816,919.0
608.347,918.35
608.878,919.35
609.409,922.65
609.94,922.65
610.47,921.55
611.001,918.5
611.532,919.0
612.062,922.3
612.593,923.3
613.123,923.15
613.653,923.2
614.184,924.65
614.714,925.85
615.244,924.0
615.774,924.9
616.304,923.8
616.834,922.0
617.364,927.9
617.894,925.35
618.423,923.7
618.953,924.35
619.482,927.9
620.012,927.1
620.541,923.65
621.071,925.8
621.6,924.75
622.13,926.45
622.659,927.25
623.188,926.4
623.717,926.4
624.246,925.3
624.775,929.1
625.304,928.7
625.833,929.05
626.362,927.9
626.89,928.2
627.419,925.05
627.948,927.5
628.476,926.7
629.005,929.35
629.533,927.9
630.061,928.05
630.59,928.0
631.118,928.75
631.646,928.45
632.175,927.0
632.703,928.55
633.231,927.2
633.759,928.3
634.287,926.85
634.815,928.65
635.342,928.1
635.87,928.05
636.398,930.2
636.926,928.5
637.453,926.35
637.981,927.95
638.509,926.1
639.036,928.05
639.563,925.55
640.091,925.1
640.618,926.9
641.146,923.9
641.673,928.0
642.2,927.75
642.727,927.9
643.254,924.6
643.781,921.65
644.309,924.15
644.836,920.5
645.362,923.25
645.889,923.85
646.416,920.8
646.943,922.85
647.47,922.55
647.997,923.0
648.523,920.55
649.05,921.7
649.577,921.75
650.103,919.95
650.63,920.05
651.156,918.15
651.683,920.25
652.209,919.2
652.735,919.55
653.262,917.25
653.788,919.1
654.314,918.05
654.841,918.35
655.367,916.85
655.893,916.15
656.419,915.9
656.945,916.1
657.471,915.4
657.997,916.45
658.523,918.35
659.049,917.5
659.575,916.05
660.101,919.85
660.627,914.75
661.153,912.4
661.679,911.65
662.205,914.65
662.731,913.4
663.125,911.35