File: spectra/VLFR_01-LDPE_nobio_Raman_9db99332.csv
cm-1,Intensity
-123.878,1852.55
-105.821,1852.15
-87.8007,1853.3
-69.8161,1852.4
-51.8675,1853.75
-33.9547,1855.25
-16.0776,1886.1
1.76388,3031.8
19.5698,1854.9
37.3403,1854.15
55.0755,1951.75
72.7754,2189.55
90.4402,2171.75
108.07,2162.15
125.665,2128.4
143.225,2116.2
160.75,2103.95
178.241,2093.2
195.697,2108.7
213.119,2105.9
230.506,2108.7
247.859,2115.45
265.178,2086.7
282.463,2073.6
299.713,2075.0
316.93,2072.4
334.113,2075.35
351.263,2074.05
368.379,2076.45
385.461,2074.55
402.51,2069.75
419.526,2067.7
436.508,2065.6
453.458,2063.3
470.374,2067.3
487.257,2062.6
504.107,2073.6
520.925,2054.0
537.71,2063.6
554.462,2067.05
571.182,2059.5
587.87,2069.9
604.525,2067.85
621.148,2068.25
637.739,2072.85
654.297,2075.45
670.824,2075.8
687.319,2065.6
703.782,2058.7
720.213,2074.9
736.613,2072.7
752.981,2079.3
769.317,2083.5
785.623,2082.7
801.897,2093.6
818.139,2087.65
834.351,2101.8
850.532,2107.05
866.681,2130.7
882.8,2128.6
898.888,2127.35
914.945,2112.65
930.972,2108.45
946.968,2094.4
962.934,2105.7
978.869,2108.0
994.774,2129.7
1010.65,2137.45
1026.49,2146.6
1042.31,2178.3
1058.09,2402.4
1073.85,2262.25
1089.57,2242.45
1105.27,2197.1
1120.93,2348.75
1136.57,2318.95
1152.18,2195.95
1167.75,2214.3
1183.3,2171.25
1198.82,2180.25
1214.31,2178.75
1229.77,2188.2
1245.2,2194.15
1260.6,2226.0
1275.97,2267.75
1291.32,2682.45
1306.63,2441.15
1321.92,2317.7
1337.18,2265.45
1352.41,2255.85
1367.61,2315.2
1382.78,2245.8
1397.93,2262.15
1413.05,2410.4
1428.14,2589.1
1443.2,2839.0
1458.23,2680.0
1473.23,2506.85
1488.21,2408.6
1503.16,2368.8
1518.08,2393.2
1532.97,2415.25
1547.84,2423.75
1562.68,2470.7
1577.49,2503.55
1592.27,2528.5
1607.03,2558.55
1621.76,2564.0
1636.46,2574.45
1651.14,2652.35
1665.78,2669.15
1680.41,2677.85
1695.0,2689.2
1709.57,2735.5
1724.11,2776.65
1738.62,2848.4
1753.11,2848.1
1767.57,2899.75
1782.01,2960.95
1796.41,3007.1
1810.8,3044.1
1825.15,3112.25
1839.48,3107.25
1853.79,3214.65
1868.06,3271.1
1882.31,3314.55
1896.54,3330.35
1910.74,3375.9
1924.91,3379.65
1939.06,3452.7
1953.19,3452.7
1967.28,3426.0
1981.35,3523.75
1995.4,3538.45
2009.42,3581.55
2023.42,3600.85
2037.39,3616.2
2051.33,3670.35
2065.25,3709.6
2079.15,3656.95
2093.01,3753.35
2106.86,3698.05
2120.68,3796.95
2134.47,3740.95
2148.24,3778.05
2161.99,3720.65
2175.71,3744.5
2189.41,3701.25
2203.08,3704.75
2216.73,3604.35
2230.35,3536.65
2243.95,3499.9
2257.52,3480.9
2271.07,3442.4
2284.6,3355.35
2298.1,3366.95
2311.58,3266.85
2325.03,3203.05
2338.46,3185.55
2351.87,3142.55
2365.25,3065.45
2378.61,3025.95
2391.94,3036.1
2405.26,2985.1
2418.54,2968.2
2431.81,2981.65
2445.05,2947.05
2458.27,2941.6
2471.46,2861.2
2484.63,2866.6
2497.78,2807.15
2510.9,2822.2
2524.0,2828.55
2537.08,2776.45
2550.14,2721.35
2563.17,2737.15
2576.18,2712.8
2589.17,2718.2
2602.13,2721.3
2615.07,2707.9
2627.99,2679.45
2640.89,2688.2
2653.76,2691.35
2666.61,2671.5
2679.44,2679.35
2692.25,2708.35
2705.03,2760.05
2717.79,2844.25
2730.53,2783.1
2743.25,2675.9
2755.94,2625.5
2768.61,2618.35
2781.27,2570.45
2793.89,2621.0
2806.5,2655.95
2819.09,2727.75
2831.65,3175.3
2844.19,5491.2
2856.71,5341.1
2869.21,4695.35
2881.69,6280.5
2894.14,4994.15
2906.58,4506.9
2918.99,3994.9
2931.38,3837.3
2943.75,3300.7
2956.1,2851.15
2968.42,2717.9
2980.73,2615.9
2993.01,2600.8
3005.28,2601.6
3017.52,2599.45
3029.74,2590.8
3041.94,2595.65
3054.12,2587.0
3066.28,2537.85
3078.42,2573.85
3090.54,2554.95
3102.63,2571.4
3114.71,2536.7
3126.77,2560.9
3138.8,2563.15
3150.82,2561.7
3162.81,2611.35
3174.78,2561.45
3186.74,2607.25
3198.67,2621.35
3210.58,2596.15
3222.47,2616.45
3234.35,2614.2
3246.2,2584.25
3258.03,2660.65
3269.84,2639.4
3281.64,2619.5
3293.41,2632.7
3305.16,2616.0
3316.89,2630.15
3328.61,2632.75
3340.3,2580.15
3351.97,2629.4
3363.63,2628.4
3375.26,2590.75
3386.88,2595.5
3398.47,2577.1
3410.05,2565.95
3421.6,2587.05
3433.14,2594.85
3444.66,2543.9
3456.15,2587.55
3467.63,2578.05
3479.09,2590.5
3490.53,2534.2
3501.96,2546.35
3513.36,2487.25
3524.74,2485.1
3536.11,2492.0
3547.45,2473.45
3558.78,2455.75
3570.09,2454.45
3581.37,2474.05
3592.64,2415.15
3603.9,2413.75
3615.13,2421.5
3626.34,2327.5
3637.54,2328.95
3648.72,2355.5
3659.87,2321.7
3665.45,2332.7