File: spectra/VLFR_08-PLA_bio_Raman_dd370799.csv
nm,Intensity
526.495,827.3
527.042,828.7
527.589,829.9
528.136,829.2
528.682,830.1
529.229,829.8
529.775,829.3
530.321,828.7
530.867,829.2
531.413,827.5
531.959,832.6
532.505,829.5
533.051,829.8
533.596,829.9
534.141,1023.6
534.687,982.9
535.232,952.8
535.777,933.6
536.321,927.0
536.866,927.9
537.41,923.5
537.955,922.8
538.499,910.7
539.043,910.0
539.587,908.2
540.131,902.6
540.675,915.0
541.219,918.2
541.762,910.8
542.305,904.4
542.849,907.7
543.392,923.5
543.935,934.2
544.478,915.3
545.02,908.2
545.563,905.7
546.106,905.1
546.648,905.1
547.19,907.9
547.732,906.5
548.274,906.7
548.816,908.5
549.358,906.7
549.9,912.9
550.441,913.4
550.983,912.6
551.524,917.7
552.065,918.0
552.606,919.3
553.147,918.0
553.688,916.8
554.229,927.6
554.769,918.0
555.31,913.2
555.85,907.3
556.391,908.1
556.931,913.2
557.471,927.7
558.011,1041.8
558.551,949.4
559.09,928.6
559.63,927.1
560.169,923.5
560.709,917.4
561.248,920.1
561.787,916.3
562.326,918.2
562.865,930.3
563.404,959.2
563.943,938.9
564.481,928.7
565.02,950.5
565.558,946.0
566.096,976.7
566.634,945.2
567.172,928.1
567.71,927.2
568.248,933.4
568.786,934.8
569.324,935.4
569.861,934.3
570.399,930.0
570.936,933.2
571.473,951.4
572.01,950.8
572.547,946.4
573.084,946.4
573.621,951.3
574.158,945.6
574.694,954.1
575.231,935.6
575.767,934.4
576.303,953.6
576.84,1008.5
577.376,962.9
577.912,939.0
578.448,938.2
578.984,939.3
579.519,936.8
580.055,939.9
580.59,935.4
581.126,936.5
581.661,941.9
582.196,936.0
582.731,941.6
583.267,940.9
583.801,939.0
584.336,947.0
584.871,940.7
585.406,941.4
585.94,947.6
586.475,960.8
587.009,992.1
587.543,1015.4
588.078,969.0
588.612,946.7
589.146,945.4
589.68,946.2
590.214,941.3
590.747,945.1
591.281,941.9
591.815,942.5
592.348,944.3
592.881,942.5
593.415,941.4
593.948,939.9
594.481,945.6
595.014,946.8
595.547,942.9
596.08,945.1
596.613,946.5
597.146,941.3
597.678,948.0
598.211,946.8
598.743,947.4
599.276,951.5
599.808,947.3
600.34,947.2
600.872,941.5
601.404,947.7
601.936,941.7
602.468,948.1
603.0,949.4
603.532,952.8
604.064,947.4
604.595,949.3
605.127,950.9
605.658,945.9
606.189,942.8
606.721,948.9
607.252,948.0
607.783,949.5
608.314,949.2
608.845,950.8
609.376,950.6
609.907,951.3
610.438,951.1
610.968,948.3
611.499,950.6
612.029,949.5
612.56,954.6
613.09,956.2
613.621,951.2
614.151,958.6
614.681,954.8
615.211,954.5
615.741,957.8
616.271,959.7
616.801,958.0
617.331,959.3
617.861,958.2
618.39,959.5
618.92,957.3
619.45,958.9
619.979,957.0
620.509,962.2
621.038,957.7
621.567,960.4
622.096,960.5
622.626,968.6
623.155,977.3
623.684,973.9
624.213,962.6
624.742,962.1
625.271,961.1
625.799,963.7
626.328,958.0
626.857,961.0
627.386,960.3
627.914,970.0
628.443,1046.5
628.971,1024.3
629.5,1023.3
630.028,1026.7
630.556,1089.2
631.084,1471.3
631.613,1225.8
632.141,1094.9
632.669,1068.8
633.197,1167.9
633.725,1129.5
634.253,1027.1
634.781,978.0
635.308,965.8
635.836,960.3
636.364,951.7
636.891,950.2
637.419,952.2
637.947,950.1
638.474,950.9
639.002,946.0
639.529,946.8
640.056,945.7
640.584,943.5
641.111,948.1
641.638,945.9
642.165,946.1
642.692,943.3
643.219,944.5
643.746,942.0
644.273,934.6
644.8,936.0
645.327,940.3
645.854,935.7
646.381,934.0
646.908,933.9
647.434,936.5
647.961,930.6
648.488,927.5
649.014,927.6
649.541,929.4
650.067,929.9
650.594,927.1
651.12,929.1
651.646,925.9
652.173,929.5
652.699,928.6
653.225,924.8
653.752,924.9
654.278,924.4
654.804,923.9
655.33,919.2
655.856,920.1
656.382,921.2
656.908,922.3
657.434,922.8
657.96,921.0
658.486,923.8
659.012,920.0
659.538,924.4
660.064,915.3
660.589,917.8
661.115,918.9
661.641,918.5
662.166,916.1
662.692,914.2
663.086,914.8