File: spectra/VLFR_08-PLA_bio_Raman_c957802d.csv
nm,Intensity
526.508,829.6
527.055,830.5
527.602,830.1
528.149,830.7
528.695,829.6
529.241,829.6
529.787,829.4
530.334,829.9
530.879,829.3
531.425,828.5
531.971,834.7
532.516,832.1
533.062,829.3
533.607,830.5
534.152,1074.5
534.697,1028.2
535.242,982.6
535.786,965.3
536.331,954.9
536.876,960.1
537.42,952.8
537.964,945.1
538.508,934.3
539.052,934.6
539.596,933.7
540.14,927.8
540.683,945.9
541.227,950.1
541.77,937.9
542.313,930.8
542.856,932.9
543.399,960.0
543.942,966.0
544.485,946.2
545.027,933.9
545.57,930.1
546.112,930.2
546.654,929.4
547.196,934.9
547.738,938.6
548.28,937.3
548.822,937.3
549.363,940.9
549.905,941.2
550.446,941.9
550.988,946.5
551.529,950.6
552.07,951.6
552.611,951.6
553.152,951.3
553.692,950.2
554.233,955.2
554.773,949.9
555.314,948.2
555.854,943.9
556.394,945.4
556.934,946.0
557.474,966.3
558.014,1093.5
558.553,982.5
559.093,964.7
559.632,963.1
560.172,953.8
560.711,956.3
561.25,952.2
561.789,949.1
562.328,955.6
562.867,964.3
563.406,1004.6
563.944,978.6
564.483,967.6
565.021,988.5
565.559,985.3
566.098,1013.1
566.636,984.7
567.174,958.9
567.711,968.2
568.249,968.4
568.787,971.1
569.324,968.3
569.862,968.6
570.399,969.3
570.936,973.4
571.474,985.7
572.011,992.3
572.548,989.3
573.084,986.3
573.621,992.9
574.158,987.0
574.694,997.5
575.231,976.8
575.767,978.0
576.303,994.0
576.84,1062.3
577.376,999.9
577.912,981.1
578.447,976.2
578.983,975.6
579.519,976.9
580.054,976.5
580.59,978.6
581.125,974.8
581.661,976.5
582.196,979.5
582.731,977.7
583.266,980.9
583.801,979.5
584.336,976.0
584.87,980.7
585.405,980.9
585.94,987.3
586.474,1005.7
587.008,1040.3
587.543,1057.2
588.077,1005.9
588.611,988.9
589.145,985.4
589.679,984.2
590.213,979.4
590.747,984.6
591.28,981.2
591.814,977.3
592.347,978.9
592.881,984.1
593.414,978.6
593.947,980.6
594.48,979.7
595.014,979.4
595.547,981.3
596.079,980.1
596.612,981.5
597.145,977.9
597.678,982.9
598.21,982.1
598.743,983.5
599.275,983.1
599.807,984.6
600.34,980.9
600.872,979.1
601.404,979.7
601.936,980.2
602.468,980.8
603.0,982.3
603.532,981.9
604.063,980.5
604.595,977.7
605.126,973.9
605.658,975.0
606.189,977.5
606.721,973.5
607.252,975.7
607.783,970.7
608.314,980.8
608.845,974.6
609.376,974.1
609.907,971.2
610.438,975.7
610.968,972.4
611.499,970.1
612.03,976.9
612.56,977.0
613.091,975.3
613.621,980.0
614.151,975.7
614.681,979.1
615.212,981.9
615.742,980.7
616.272,977.1
616.802,977.2
617.332,976.3
617.861,976.0
618.391,974.9
618.921,977.1
619.45,975.6
619.98,978.4
620.509,977.4
621.039,977.5
621.568,975.0
622.097,978.7
622.627,984.1
623.156,991.0
623.685,979.6
624.214,979.9
624.743,976.3
625.272,973.5
625.801,973.7
626.33,972.8
626.858,977.3
627.387,973.7
627.916,986.0
628.444,1060.9
628.973,1044.6
629.501,1041.5
630.029,1049.3
630.558,1113.1
631.086,1550.7
631.614,1270.5
632.142,1122.1
632.67,1091.0
633.198,1196.6
633.726,1156.0
634.254,1052.2
634.782,991.1
635.31,979.2
635.838,970.8
636.365,965.2
636.893,964.6
637.421,963.7
637.948,965.4
638.476,960.2
639.003,960.2
639.531,961.2
640.058,958.4
640.585,958.6
641.113,961.2
641.64,956.7
642.167,960.0
642.694,956.7
643.221,954.1
643.748,954.4
644.275,950.7
644.802,944.4
645.329,948.7
645.856,950.2
646.382,947.0
646.909,945.6
647.436,944.8
647.962,945.2
648.489,940.7
649.016,938.1
649.542,942.1
650.069,942.6
650.595,937.0
651.121,940.3
651.648,936.0
652.174,934.6
652.7,936.5
653.227,936.9
653.753,939.3
654.279,935.8
654.805,934.9
655.331,935.6
655.857,935.5
656.383,934.2
656.909,933.3
657.435,936.5
657.961,937.8
658.487,931.8
659.013,931.0
659.538,931.9
660.064,934.7
660.59,929.9
661.116,931.9
661.641,927.8
662.167,930.6
662.692,928.4
663.087,931.3