File: spectra/VLFR_02-HDPE_bio_Raman_30a2274a.csv
nm,Intensity
526.494,833.96
527.041,834.32
527.588,834.26
528.135,833.96
528.682,834.5
529.229,835.1
529.775,834.16
530.321,834.02
530.868,834.12
531.414,834.54
531.96,850.14
532.506,836.86
533.051,834.86
533.597,834.4
534.142,853.54
534.687,852.52
535.232,851.12
535.777,848.52
536.322,846.7
536.867,846.78
537.411,846.32
537.956,845.64
538.5,845.8
539.044,847.54
539.588,847.22
540.132,845.76
540.676,845.58
541.22,845.24
541.763,845.1
542.306,843.96
542.85,843.48
543.393,843.62
543.936,845.44
544.479,846.74
545.021,850.82
545.564,847.44
546.106,845.64
546.649,844.54
547.191,844.2
547.733,844.74
548.275,844.74
548.817,844.86
549.359,845.76
549.9,845.64
550.442,847.26
550.983,847.24
551.524,845.18
552.066,845.44
552.607,845.02
553.148,844.64
553.688,844.88
554.229,845.96
554.77,844.98
555.31,844.84
555.85,844.5
556.39,845.56
556.931,845.2
557.471,844.52
558.01,846.04
558.55,845.6
559.09,845.26
559.629,845.4
560.169,845.84
560.708,845.6
561.247,846.94
561.786,846.5
562.325,847.82
562.864,869.0
563.403,868.62
563.941,852.48
564.48,846.82
565.018,849.52
565.557,848.42
566.095,854.62
566.633,847.72
567.171,848.92
567.709,849.46
568.247,849.96
568.784,849.2
569.322,847.62
569.859,847.68
570.397,847.16
570.934,847.12
571.471,855.92
572.008,848.62
572.545,848.26
573.082,847.56
573.619,847.88
574.155,849.88
574.692,848.42
575.228,849.36
575.765,852.5
576.301,856.84
576.837,853.38
577.373,852.14
577.909,849.16
578.445,849.1
578.981,849.02
579.516,848.76
580.052,849.66
580.587,849.36
581.123,850.32
581.658,850.6
582.193,850.02
582.728,852.02
583.263,850.72
583.798,850.92
584.333,851.4
584.868,851.38
585.402,851.98
585.937,852.86
586.471,852.52
587.005,853.62
587.54,853.3
588.074,852.72
588.608,853.16
589.142,852.26
589.676,853.36
590.21,853.52
590.743,854.04
591.277,854.26
591.81,853.9
592.344,854.72
592.877,853.96
593.411,855.06
593.944,855.2
594.477,855.64
595.01,856.82
595.543,856.3
596.076,856.88
596.608,857.34
597.141,857.86
597.674,857.54
598.206,860.12
598.739,859.0
599.271,859.9
599.803,860.18
600.335,860.24
600.868,860.38
601.4,860.02
601.931,859.94
602.463,861.2
602.995,861.54
603.527,859.78
604.058,860.3
604.59,859.96
605.121,858.9
605.653,858.9
606.184,859.0
606.715,857.3
607.246,856.42
607.778,857.92
608.309,857.42
608.839,857.02
609.37,857.3
609.901,858.56
610.432,857.5
610.962,856.52
611.493,856.54
612.023,857.02
612.554,857.12
613.084,855.86
613.614,856.04
614.145,857.44
614.675,856.66
615.205,857.6
615.735,855.7
616.265,856.3
616.795,857.18
617.324,856.62
617.854,856.92
618.384,856.38
618.913,856.74
619.443,856.6
619.972,856.42
620.502,857.46
621.031,858.58
621.56,858.2
622.089,860.04
622.618,859.8
623.147,857.04
623.676,855.84
624.205,857.16
624.734,857.58
625.263,856.68
625.792,857.5
626.32,860.02
626.849,877.3
627.377,912.46
627.906,886.96
628.434,902.9
628.963,890.52
629.491,882.84
630.019,875.24
630.547,873.28
631.076,863.3
631.604,858.08
632.132,856.32
632.66,856.82
633.188,856.6
633.715,856.78
634.243,856.92
634.771,855.62
635.299,856.64
635.826,855.42
636.354,856.56
636.881,856.48
637.409,856.9
637.936,855.78
638.464,856.8
638.991,858.5
639.518,856.84
640.045,856.68
640.573,856.66
641.1,857.42
641.627,857.92
642.154,859.26
642.681,858.5
643.208,858.56
643.735,859.02
644.261,858.44
644.788,857.5
645.315,858.82
645.842,858.6
646.368,858.22
646.895,859.5
647.421,860.76
647.948,860.32
648.474,861.9
649.001,860.98
649.527,861.14
650.054,862.06
650.58,860.6
651.106,861.62
651.633,859.76
652.159,861.16
652.685,862.58
653.211,861.98
653.737,859.42
654.263,859.14
654.789,858.06
655.315,857.86
655.841,855.9
656.367,856.08
656.893,856.24
657.419,856.18
657.945,856.32
658.47,855.72
658.996,855.24
659.522,854.66
660.047,854.4
660.573,853.86
661.099,853.78
661.624,852.02
662.15,852.68
662.675,853.22
663.07,852.34