File: spectra/VLFR_02-HDPE_bio_Raman_96ad4912.csv
nm,Intensity
526.495,828.1
527.042,829.5
527.589,829.1
528.136,828.3
528.682,828.7
529.229,828.8
529.775,829.4
530.321,829.7
530.867,829.4
531.413,829.7
531.959,831.8
532.505,829.6
533.051,828.2
533.596,831.0
534.141,846.5
534.687,842.8
535.232,842.7
535.777,837.5
536.321,836.0
536.866,837.9
537.41,838.0
537.955,839.0
538.499,838.4
539.043,839.1
539.587,839.8
540.131,839.4
540.675,838.1
541.219,838.6
541.762,839.2
542.305,839.5
542.849,839.2
543.392,838.6
543.935,838.1
544.478,837.6
545.02,836.1
545.563,839.4
546.106,839.1
546.648,837.1
547.19,837.0
547.732,835.6
548.274,836.6
548.816,837.0
549.358,837.1
549.9,838.8
550.441,838.1
550.983,838.7
551.524,837.0
552.065,838.5
552.606,837.5
553.147,837.9
553.688,837.7
554.229,838.2
554.769,839.7
555.31,839.5
555.85,840.4
556.391,838.8
556.931,839.3
557.471,837.4
558.011,840.5
558.551,837.9
559.09,839.5
559.63,838.5
560.169,837.3
560.709,839.1
561.248,841.5
561.787,847.8
562.326,838.4
562.865,844.1
563.404,840.7
563.943,848.4
564.481,843.4
565.02,839.8
565.558,839.6
566.096,847.2
566.634,841.3
567.172,840.4
567.71,841.0
568.248,840.1
568.786,839.9
569.324,840.5
569.861,841.4
570.399,841.8
570.936,841.8
571.473,854.5
572.01,841.7
572.547,841.8
573.084,842.7
573.621,842.5
574.158,845.1
574.694,840.9
575.231,843.1
575.767,844.6
576.303,858.4
576.84,849.7
577.376,847.6
577.912,844.5
578.448,844.7
578.984,841.5
579.519,841.7
580.055,843.1
580.59,841.1
581.126,844.9
581.661,843.6
582.196,842.3
582.731,844.3
583.267,844.0
583.801,843.4
584.336,844.1
584.871,846.0
585.406,845.2
585.94,846.1
586.475,846.6
587.009,846.9
587.543,847.3
588.078,847.5
588.612,848.8
589.146,849.8
589.68,851.7
590.214,852.0
590.747,851.5
591.281,850.3
591.815,852.0
592.348,852.9
592.881,851.8
593.415,857.8
593.948,855.9
594.481,853.1
595.014,855.7
595.547,856.1
596.08,857.6
596.613,857.3
597.146,855.2
597.678,858.3
598.211,857.0
598.743,857.5
599.276,858.8
599.808,858.4
600.34,861.1
600.872,858.7
601.404,859.2
601.936,857.6
602.468,861.1
603.0,860.2
603.532,857.2
604.064,857.3
604.595,857.3
605.127,856.1
605.658,858.5
606.189,854.6
606.721,854.9
607.252,856.1
607.783,855.1
608.314,852.9
608.845,855.2
609.376,853.9
609.907,854.4
610.438,854.4
610.968,852.0
611.499,852.1
612.029,853.2
612.56,852.1
613.09,852.4
613.621,849.4
614.151,852.4
614.681,853.2
615.211,851.8
615.741,851.6
616.271,851.3
616.801,852.0
617.331,851.0
617.861,854.2
618.39,849.7
618.92,853.1
619.45,850.4
619.979,851.9
620.509,848.8
621.038,850.1
621.567,854.1
622.096,855.7
622.626,856.0
623.155,851.9
623.684,850.6
624.213,851.8
624.742,850.9
625.271,850.5
625.799,854.2
626.328,854.9
626.857,887.9
627.386,946.3
627.914,901.2
628.443,934.5
628.971,897.2
629.5,885.3
630.028,873.4
630.556,872.4
631.084,856.8
631.613,854.4
632.141,849.7
632.669,849.2
633.197,850.2
633.725,851.4
634.253,847.5
634.781,850.7
635.308,848.9
635.836,850.3
636.364,848.7
636.891,850.1
637.419,848.4
637.947,850.5
638.474,852.1
639.002,849.3
639.529,850.2
640.056,849.3
640.584,852.9
641.111,851.3
641.638,851.2
642.165,851.2
642.692,853.9
643.219,849.7
643.746,851.8
644.273,853.9
644.8,855.6
645.327,853.6
645.854,853.5
646.381,853.9
646.908,850.9
647.434,854.0
647.961,855.5
648.488,856.4
649.014,856.8
649.541,856.1
650.067,857.0
650.594,855.6
651.12,856.4
651.646,857.8
652.173,855.3
652.699,855.6
653.225,851.9
653.752,854.8
654.278,854.3
654.804,853.0
655.33,853.2
655.856,851.9
656.382,850.0
656.908,851.7
657.434,851.5
657.96,850.3
658.486,850.8
659.012,849.4
659.538,848.8
660.064,849.0
660.589,849.8
661.115,846.7
661.641,850.1
662.166,848.3
662.692,845.8
663.086,846.0