File: spectra/VLFR_01-LDPE_bio_Raman_dbd5b781.csv
nm,Intensity
526.547,832.0
527.095,832.3
527.642,832.75
528.189,831.95
528.736,831.6
529.283,832.15
529.829,832.45
530.376,831.85
530.922,832.65
531.468,832.1
532.014,843.05
532.56,832.8
533.106,833.0
533.651,832.3
534.196,855.25
534.742,854.9
535.287,852.2
535.832,851.1
536.376,850.7
536.921,850.6
537.465,851.9
538.01,852.45
538.554,850.25
539.098,851.45
539.642,851.35
540.186,849.75
540.729,851.05
541.273,851.8
541.816,852.0
542.36,852.05
542.903,850.3
543.446,849.25
543.988,850.25
544.531,851.4
545.074,851.4
545.616,850.55
546.158,850.15
546.701,852.3
547.243,849.65
547.785,850.65
548.326,851.05
548.868,850.4
549.41,850.45
549.951,850.2
550.492,850.8
551.034,851.9
551.575,851.1
552.116,850.95
552.656,850.45
553.197,851.4
553.738,853.4
554.278,854.2
554.819,852.05
555.359,853.55
555.899,853.55
556.439,855.0
556.979,853.5
557.519,853.1
558.058,856.1
558.598,854.6
559.137,855.45
559.677,853.45
560.216,855.6
560.755,854.35
561.294,855.0
561.833,854.75
562.371,856.1
562.91,857.05
563.449,856.3
563.987,865.3
564.525,859.6
565.064,858.2
565.602,859.05
566.14,868.9
566.678,858.6
567.216,858.0
567.753,857.85
568.291,857.95
568.828,859.1
569.366,857.05
569.903,858.6
570.44,860.25
570.977,860.55
571.514,874.3
572.051,863.85
572.588,861.55
573.125,863.1
573.661,861.8
574.198,863.45
574.734,860.65
575.271,864.15
575.807,870.6
576.343,879.1
576.879,875.65
577.415,872.0
577.951,868.45
578.486,867.55
579.022,872.7
579.557,870.35
580.093,873.95
580.628,874.05
581.164,875.25
581.699,876.3
582.234,877.5
582.769,880.2
583.304,882.85
583.838,883.35
584.373,884.05
584.908,883.95
585.442,885.95
585.977,891.7
586.511,891.95
587.045,893.75
587.58,897.75
588.114,900.3
588.648,901.8
589.182,904.05
589.715,906.25
590.249,910.1
590.783,913.3
591.316,915.75
591.85,919.9
592.383,919.9
592.917,923.15
593.45,924.45
593.983,927.85
594.516,931.9
595.049,935.75
595.582,940.45
596.115,942.25
596.648,949.9
597.18,956.25
597.713,959.65
598.245,963.75
598.778,971.5
599.31,973.4
599.842,975.15
600.375,977.25
600.907,981.15
601.439,978.9
601.971,979.5
602.503,974.0
603.034,973.15
603.566,967.6
604.098,964.95
604.629,961.6
605.161,950.85
605.692,945.85
606.224,944.3
606.755,937.3
607.286,932.95
607.817,933.2
608.348,931.45
608.879,926.9
609.41,924.0
609.941,924.95
610.472,917.6
611.002,917.55
611.533,918.8
612.063,913.75
612.594,916.0
613.124,915.0
613.655,915.0
614.185,910.65
614.715,910.8
615.245,907.95
615.775,908.35
616.305,903.4
616.835,905.45
617.365,903.85
617.895,903.35
618.425,901.85
618.954,900.75
619.484,903.25
620.013,898.6
620.543,900.45
621.072,898.1
621.602,899.65
622.131,899.65
622.66,900.7
623.189,893.85
623.718,895.8
624.247,897.15
624.776,895.1
625.305,892.05
625.834,895.65
626.363,897.1
626.891,918.3
627.42,954.05
627.949,929.05
628.477,953.05
629.006,937.95
629.534,928.45
630.062,917.75
630.591,915.4
631.119,902.05
631.647,893.45
632.175,889.15
632.703,892.25
633.231,887.75
633.759,890.15
634.287,888.9
634.815,886.35
635.343,887.6
635.871,889.25
636.398,888.75
636.926,889.75
637.454,886.7
637.981,890.9
638.509,890.8
639.036,890.1
639.564,890.6
640.091,890.25
640.618,890.45
641.146,891.55
641.673,893.0
642.2,894.3
642.727,893.85
643.254,896.95
643.781,893.9
644.308,896.3
644.835,896.1
645.362,896.05
645.889,896.65
646.416,896.8
646.942,897.3
647.469,900.45
647.996,902.8
648.522,899.7
649.049,902.1
649.576,901.95
650.102,899.25
650.629,902.1
651.155,904.25
651.682,901.75
652.208,904.35
652.734,903.55
653.261,904.4
653.787,904.45
654.313,904.95
654.839,903.5
655.365,902.9
655.892,903.4
656.418,902.85
656.944,905.35
657.47,899.9
657.996,900.15
658.522,897.45
659.048,897.35
659.574,898.85
660.099,893.4
660.625,893.0
661.151,890.2
661.677,888.9
662.203,885.0
662.728,884.8
663.123,884.35