File: spectra/VLFR_07-PET_bio_Raman_3357a926.csv
nm,Intensity
791.377,55200.5
792.477,55242.8
793.576,55479.1
794.676,55605.6
795.775,55361.6
796.874,55848.6
797.973,56691.4
799.072,56528.2
800.171,56530.8
801.27,56493.0
802.368,56098.2
803.467,55450.3
804.565,55471.4
805.664,55926.6
806.762,55273.2
807.86,55117.3
808.958,54714.4
810.056,53833.3
811.153,53885.1
812.251,53998.6
813.349,53832.1
814.446,52659.1
815.543,52833.1
816.64,51311.1
817.737,52207.8
818.834,51591.1
819.931,51508.3
821.028,50585.9
822.125,50537.7
823.221,50369.4
824.317,49594.0
825.414,49466.1
826.51,48647.9
827.606,48909.1
828.702,47595.4
829.797,47442.9
830.893,46225.8
831.988,46810.3
833.084,45930.1
834.179,45787.6
835.274,45074.0
836.369,44979.9
837.464,44689.9
838.559,44337.4
839.654,44098.4
840.748,43007.9
841.843,43063.1
842.937,42493.5
844.031,42325.9
845.125,40788.9
846.219,41427.2
847.313,40952.4
848.407,40055.6
849.5,39808.5
850.593,39147.6
851.687,38506.1
852.78,37992.9
853.873,38048.1
854.966,37538.6
856.059,36648.9
857.151,36509.2
858.244,36492.1
859.336,35786.3
860.428,35867.3
861.52,34595.3
862.612,34239.5
863.704,34171.5
864.796,34197.2
865.888,33353.4
866.979,31916.2
868.07,33153.4
869.162,32297.7
870.253,31990.7
871.344,31228.1
872.434,31586.0
873.525,30097.8
874.615,30090.2
875.706,30143.3
876.796,29960.3
877.886,29086.2
878.976,28565.4
880.066,28871.1
881.156,28001.2
882.245,27322.0
883.335,27475.7
884.424,26629.5
885.513,26411.9
886.602,25894.2
887.691,25945.4
888.78,25460.6
889.868,24979.8
890.957,24791.3
892.045,23799.5
893.133,23604.5
894.221,23486.7
895.309,22680.8
896.397,22849.8
897.484,22372.9
898.571,21998.8
899.659,21317.6
900.746,21106.8
901.833,20940.3
902.92,20241.9
904.006,19981.7
905.093,20027.6
906.179,19446.9
907.266,19163.5
908.352,19031.4
909.438,18394.6
910.523,17919.4
911.609,17700.3
912.695,17399.0
913.78,17232.6
914.865,17014.7
915.95,16497.8
917.035,16308.0
918.12,15986.7
919.204,15856.3
920.289,15262.4
921.373,14702.3
922.457,14826.8
923.541,14489.0
924.625,14011.0
925.709,13896.0
926.792,13602.0
927.876,13427.2
928.959,13066.8
930.042,12572.7
931.125,12429.3
932.208,12384.5
933.29,11854.8
934.373,11912.3
935.455,11683.6
936.537,11256.3
937.619,11094.0
938.701,10661.3
939.782,10646.4
940.864,10524.4
941.945,10319.3
943.026,9964.0
944.107,9928.15
945.188,9749.75
946.269,9436.8
947.349,9327.0
948.43,9153.8
949.51,8950.3
950.59,8696.2
951.67,8480.3
952.75,8477.65
953.829,8440.3
954.909,8144.45
955.988,8005.1
957.067,7979.05
958.146,7816.55
959.224,7602.65
960.303,7485.25
961.381,7340.2
962.459,7287.45
963.537,7167.9
964.615,7042.75
965.693,7011.5
966.771,6817.2
967.848,6709.4
968.925,6652.5
970.002,6539.95
971.079,6477.7
972.156,6379.6
973.232,6202.7
974.309,6176.6
975.385,6107.95
976.461,6035.95
977.537,5916.55
978.612,5868.8
979.688,5767.6
980.763,5683.25
981.838,5585.2
982.913,5622.85
983.988,5495.65
985.063,5394.55
986.137,5399.65
987.211,5272.35
988.285,5271.2
989.359,5184.35
990.433,5149.15
991.506,5061.8
992.58,5001.75
993.653,5006.4
994.726,4954.9
995.799,4889.95
996.872,4843.95
997.944,4785.75
999.016,4784.25
1000.09,4756.0
1001.16,4665.0
1002.23,4633.55
1003.3,4602.7
1004.38,4559.6
1005.45,4548.15
1006.52,4501.25
1007.59,4453.25
1008.66,4433.55
1009.73,4432.4
1010.8,4370.15
1011.87,4331.35
1012.94,4293.65
1014.01,4288.35
1015.08,4297.2
1016.15,4238.15
1017.22,4210.65
1018.29,4200.0
1019.36,4193.95
1020.42,4142.55
1021.49,4133.85
1022.56,4120.4
1023.63,4097.6
1024.7,4099.05
1025.76,4066.65
1026.83,4048.3
1027.9,4033.35
1028.97,4022.15
1030.03,4010.1
1031.1,3990.7
1032.17,3976.75
1033.23,3967.05
1034.3,3962.65
1035.36,3959.8
1036.43,3939.55
1037.5,3932.75
1038.56,3915.6
1039.63,3912.15
1040.69,3908.9
1041.76,3903.35
1042.82,3890.2
1043.89,3884.4
1044.95,3877.3
1046.01,3869.7
1047.08,3863.25
1048.14,3855.45
1049.2,3857.15
1050.27,3852.2
1051.33,3849.85
1052.39,3845.9
1053.46,3835.3
1054.52,3839.0
1055.58,3836.8
1056.64,3829.1
1057.7,3827.85
1058.77,3823.15
1059.83,3823.7
1060.89,3819.95
1061.95,3818.65
1063.01,3815.3
1064.07,3814.05
1065.13,3811.0
1066.19,3810.3
1067.25,3807.8
1068.05,3805.05