File: spectra/VLFR_02-HDPE_nobio_Raman_80592416.csv
nm,Intensity
526.508,831.1
527.055,829.4
527.602,829.4
528.149,829.1
528.695,830.3
529.241,830.4
529.787,830.4
530.334,829.7
530.879,829.3
531.425,829.5
531.971,834.8
532.516,829.8
533.062,830.9
533.607,830.5
534.152,897.2
534.697,894.8
535.242,895.9
535.786,867.9
536.331,856.7
536.876,853.0
537.42,855.0
537.964,854.7
538.508,851.6
539.052,848.7
539.596,847.8
540.14,846.7
540.683,846.0
541.227,845.6
541.77,846.7
542.313,847.3
542.856,845.6
543.399,845.1
543.942,844.3
544.485,846.5
545.027,844.9
545.57,846.2
546.112,847.6
546.654,845.6
547.196,846.8
547.738,845.5
548.28,846.6
548.822,845.7
549.363,845.8
549.905,848.2
550.446,845.4
550.988,847.7
551.529,847.4
552.07,844.0
552.611,845.4
553.152,846.1
553.692,851.8
554.233,847.7
554.773,848.4
555.314,849.0
555.854,851.2
556.394,851.7
556.934,850.6
557.474,853.7
558.014,854.2
558.553,854.1
559.093,854.1
559.632,856.3
560.172,852.6
560.711,855.1
561.25,852.0
561.789,853.5
562.328,854.2
562.867,857.5
563.406,859.9
563.944,931.0
564.483,877.5
565.021,869.9
565.559,863.6
566.098,925.8
566.636,866.9
567.174,861.3
567.711,869.1
568.249,856.5
568.787,857.7
569.324,856.8
569.862,859.4
570.399,862.5
570.936,866.9
571.474,980.3
572.011,883.1
572.548,867.2
573.084,860.2
573.621,863.3
574.158,869.6
574.694,860.4
575.231,862.3
575.767,899.8
576.303,1013.7
576.84,937.3
577.376,916.3
577.912,866.9
578.447,861.6
578.983,860.8
579.519,859.6
580.054,862.4
580.59,858.4
581.125,857.7
581.661,859.0
582.196,860.1
582.731,856.2
583.266,857.8
583.801,858.2
584.336,855.4
584.87,859.0
585.405,858.5
585.94,857.5
586.474,855.4
587.008,860.1
587.543,856.9
588.077,858.8
588.611,855.9
589.145,858.8
589.679,855.7
590.213,857.4
590.747,860.0
591.28,856.9
591.814,859.7
592.347,859.1
592.881,859.2
593.414,855.9
593.947,857.3
594.48,859.3
595.014,855.6
595.547,859.3
596.079,856.2
596.612,859.1
597.145,860.5
597.678,856.0
598.21,859.5
598.743,860.1
599.275,861.7
599.807,860.7
600.34,857.7
600.872,860.2
601.404,861.7
601.936,863.9
602.468,861.0
603.0,860.3
603.532,860.4
604.063,861.9
604.595,860.6
605.126,858.3
605.658,861.4
606.189,859.7
606.721,857.3
607.252,858.8
607.783,857.8
608.314,856.7
608.845,857.7
609.376,859.5
609.907,857.1
610.438,857.8
610.968,859.3
611.499,860.8
612.03,858.1
612.56,861.1
613.091,858.5
613.621,859.6
614.151,860.6
614.681,859.2
615.212,863.0
615.742,859.5
616.272,862.5
616.802,866.6
617.332,872.5
617.861,873.7
618.391,875.6
618.921,872.8
619.45,875.5
619.98,877.6
620.509,879.1
621.039,886.7
621.568,902.4
622.097,938.6
622.627,935.0
623.156,894.3
623.685,881.2
624.214,881.0
624.743,879.4
625.272,885.6
625.801,894.4
626.33,935.1
626.858,1301.8
627.387,1873.7
627.916,1449.7
628.444,1807.4
628.973,1403.3
629.501,1278.9
630.029,1149.5
630.558,1116.6
631.086,978.0
631.614,901.2
632.142,886.6
632.67,879.2
633.198,875.8
633.726,871.8
634.254,870.5
634.782,865.9
635.31,864.3
635.838,865.7
636.365,863.2
636.893,861.3
637.421,858.3
637.948,856.6
638.476,856.5
639.003,857.4
639.531,856.4
640.058,854.1
640.585,854.7
641.113,856.0
641.64,852.5
642.167,855.3
642.694,855.2
643.221,853.4
643.748,851.9
644.275,852.6
644.802,853.0
645.329,853.2
645.856,852.7
646.382,850.9
646.909,851.7
647.436,851.0
647.962,852.2
648.489,851.5
649.016,853.3
649.542,852.1
650.069,851.3
650.595,851.2
651.121,853.4
651.648,850.1
652.174,851.4
652.7,851.3
653.227,850.1
653.753,850.2
654.279,848.0
654.805,849.7
655.331,850.8
655.857,851.3
656.383,851.5
656.909,850.3
657.435,851.4
657.961,850.8
658.487,850.9
659.013,852.4
659.538,851.2
660.064,851.7
660.59,849.9
661.116,849.5
661.641,847.3
662.167,848.7
662.692,849.1
663.087,847.9