File: spectra/VLFR_07-PET_bio_Raman_5900c760.csv
nm,Intensity
791.496,11672.2
792.594,10853.0
793.692,10327.3
794.79,10276.1
795.888,10188.4
796.986,10067.2
798.083,10141.0
799.181,10075.4
800.278,10129.7
801.375,10233.9
802.473,10018.4
803.57,9946.2
804.667,9788.7
805.764,9749.7
806.86,9560.0
807.957,9601.0
809.054,9440.2
810.15,9306.4
811.246,9345.4
812.343,9273.8
813.439,9088.8
814.535,9011.6
815.631,8867.9
816.727,8914.3
817.822,8648.7
818.918,8694.3
820.013,8671.3
821.109,8598.0
822.204,8377.2
823.299,8425.1
824.394,8387.0
825.489,8552.8
826.584,8227.8
827.679,8194.6
828.774,8058.3
829.868,8073.9
830.963,8047.3
832.057,7966.7
833.151,7788.3
834.245,7825.2
835.339,7746.0
836.433,7823.4
837.527,7813.8
838.621,7734.5
839.714,7701.9
840.808,7848.1
841.901,7681.3
842.994,7570.9
844.087,7489.0
845.18,7230.2
846.273,7254.7
847.366,7146.6
848.458,7102.0
849.551,7074.6
850.643,6939.4
851.735,6997.2
852.828,6937.1
853.92,6973.9
855.012,6915.5
856.103,6776.1
857.195,6782.6
858.287,6842.0
859.378,6884.9
860.469,6894.5
861.56,6652.4
862.651,6676.5
863.742,6616.4
864.833,6633.1
865.924,6465.0
867.014,6442.2
868.105,6360.5
869.195,6487.8
870.285,6477.5
871.376,6577.8
872.465,6693.7
873.555,6613.2
874.645,6377.4
875.735,6259.3
876.824,6245.5
877.913,6163.8
879.002,6098.5
880.092,6103.8
881.18,6186.2
882.269,6078.8
883.358,6076.1
884.446,6047.8
885.535,6001.7
886.623,5974.3
887.711,5857.9
888.799,5899.3
889.887,5819.8
890.975,5770.5
892.062,5802.1
893.15,5716.7
894.237,5690.5
895.325,5636.3
896.412,5621.6
897.499,6035.9
898.585,6092.6
899.672,5709.6
900.759,5459.5
901.845,5440.1
902.931,5374.9
904.017,5396.6
905.103,5388.9
906.189,5502.7
907.275,5679.7
908.361,5587.2
909.446,5374.5
910.531,5139.9
911.616,5126.6
912.701,5069.4
913.786,5028.1
914.871,5003.4
915.956,4943.5
917.04,4929.7
918.124,4912.1
919.209,4879.1
920.293,4846.1
921.376,4803.2
922.46,4741.9
923.544,4759.2
924.627,4710.9
925.711,4686.6
926.794,4671.9
927.877,4622.9
928.96,4568.6
930.042,4542.6
931.125,4509.0
932.207,4484.3
933.29,4470.0
934.372,4444.3
935.454,4406.4
936.536,4410.5
937.617,4382.9
938.699,4340.9
939.78,4332.8
940.861,4321.4
941.943,4280.3
943.023,4296.7
944.104,4244.9
945.185,4225.7
946.265,4234.7
947.346,4209.1
948.426,4192.2
949.506,4175.4
950.586,4147.9
951.665,4151.5
952.745,4131.5
953.824,4117.3
954.904,4104.2
955.983,4091.9
957.062,4091.7
958.141,4071.0
959.219,4046.2
960.298,4041.1
961.376,4031.4
962.454,4016.0
963.532,4003.3
964.61,4000.9
965.688,3989.5
966.765,3975.1
967.842,3979.2
968.92,3964.4
969.997,3961.2
971.074,3950.4
972.15,3941.7
973.227,3929.8
974.303,3923.9
975.379,3913.9
976.455,3908.5
977.531,3900.5
978.607,3899.3
979.683,3893.3
980.758,3886.2
981.833,3879.7
982.908,3877.7
983.983,3861.3
985.058,3860.6
986.133,3856.3
987.207,3852.5
988.281,3849.6
989.355,3841.2
990.429,3829.1
991.503,3833.7
992.577,3829.3
993.65,3823.5
994.723,3812.3
995.796,3806.9
996.869,3806.2
997.942,3798.3
999.014,3796.1
1000.09,3800.0
1001.16,3789.3
1002.23,3790.0
1003.3,3781.4
1004.37,3781.2
1005.45,3774.9
1006.52,3770.5
1007.59,3769.6
1008.66,3765.6
1009.73,3763.6
1010.8,3761.2
1011.87,3758.6
1012.94,3753.7
1014.01,3756.5
1015.08,3753.3
1016.15,3747.4
1017.22,3744.2
1018.29,3745.7
1019.36,3742.6
1020.43,3741.8
1021.5,3744.7
1022.57,3742.5
1023.64,3742.7
1024.7,3738.2
1025.77,3735.4
1026.84,3728.6
1027.91,3729.3
1028.97,3729.1
1030.04,3720.6
1031.11,3721.2
1032.18,3719.6
1033.24,3719.7
1034.31,3723.8
1035.38,3721.4
1036.44,3721.1
1037.51,3714.8
1038.58,3712.9
1039.64,3714.6
1040.71,3709.5
1041.77,3708.7
1042.84,3706.9
1043.9,3706.8
1044.97,3707.4
1046.03,3702.0
1047.1,3703.3
1048.16,3702.7
1049.22,3703.1
1050.29,3704.2
1051.35,3702.7
1052.42,3703.5
1053.48,3701.4
1054.54,3701.0
1055.61,3701.8
1056.67,3700.7
1057.73,3699.4
1058.79,3700.4
1059.86,3700.1
1060.92,3698.8
1061.98,3698.8
1063.04,3698.4
1064.1,3698.8
1065.16,3698.4
1066.22,3699.0
1067.29,3698.8
1068.08,3694.9