File: spectra/VLFR_02-HDPE_nobio_Raman_25664995.csv
nm,Intensity
526.486,830.2
527.033,829.7
527.579,830.0
528.126,830.4
528.672,829.5
529.219,830.1
529.765,831.1
530.311,829.8
530.857,831.2
531.403,830.9
531.948,831.8
532.494,831.0
533.039,829.4
533.585,830.3
534.13,876.6
534.675,874.5
535.22,863.0
535.764,858.6
536.309,848.6
536.854,846.6
537.398,844.0
537.942,845.6
538.486,845.4
539.03,843.3
539.574,841.4
540.118,842.5
540.662,842.3
541.205,842.6
541.749,842.4
542.292,843.7
542.835,840.4
543.378,842.6
543.921,842.8
544.464,841.9
545.006,841.3
545.549,839.5
546.091,840.0
546.634,839.7
547.176,839.8
547.718,842.1
548.26,842.7
548.802,842.9
549.343,842.6
549.885,845.2
550.426,842.6
550.968,843.5
551.509,843.7
552.05,844.0
552.591,842.9
553.132,842.2
553.673,844.5
554.214,843.4
554.754,841.7
555.295,841.2
555.835,842.0
556.375,841.6
556.915,843.5
557.455,843.7
557.995,843.3
558.535,844.2
559.075,845.2
559.614,844.2
560.154,844.5
560.693,847.4
561.232,852.5
561.772,846.0
562.311,846.1
562.85,848.7
563.388,846.9
563.927,852.8
564.466,850.1
565.004,850.0
565.543,850.5
566.081,857.6
566.619,853.4
567.157,848.8
567.695,851.0
568.233,850.1
568.771,853.6
569.309,853.8
569.846,856.9
570.384,859.4
570.921,862.6
571.458,872.3
571.995,868.6
572.532,868.2
573.069,871.4
573.606,875.3
574.143,877.8
574.68,877.6
575.216,882.9
575.753,894.9
576.289,908.1
576.825,908.9
577.361,913.8
577.897,914.4
578.433,918.5
578.969,928.5
579.505,936.8
580.041,946.4
580.576,955.8
581.112,960.9
581.647,970.9
582.183,981.3
582.718,988.1
583.253,998.4
583.788,1006.1
584.323,1015.1
584.858,1020.9
585.392,1036.5
585.927,1049.2
586.462,1056.4
586.996,1071.5
587.53,1092.1
588.065,1097.8
588.599,1104.4
589.133,1119.6
589.667,1133.8
590.201,1147.6
590.735,1158.1
591.268,1169.7
591.802,1179.4
592.335,1184.6
592.869,1196.5
593.402,1202.0
593.936,1206.4
594.469,1219.7
595.002,1230.5
595.535,1239.2
596.068,1248.3
596.601,1272.4
597.133,1300.6
597.666,1319.2
598.199,1336.0
598.731,1351.5
599.264,1365.7
599.796,1368.1
600.328,1393.1
600.86,1373.2
601.393,1391.2
601.925,1380.7
602.457,1375.3
602.988,1353.6
603.52,1352.3
604.052,1329.2
604.583,1299.9
605.115,1281.6
605.646,1256.3
606.178,1239.9
606.709,1208.6
607.24,1192.6
607.771,1182.4
608.302,1173.8
608.833,1157.3
609.364,1148.3
609.895,1136.2
610.426,1119.1
610.957,1110.5
611.487,1107.0
612.018,1100.0
612.548,1094.9
613.078,1093.2
613.609,1084.7
614.139,1079.8
614.669,1068.9
615.199,1063.3
615.729,1059.4
616.259,1056.7
616.789,1046.2
617.319,1045.5
617.849,1034.8
618.378,1034.8
618.908,1028.4
619.437,1028.2
619.967,1013.0
620.496,1014.4
621.025,1017.5
621.555,1013.0
622.084,1016.8
622.613,1014.7
623.142,1004.7
623.671,1009.5
624.2,1005.7
624.729,1004.5
625.258,1001.0
625.786,994.9
626.315,998.2
626.844,1011.1
627.372,1051.7
627.901,1024.4
628.429,1043.0
628.957,1032.5
629.486,1028.7
630.014,1018.0
630.542,1007.9
631.07,1001.1
631.598,996.5
632.126,990.0
632.654,986.4
633.182,989.5
633.71,987.6
634.237,987.8
634.765,984.3
635.293,986.5
635.82,992.3
636.348,991.9
636.875,995.0
637.403,994.8
637.93,997.3
638.458,998.8
638.985,1002.7
639.512,1001.7
640.039,1003.9
640.566,1006.9
641.093,1010.1
641.62,1015.1
642.147,1013.1
642.674,1012.8
643.201,1018.1
643.728,1011.6
644.255,1016.9
644.781,1022.1
645.308,1019.1
645.835,1021.3
646.361,1024.3
646.888,1026.9
647.414,1029.3
647.941,1026.6
648.467,1030.9
648.993,1029.3
649.52,1033.4
650.046,1036.2
650.572,1035.5
651.098,1037.6
651.625,1039.3
652.151,1047.5
652.677,1044.7
653.203,1050.0
653.729,1045.0
654.255,1052.5
654.78,1051.6
655.306,1045.1
655.832,1048.3
656.358,1041.2
656.884,1044.7
657.409,1036.7
657.935,1038.1
658.461,1026.1
658.986,1025.3
659.512,1016.6
660.037,1011.6
660.563,1006.6
661.088,995.8
661.614,995.3
662.139,985.6
662.664,984.2
663.058,975.6