File: spectra/VLFR_02-HDPE_bio_Raman_d6f1a49e.csv
nm,Intensity
528.65,1856.0
529.155,1856.6
529.66,1856.1
530.165,1857.0
530.67,1856.5
531.175,1858.3
531.68,1883.2
532.185,2928.45
532.69,1858.0
533.194,1856.15
533.699,1925.6
534.204,2114.85
534.708,2110.4
535.213,2102.3
535.717,2077.2
536.222,2050.9
536.726,2035.8
537.231,2060.55
537.735,2041.35
538.239,2036.9
538.743,2023.1
539.247,2019.1
539.751,2003.9
540.255,2007.75
540.759,2008.1
541.263,2015.7
541.767,2016.85
542.271,2006.8
542.775,2018.05
543.279,2011.75
543.782,2030.05
544.286,2065.6
544.789,2021.85
545.293,2025.65
545.796,2037.05
546.3,2147.8
546.803,2079.95
547.306,2037.05
547.81,2026.55
548.313,2040.4
548.816,2040.5
549.319,2043.85
549.822,2052.7
550.325,2071.4
550.828,2047.45
551.331,2041.45
551.834,2053.6
552.337,2047.0
552.839,2050.1
553.342,2055.4
553.844,2061.95
554.347,2057.45
554.849,2068.8
555.352,2066.35
555.854,2068.95
556.357,2074.45
556.859,2075.05
557.361,2081.3
557.863,2089.95
558.365,2106.55
558.867,2089.35
559.369,2103.75
559.871,2101.0
560.373,2087.2
560.875,2101.95
561.377,2123.7
561.878,2197.55
562.38,3068.05
562.881,2149.4
563.383,2145.45
563.884,2474.0
564.386,2231.6
564.887,2198.3
565.388,2167.45
565.89,2393.7
566.391,2447.05
566.892,2170.75
567.393,2192.25
567.894,2144.85
568.395,2143.35
568.896,2145.65
569.396,2144.75
569.897,2157.8
570.398,2174.1
570.898,2196.7
571.399,2721.1
571.9,2341.65
572.4,2217.0
572.9,2178.7
573.401,2202.1
573.901,2226.95
574.401,2196.9
574.901,2206.7
575.401,2491.25
575.901,2478.5
576.401,2741.5
576.901,2581.35
577.401,2413.8
577.901,2303.0
578.4,2307.1
578.9,2341.2
579.399,2346.1
579.899,2354.35
580.398,2362.95
580.898,2388.5
581.397,2406.5
581.896,2407.2
582.395,2426.4
582.895,2453.25
583.394,2465.65
583.893,2472.7
584.391,2493.3
584.89,2497.15
585.389,2512.05
585.888,2517.5
586.386,2543.85
586.885,2553.5
587.384,2596.65
587.882,2624.9
588.38,2656.7
588.879,2673.4
589.377,2683.0
589.875,2713.2
590.373,2778.0
590.871,2823.7
591.369,2827.6
591.867,2859.1
592.365,2883.2
592.863,2913.75
593.361,2953.9
593.858,2950.65
594.356,2992.75
594.853,3002.75
595.351,3093.3
595.848,3103.9
596.345,3155.85
596.843,3170.65
597.34,3249.25
597.837,3247.7
598.334,3305.2
598.831,3364.8
599.328,3360.35
599.824,3414.95
600.321,3430.7
600.818,3461.95
601.314,3446.8
601.811,3453.95
602.307,3452.65
602.804,3425.9
603.3,3452.75
603.796,3439.05
604.293,3386.1
604.789,3341.2
605.285,3329.65
605.781,3300.4
606.277,3311.45
606.772,3277.35
607.268,3229.3
607.764,3219.85
608.259,3202.4
608.755,3189.0
609.25,3168.95
609.746,3156.4
610.241,3157.5
610.736,3116.05
611.231,3129.65
611.727,3127.1
612.222,3092.65
612.716,3076.75
613.211,3059.2
613.706,3021.3
614.201,3058.0
614.695,3043.0
615.19,2992.0
615.684,3031.5
616.179,2983.45
616.673,2973.2
617.168,2991.3
617.662,2944.5
618.156,2941.6
618.65,2958.15
619.144,2948.35
619.638,2949.35
620.131,2911.45
620.625,2914.75
621.119,2910.25
621.612,2950.6
622.106,3053.15
622.599,2998.1
623.093,2884.75
623.586,2825.85
624.079,2811.8
624.572,2835.25
625.065,2797.9
625.558,2819.55
626.051,2903.45
626.544,3351.55
627.037,5781.1
627.529,5462.2
628.022,4691.85
628.514,6530.25
629.007,4811.05
629.499,4241.1
629.991,3886.45
630.483,3690.5
630.976,3171.5
631.468,2840.15
631.959,2715.45
632.451,2701.55
632.943,2651.7
633.435,2633.55
633.926,2613.1
634.418,2578.55
634.909,2603.9
635.401,2588.45
635.892,2595.0
636.383,2565.6
636.874,2539.5
637.365,2551.0
637.856,2538.5
638.347,2538.4
638.838,2541.1
639.329,2541.0
639.819,2551.0
640.31,2560.6
640.8,2523.85
641.291,2540.65
641.781,2528.7
642.271,2554.45
642.761,2548.95
643.251,2525.05
643.741,2566.6
644.231,2570.1
644.721,2582.2
645.211,2534.95
645.7,2540.2
646.19,2531.6
646.679,2555.95
647.169,2558.0
647.658,2535.95
648.147,2539.5
648.636,2528.35
649.125,2548.85
649.614,2579.3
650.103,2599.15
650.592,2557.65
651.08,2555.25
651.569,2534.45
652.058,2533.45
652.546,2532.35
653.034,2532.65
653.523,2521.85
654.011,2486.65
654.499,2483.25
654.987,2461.15
655.475,2474.1
655.963,2457.2
656.45,2464.7
656.938,2455.7
657.425,2451.1
657.913,2420.3
658.4,2380.0
658.888,2399.2
659.375,2370.0
659.862,2387.55
660.349,2353.1
660.836,2354.55
661.079,2311.7