File: spectra/VLFR_08-PLA_bio_Raman_93bc8ec3.csv
nm,Intensity
528.626,1863.6
529.132,1864.0
529.637,1863.6
530.143,1862.5
530.648,1862.9
531.153,1865.6
531.658,1915.5
532.164,4670.2
532.669,1864.8
533.174,1864.6
533.679,2053.4
534.184,2632.5
534.689,2518.3
535.194,2437.0
535.699,2358.1
536.203,2346.6
536.708,2386.5
537.213,2341.1
537.717,2347.7
538.222,2315.9
538.726,2303.3
539.231,2323.7
539.735,2271.2
540.239,2294.4
540.744,2336.2
541.248,2354.7
541.752,2317.7
542.256,2301.5
542.76,2337.1
543.264,2395.3
543.768,2441.4
544.272,2390.1
544.776,2351.0
545.28,2314.0
545.784,2305.4
546.287,2303.6
546.791,2321.8
547.294,2338.4
547.798,2323.6
548.301,2344.2
548.805,2338.7
549.308,2350.1
549.811,2353.4
550.315,2347.4
550.818,2378.9
551.321,2386.3
551.824,2412.9
552.327,2430.6
552.83,2406.2
553.333,2408.4
553.835,2447.4
554.338,2429.3
554.841,2423.3
555.343,2410.8
555.846,2411.6
556.349,2386.5
556.851,2395.8
557.353,2461.1
557.856,2856.7
558.358,2708.8
558.86,2476.7
559.362,2471.1
559.864,2455.8
560.366,2449.3
560.868,2457.6
561.37,2433.2
561.872,2457.2
562.374,2457.6
562.876,2525.6
563.377,2621.6
563.879,2546.8
564.38,2489.3
564.882,2561.9
565.383,2573.4
565.885,2682.0
566.386,2647.9
566.887,2515.6
567.388,2502.9
567.889,2528.1
568.391,2503.6
568.892,2521.1
569.392,2534.0
569.893,2517.9
570.394,2526.8
570.895,2547.8
571.395,2608.9
571.896,2629.0
572.397,2603.3
572.897,2581.0
573.397,2603.4
573.898,2575.9
574.398,2617.3
574.898,2562.2
575.398,2525.6
575.898,2559.2
576.398,2708.7
576.898,2873.6
577.398,2611.4
577.898,2536.3
578.398,2533.4
578.897,2531.0
579.397,2541.9
579.896,2533.8
580.396,2549.9
580.895,2545.3
581.395,2530.9
581.894,2539.5
582.393,2556.4
582.892,2555.7
583.391,2526.2
583.89,2541.0
584.389,2537.7
584.888,2546.6
585.387,2565.2
585.886,2545.2
586.384,2607.2
586.883,2731.8
587.381,2815.7
587.88,2700.9
588.378,2560.2
588.876,2526.7
589.375,2498.8
589.873,2528.9
590.371,2529.0
590.869,2544.7
591.367,2537.6
591.865,2531.3
592.363,2528.5
592.86,2539.1
593.358,2538.0
593.856,2496.9
594.353,2496.8
594.851,2525.5
595.348,2528.1
595.845,2540.7
596.342,2513.2
596.84,2516.0
597.337,2531.6
597.834,2513.8
598.331,2498.4
598.828,2515.1
599.324,2527.2
599.821,2525.6
600.318,2513.3
600.814,2513.2
601.311,2514.7
601.807,2514.6
602.304,2515.9
602.8,2517.3
603.296,2513.8
603.792,2518.4
604.288,2489.9
604.784,2487.7
605.28,2502.3
605.776,2496.1
606.272,2527.5
606.767,2487.6
607.263,2510.4
607.759,2478.4
608.254,2481.5
608.749,2486.1
609.245,2490.3
609.74,2487.9
610.235,2473.0
610.73,2465.8
611.225,2481.9
611.72,2464.7
612.215,2472.1
612.71,2480.8
613.204,2471.8
613.699,2453.3
614.194,2457.5
614.688,2468.3
615.182,2464.1
615.677,2458.3
616.171,2451.1
616.665,2492.8
617.159,2455.5
617.653,2454.1
618.147,2445.5
618.641,2466.6
619.135,2440.3
619.628,2456.9
620.122,2438.5
620.615,2447.6
621.109,2449.1
621.602,2444.0
622.095,2457.1
622.589,2482.1
623.082,2490.8
623.575,2483.3
624.068,2439.2
624.561,2423.0
625.053,2437.5
625.546,2414.3
626.039,2441.6
626.531,2431.5
627.024,2429.3
627.516,2436.9
628.008,2553.3
628.501,2730.0
628.993,2634.0
629.485,2658.5
629.977,2663.6
630.469,2907.9
630.96,4002.1
631.452,3570.8
631.944,2944.3
632.435,2795.7
632.927,3053.6
633.418,3140.9
633.91,2851.4
634.401,2579.3
634.892,2444.8
635.383,2393.6
635.874,2385.4
636.365,2379.1
636.856,2350.0
637.346,2359.3
637.837,2359.4
638.327,2342.7
638.818,2330.9
639.308,2334.6
639.799,2333.2
640.289,2359.4
640.779,2318.2
641.269,2321.3
641.759,2320.1
642.249,2316.7
642.738,2334.5
643.228,2298.7
643.718,2309.6
644.207,2326.6
644.697,2298.1
645.186,2271.0
645.675,2292.9
646.164,2270.9
646.653,2273.1
647.142,2258.3
647.631,2246.6
648.12,2252.5
648.609,2242.7
649.098,2233.4
649.586,2244.0
650.075,2215.0
650.563,2229.0
651.051,2239.1
651.539,2228.8
652.027,2213.0
652.515,2204.7
653.003,2213.4
653.491,2203.2
653.979,2197.0
654.467,2191.1
654.954,2206.3
655.442,2187.9
655.929,2184.9
656.416,2178.0
656.904,2182.2
657.391,2160.9
657.878,2174.6
658.365,2161.3
658.851,2151.4
659.338,2145.2
659.825,2149.2
660.311,2152.2
660.798,2139.5
661.041,2134.3