File: spectra/VLFR_08-PLA_nobio_Raman_42d9cff3.csv
nm,Intensity
526.5,829.9
527.047,829.7
527.594,829.0
528.14,830.7
528.687,828.6
529.233,829.5
529.779,828.3
530.325,829.3
530.871,830.1
531.417,828.1
531.962,835.0
532.508,831.3
533.053,830.7
533.599,830.5
534.144,966.1
534.689,956.1
535.234,933.7
535.778,925.7
536.323,926.7
536.867,927.2
537.412,927.6
537.956,923.9
538.5,925.2
539.044,920.5
539.588,919.9
540.132,922.1
540.675,928.2
541.219,929.2
541.762,930.0
542.305,928.5
542.848,929.7
543.391,938.2
543.934,942.9
544.477,934.8
545.02,933.2
545.562,940.0
546.105,935.6
546.647,941.7
547.189,940.6
547.731,936.9
548.273,938.1
548.815,945.1
549.356,946.1
549.898,943.2
550.439,944.2
550.981,949.9
551.522,948.0
552.063,952.1
552.604,950.3
553.145,953.8
553.686,954.3
554.226,957.2
554.767,954.2
555.307,955.2
555.848,958.3
556.388,956.9
556.928,954.4
557.468,966.2
558.008,1012.9
558.547,970.9
559.087,961.4
559.626,964.6
560.166,962.9
560.705,961.0
561.244,961.0
561.783,964.8
562.322,962.3
562.861,971.5
563.4,984.9
563.939,988.0
564.477,977.6
565.015,989.2
565.554,985.7
566.092,993.7
566.63,983.6
567.168,973.1
567.706,975.8
568.244,979.8
568.781,978.7
569.319,979.5
569.857,978.5
570.394,984.5
570.931,984.3
571.468,993.8
572.005,992.4
572.542,995.3
573.079,998.0
573.616,996.5
574.153,995.2
574.689,1001.5
575.226,993.6
575.762,988.2
576.298,1001.8
576.834,1024.0
577.371,1001.5
577.907,995.2
578.442,991.6
578.978,995.2
579.514,991.9
580.049,992.3
580.585,991.2
581.12,999.2
581.656,994.4
582.191,1000.3
582.726,1001.7
583.261,1002.8
583.796,998.6
584.331,1002.8
584.865,1000.1
585.4,999.1
585.935,1005.9
586.469,1007.7
587.004,1025.4
587.538,1029.6
588.072,1013.9
588.606,1007.0
589.14,1009.9
589.674,1001.2
590.208,1005.6
590.742,1003.0
591.275,1001.5
591.809,1006.9
592.342,1002.1
592.876,998.3
593.409,1001.9
593.942,1005.8
594.476,1001.6
595.009,1007.2
595.542,1001.9
596.075,1005.1
596.607,1006.8
597.14,1005.3
597.673,1002.5
598.205,1010.3
598.738,1007.3
599.27,1008.3
599.803,1007.1
600.335,1004.4
600.867,1011.0
601.399,1007.8
601.931,1004.0
602.463,1010.6
602.995,1008.4
603.527,1005.8
604.058,1010.6
604.59,1006.7
605.122,1007.2
605.653,1007.2
606.184,1002.6
606.716,1002.4
607.247,1007.4
607.778,1002.4
608.309,1011.2
608.84,1014.6
609.371,1012.2
609.902,1011.0
610.433,1011.4
610.964,1011.4
611.494,1013.6
612.025,1012.0
612.556,1016.7
613.086,1017.8
613.616,1017.0
614.147,1022.1
614.677,1012.6
615.207,1014.4
615.737,1016.0
616.267,1015.9
616.797,1019.4
617.327,1019.3
617.857,1020.1
618.387,1016.6
618.917,1017.8
619.446,1020.7
619.976,1020.2
620.505,1021.6
621.035,1017.9
621.564,1022.2
622.093,1019.3
622.623,1025.3
623.152,1029.4
623.681,1024.6
624.21,1025.3
624.739,1017.6
625.268,1022.3
625.797,1020.6
626.326,1017.4
626.855,1025.5
627.383,1021.5
627.912,1027.3
628.441,1062.9
628.969,1054.2
629.498,1056.4
630.026,1058.3
630.554,1090.0
631.083,1270.7
631.611,1143.6
632.139,1080.5
632.667,1070.4
633.195,1111.4
633.724,1093.2
634.252,1048.6
634.779,1025.7
635.307,1020.3
635.835,1013.3
636.363,1014.7
636.891,1011.0
637.418,1007.9
637.946,1006.3
638.474,1007.4
639.001,1005.4
639.529,1009.4
640.056,1011.2
640.583,1003.3
641.111,1006.8
641.638,1009.2
642.165,1006.5
642.692,1006.6
643.22,1002.7
643.747,1003.1
644.274,992.4
644.801,997.0
645.328,996.7
645.854,994.9
646.381,990.0
646.908,989.7
647.435,998.5
647.962,996.4
648.488,991.3
649.015,992.5
649.542,990.3
650.068,987.4
650.595,989.9
651.121,985.1
651.648,981.8
652.174,985.2
652.7,986.1
653.227,977.6
653.753,985.9
654.279,980.2
654.805,977.7
655.331,985.6
655.858,978.1
656.384,981.1
656.91,983.5
657.436,975.8
657.962,979.4
658.488,981.3
659.013,980.8
659.539,980.2
660.065,981.2
660.591,976.9
661.117,972.4
661.642,973.4
662.168,976.3
662.694,969.4
663.088,971.9