File: spectra/VLFR_01-LDPE_nobio_Raman_2f8903da.csv
nm,Intensity
526.532,830.3
527.079,830.167
527.625,830.367
528.172,829.7
528.718,830.1
529.265,829.9
529.811,829.233
530.357,830.0
530.903,831.033
531.449,830.767
531.994,839.633
532.54,830.5
533.085,830.067
533.63,831.433
534.176,919.2
534.721,901.033
535.266,884.333
535.81,871.433
536.355,866.367
536.9,860.2
537.444,859.2
537.988,858.9
538.533,855.633
539.077,852.867
539.621,849.467
540.165,847.733
540.708,846.567
541.252,846.733
541.795,845.0
542.339,844.867
542.882,845.5
543.425,843.8
543.968,845.033
544.511,844.0
545.054,842.867
545.597,843.967
546.139,842.767
546.682,842.967
547.224,842.733
547.766,841.767
548.308,842.3
548.85,841.867
549.392,841.033
549.934,840.433
550.475,840.733
551.017,842.167
551.558,839.833
552.1,841.133
552.641,841.2
553.182,843.5
553.723,846.433
554.264,846.033
554.804,846.033
555.345,847.533
555.885,848.9
556.426,851.233
556.966,853.633
557.506,857.067
558.046,861.133
558.586,862.5
559.126,856.533
559.665,855.8
560.205,854.633
560.745,852.7
561.284,854.133
561.823,856.3
562.362,859.767
562.901,864.7
563.44,870.667
563.979,961.567
564.518,897.067
565.056,886.4
565.595,881.467
566.133,1010.1
566.671,886.1
567.21,874.7
567.748,874.933
568.285,870.9
568.823,871.7
569.361,876.2
569.899,879.167
570.436,887.6
570.974,898.167
571.511,1070.8
572.048,937.9
572.585,911.767
573.122,904.867
573.659,911.7
574.196,925.0
574.733,921.7
575.269,937.533
575.806,1007.9
576.342,1113.47
576.878,1066.53
577.414,1033.37
577.951,1016.63
578.486,1029.17
579.022,1051.27
579.558,1073.9
580.094,1094.6
580.629,1122.2
581.165,1141.23
581.7,1165.97
582.236,1185.77
582.771,1210.93
583.306,1228.73
583.841,1242.33
584.376,1251.73
584.911,1255.3
585.445,1259.8
585.98,1265.57
586.514,1269.3
587.049,1268.2
587.583,1273.3
588.117,1272.23
588.651,1268.6
589.186,1263.6
589.72,1263.0
590.253,1262.23
590.787,1264.07
591.321,1264.7
591.854,1261.03
592.388,1258.33
592.921,1253.7
593.455,1247.5
593.988,1241.4
594.521,1246.17
595.054,1245.83
595.587,1244.37
596.12,1245.87
596.653,1245.37
597.186,1249.97
597.718,1254.9
598.251,1257.8
598.783,1270.07
599.316,1273.5
599.848,1268.47
600.38,1273.27
600.912,1272.8
601.444,1262.83
601.976,1265.2
602.508,1256.73
603.04,1247.63
603.572,1235.37
604.103,1222.37
604.635,1210.4
605.167,1190.97
605.698,1173.37
606.229,1158.93
606.761,1149.33
607.292,1135.3
607.823,1124.33
608.354,1120.37
608.885,1105.83
609.416,1096.27
609.947,1090.63
610.477,1082.6
611.008,1075.4
611.539,1070.93
612.069,1061.4
612.6,1061.37
613.13,1053.9
613.66,1049.47
614.19,1048.3
614.721,1042.43
615.251,1037.63
615.781,1031.47
616.311,1026.77
616.841,1028.03
617.37,1027.63
617.9,1027.87
618.43,1024.57
618.96,1021.8
619.489,1022.1
620.019,1026.13
620.548,1025.13
621.077,1029.57
621.607,1037.4
622.136,1067.5
622.665,1058.37
623.194,1036.9
623.723,1030.5
624.252,1027.8
624.781,1034.4
625.31,1039.77
625.839,1054.8
626.368,1089.1
626.896,1349.57
627.425,1804.63
627.953,1512.93
628.482,1809.63
629.01,1650.8
629.539,1522.7
630.067,1413.8
630.596,1378.7
631.124,1218.0
631.652,1142.17
632.18,1112.07
632.708,1099.2
633.236,1093.83
633.764,1091.7
634.292,1091.03
634.82,1091.47
635.348,1091.37
635.876,1093.57
636.403,1090.4
636.931,1090.23
637.459,1086.7
637.986,1085.23
638.514,1080.4
639.041,1078.93
639.568,1078.67
640.096,1079.13
640.623,1076.8
641.15,1078.43
641.678,1076.9
642.205,1073.87
642.732,1072.17
643.259,1068.27
643.786,1062.97
644.313,1062.4
644.84,1059.5
645.367,1060.1
645.894,1058.87
646.421,1054.2
646.948,1054.2
647.474,1052.9
648.001,1051.17
648.528,1047.37
649.054,1044.83
649.581,1044.57
650.108,1045.9
650.634,1043.53
651.161,1044.77
651.687,1037.7
652.214,1042.6
652.74,1040.53
653.266,1039.87
653.793,1038.07
654.319,1038.73
654.845,1039.33
655.371,1034.33
655.897,1029.5
656.424,1026.57
656.95,1025.73
657.476,1022.03
658.002,1019.73
658.528,1013.3
659.054,1009.63
659.58,1004.0
660.106,999.2
660.631,992.667
661.157,986.4
661.683,979.4
662.209,975.3
662.735,970.933
663.129,965.067