File: spectra/VLFR_07-PET_nobio_Raman_6e0086b3.csv
nm,Intensity
791.75,12956.2
792.846,12093.2
793.942,11581.5
795.037,11596.8
796.133,11257.5
797.228,11362.0
798.324,11270.5
799.419,11286.3
800.514,11097.6
801.61,11251.5
802.705,11040.8
803.8,10791.7
804.894,10731.2
805.989,10591.2
807.084,10426.3
808.178,10304.3
809.273,10445.8
810.367,10181.8
811.461,10244.3
812.556,10100.3
813.65,10002.1
814.744,10029.5
815.837,9886.5
816.931,10026.0
818.025,9752.55
819.118,9704.5
820.212,9628.75
821.305,9545.65
822.398,9383.6
823.491,9415.5
824.585,9258.15
825.677,9692.55
826.77,9078.4
827.863,9038.25
828.956,8887.65
830.048,9055.55
831.14,8770.0
832.233,8611.0
833.325,8683.45
834.417,8499.6
835.509,8477.7
836.601,8520.85
837.692,8472.95
838.784,8347.65
839.876,8426.3
840.967,8791.75
842.058,8299.45
843.149,8260.2
844.24,8027.3
845.331,7766.5
846.422,7792.5
847.513,7755.75
848.604,7648.75
849.694,7550.4
850.784,7596.85
851.875,7583.55
852.965,7550.1
854.055,7574.3
855.145,7483.4
856.235,7381.05
857.324,7395.55
858.414,7549.95
859.503,7583.7
860.593,7374.9
861.682,7271.85
862.771,7126.2
863.86,7234.85
864.949,7231.55
866.038,7064.5
867.126,7039.65
868.215,6955.75
869.303,7009.95
870.391,7019.2
871.479,7343.1
872.567,7395.0
873.655,7289.0
874.743,6954.8
875.831,6759.8
876.918,6730.5
878.006,6701.5
879.093,6647.15
880.18,6636.05
881.267,6567.45
882.354,6596.85
883.441,6462.4
884.527,6449.3
885.614,6448.3
886.7,6370.5
887.786,6229.4
888.872,6252.65
889.958,6168.75
891.044,6210.65
892.13,6121.15
893.216,6037.85
894.301,5978.7
895.386,6022.7
896.472,5992.9
897.557,6659.0
898.642,6592.75
899.726,5948.9
900.811,5791.0
901.896,5642.95
902.98,5611.4
904.064,5653.7
905.148,5631.05
906.232,5961.8
907.316,6215.05
908.4,5909.1
909.484,5562.95
910.567,5443.45
911.65,5309.8
912.734,5351.0
913.817,5240.95
914.9,5199.95
915.982,5145.5
917.065,5097.05
918.147,5127.9
919.23,5094.75
920.312,5041.95
921.394,4971.25
922.476,4975.85
923.558,4931.9
924.639,4940.4
925.721,4884.25
926.802,4835.55
927.884,4823.65
928.965,4772.25
930.046,4714.2
931.126,4731.25
932.207,4690.2
933.288,4652.85
934.368,4649.5
935.448,4609.3
936.528,4606.9
937.608,4524.15
938.688,4515.65
939.767,4510.1
940.847,4487.25
941.926,4444.3
943.005,4438.2
944.084,4414.35
945.163,4426.05
946.242,4354.25
947.321,4362.65
948.399,4330.9
949.477,4322.95
950.556,4289.75
951.634,4276.6
952.711,4265.95
953.789,4245.7
954.867,4225.25
955.944,4216.25
957.021,4201.0
958.098,4178.25
959.175,4166.45
960.252,4153.3
961.328,4122.4
962.405,4129.65
963.481,4119.75
964.557,4093.7
965.633,4081.35
966.709,4061.2
967.785,4063.55
968.86,4055.35
969.936,4050.0
971.011,4022.2
972.086,4019.5
973.161,3997.0
974.235,3988.55
975.31,3985.2
976.384,3971.5
977.459,3970.65
978.533,3960.9
979.607,3942.05
980.68,3933.85
981.754,3928.9
982.827,3925.7
983.901,3920.5
984.974,3912.8
986.047,3891.65
987.119,3894.75
988.192,3894.3
989.264,3878.0
990.337,3869.4
991.409,3863.55
992.481,3854.35
993.553,3851.5
994.624,3845.8
995.696,3841.4
996.767,3835.7
997.838,3833.0
998.909,3819.75
999.98,3819.25
1001.05,3815.95
1002.12,3808.15
1003.19,3811.85
1004.26,3807.0
1005.33,3797.5
1006.4,3791.8
1007.47,3792.45
1008.54,3784.95
1009.61,3782.4
1010.68,3780.25
1011.75,3775.2
1012.82,3774.0
1013.88,3769.15
1014.95,3771.15
1016.02,3763.7
1017.09,3764.8
1018.16,3761.4
1019.22,3759.5
1020.29,3763.35
1021.36,3769.05
1022.43,3768.7
1023.49,3758.8
1024.56,3757.5
1025.63,3749.8
1026.69,3744.8
1027.76,3741.3
1028.83,3737.3
1029.89,3732.0
1030.96,3735.1
1032.02,3731.75
1033.09,3736.3
1034.15,3741.65
1035.22,3738.7
1036.28,3732.25
1037.35,3728.2
1038.41,3725.1
1039.48,3724.55
1040.54,3723.1
1041.6,3721.15
1042.67,3718.2
1043.73,3716.0
1044.79,3715.55
1045.86,3716.4
1046.92,3715.1
1047.98,3714.2
1049.05,3714.2
1050.11,3713.55
1051.17,3712.9
1052.23,3712.15
1053.29,3711.45
1054.36,3710.55
1055.42,3713.25
1056.48,3709.85
1057.54,3709.0
1058.6,3710.45
1059.66,3711.2
1060.72,3709.8
1061.78,3709.2
1062.84,3709.85
1063.9,3710.15
1064.96,3708.55
1066.02,3708.4
1067.08,3707.95
1067.88,3706.9