File: spectra/VLFR_08-PLA_bio_Raman_f2128cf0.csv
nm,Intensity
526.532,833.2
527.079,832.85
527.625,833.1
528.172,832.7
528.718,833.8
529.265,832.65
529.811,832.85
530.357,833.4
530.903,832.7
531.449,833.1
531.994,843.2
532.54,833.95
533.085,834.0
533.63,834.85
534.176,942.2
534.721,930.5
535.266,920.3
535.81,912.15
536.355,917.1
536.9,913.05
537.444,912.8
537.988,912.45
538.533,910.05
539.077,912.55
539.621,912.25
540.165,912.6
540.708,917.5
541.252,918.65
541.795,915.7
542.339,918.65
542.882,917.4
543.425,924.95
543.968,929.6
544.511,923.85
545.054,920.9
545.597,920.65
546.139,922.65
546.682,924.15
547.224,922.95
547.766,925.0
548.308,927.05
548.85,927.2
549.392,928.95
549.934,929.1
550.475,930.0
551.017,930.8
551.558,935.45
552.1,936.0
552.641,937.3
553.182,936.0
553.723,941.85
554.264,943.8
554.804,938.45
555.345,935.35
555.885,935.75
556.426,936.65
556.966,940.0
557.506,945.95
558.046,984.25
558.586,947.05
559.126,946.35
559.665,944.75
560.205,947.1
560.745,945.1
561.284,944.95
561.823,945.05
562.362,944.8
562.901,953.3
563.44,961.95
563.979,955.75
564.518,953.85
565.056,959.5
565.595,958.9
566.133,970.85
566.671,959.95
567.21,952.05
567.748,952.25
568.285,958.25
568.823,958.6
569.361,959.55
569.899,960.0
570.436,958.8
570.974,960.65
571.511,966.05
572.048,970.1
572.585,969.7
573.122,967.35
573.659,969.25
574.196,967.15
574.733,971.0
575.269,963.65
575.806,966.2
576.342,974.85
576.878,990.95
577.414,971.65
577.951,969.0
578.486,971.15
579.022,968.55
579.558,970.75
580.094,967.5
580.629,965.1
581.165,968.35
581.7,968.5
582.236,965.9
582.771,972.65
583.306,970.1
583.841,975.55
584.376,973.05
584.911,973.5
585.445,974.6
585.98,975.45
586.514,977.2
587.049,988.3
587.583,996.95
588.117,981.6
588.651,972.9
589.186,974.25
589.72,972.3
590.253,971.85
590.787,974.55
591.321,973.9
591.854,973.5
592.388,973.4
592.921,971.75
593.455,968.95
593.988,967.15
594.521,973.05
595.054,973.1
595.587,974.25
596.12,968.65
596.653,972.25
597.186,976.1
597.718,975.45
598.251,973.2
598.783,973.65
599.316,972.75
599.848,972.6
600.38,971.7
600.912,970.3
601.444,970.55
601.976,971.4
602.508,968.4
603.04,971.7
603.572,970.2
604.103,969.25
604.635,971.15
605.167,965.0
605.698,965.9
606.229,964.1
606.761,964.65
607.292,967.5
607.823,969.05
608.354,964.85
608.885,965.7
609.416,964.0
609.947,965.0
610.477,965.0
611.008,960.55
611.539,963.75
612.069,962.55
612.6,968.1
613.13,967.85
613.66,966.8
614.19,966.6
614.721,964.75
615.251,965.0
615.781,963.75
616.311,963.7
616.841,964.65
617.37,964.65
617.9,966.05
618.43,963.8
618.96,964.05
619.489,962.15
620.019,963.65
620.548,962.9
621.077,963.2
621.607,959.6
622.136,963.3
622.665,964.9
623.194,966.5
623.723,964.95
624.252,964.25
624.781,964.35
625.31,961.7
625.839,959.9
626.368,961.3
626.896,958.75
627.425,962.4
627.953,960.75
628.482,987.3
629.01,978.8
629.539,981.3
630.067,983.8
630.596,1007.8
631.124,1141.0
631.652,1041.75
632.18,1000.6
632.708,993.3
633.236,1024.9
633.764,1008.4
634.292,978.7
634.82,962.2
635.348,957.0
635.876,954.55
636.403,954.6
636.931,953.25
637.459,949.25
637.986,951.4
638.514,951.1
639.041,948.6
639.568,950.95
640.096,948.4
640.623,949.25
641.15,949.0
641.678,949.55
642.205,948.25
642.732,946.65
643.259,946.25
643.786,941.75
644.313,940.05
644.84,943.15
645.367,941.0
645.894,943.2
646.421,941.7
646.948,942.55
647.474,940.55
648.001,938.95
648.528,938.2
649.054,939.15
649.581,938.75
650.108,937.75
650.634,933.85
651.161,936.4
651.687,933.85
652.214,938.35
652.74,933.55
653.266,935.7
653.793,933.05
654.319,933.2
654.845,933.95
655.371,931.45
655.897,933.1
656.424,932.85
656.95,934.45
657.476,930.2
658.002,930.15
658.528,933.55
659.054,931.9
659.58,933.25
660.106,929.9
660.631,929.6
661.157,928.1
661.683,930.7
662.209,927.2
662.735,925.7
663.129,928.85