File: spectra/VLFR_08-PLA_bio_Raman_b1625ae1.csv
nm,Intensity
528.626,1863.22
529.132,1863.2
529.637,1863.57
530.143,1863.28
530.648,1863.85
531.153,1866.38
531.658,1905.32
532.164,4480.9
532.669,1865.47
533.174,1864.32
533.679,1940.05
534.184,2205.38
534.689,2221.23
535.194,2233.25
535.699,2245.4
536.203,2228.07
536.708,2236.07
537.213,2242.05
537.717,2265.82
538.222,2261.25
538.726,2256.43
539.231,2259.65
539.735,2262.43
540.239,2260.02
540.744,2283.98
541.248,2292.98
541.752,2306.48
542.256,2297.25
542.76,2309.27
543.264,2307.82
543.768,2334.05
544.272,2336.77
544.776,2332.48
545.28,2332.38
545.784,2344.38
546.287,2327.02
546.791,2347.57
547.294,2341.05
547.798,2356.15
548.301,2364.48
548.805,2365.0
549.308,2362.9
549.811,2370.68
550.315,2389.45
550.818,2392.8
551.321,2396.75
551.824,2419.13
552.327,2420.23
552.83,2394.05
553.333,2398.85
553.835,2420.23
554.338,2427.15
554.841,2433.85
555.343,2430.82
555.846,2432.6
556.349,2421.2
556.851,2423.48
557.353,2446.18
557.856,2498.7
558.358,2484.98
558.86,2435.05
559.362,2457.25
559.864,2459.05
560.366,2452.38
560.868,2488.8
561.37,2578.18
561.872,2504.2
562.374,2480.4
562.876,2494.4
563.377,2516.25
563.879,2496.7
564.38,2503.75
564.882,2525.15
565.383,2519.4
565.885,2504.98
566.386,2522.2
566.887,2522.15
567.388,2527.2
567.889,2521.65
568.391,2513.93
568.892,2507.73
569.392,2538.1
569.893,2522.9
570.394,2527.0
570.895,2507.75
571.395,2547.82
571.896,2547.38
572.397,2555.07
572.897,2549.65
573.397,2560.3
573.898,2553.2
574.398,2537.98
574.898,2563.95
575.398,2553.13
575.898,2562.65
576.398,2576.85
576.898,2608.57
577.398,2563.48
577.898,2561.8
578.398,2544.13
578.897,2541.6
579.397,2559.57
579.896,2582.25
580.396,2572.1
580.895,2579.88
581.395,2583.77
581.894,2571.55
582.393,2575.18
582.892,2584.2
583.391,2591.93
583.89,2577.57
584.389,2605.63
584.888,2579.27
585.387,2573.07
585.886,2573.75
586.384,2589.55
586.883,2604.5
587.381,2620.07
587.88,2619.55
588.378,2592.5
588.876,2540.95
589.375,2564.07
589.873,2545.68
590.371,2572.25
590.869,2564.05
591.367,2579.07
591.865,2559.32
592.363,2573.05
592.86,2575.7
593.358,2568.18
593.856,2564.05
594.353,2561.32
594.851,2561.63
595.348,2570.85
595.845,2569.15
596.342,2596.95
596.84,2562.65
597.337,2568.1
597.834,2574.65
598.331,2572.02
598.828,2568.35
599.324,2599.1
599.821,2587.48
600.318,2583.63
600.814,2590.7
601.311,2574.35
601.807,2571.15
602.304,2557.48
602.8,2598.95
603.296,2584.1
603.792,2576.7
604.288,2569.18
604.784,2582.63
605.28,2575.93
605.776,2584.5
606.272,2579.75
606.767,2581.57
607.263,2569.43
607.759,2573.55
608.254,2578.88
608.749,2576.85
609.245,2566.5
609.74,2568.73
610.235,2559.43
610.73,2542.15
611.225,2553.5
611.72,2557.75
612.215,2551.0
612.71,2540.65
613.204,2568.6
613.699,2533.93
614.194,2551.43
614.688,2557.57
615.182,2529.9
615.677,2560.27
616.171,2521.95
616.665,2536.07
617.159,2529.07
617.653,2550.43
618.147,2532.1
618.641,2527.95
619.135,2527.55
619.628,2539.6
620.122,2544.7
620.615,2515.0
621.109,2531.77
621.602,2528.8
622.095,2517.1
622.589,2516.73
623.082,2512.38
623.575,2525.0
624.068,2509.05
624.561,2515.45
625.053,2499.73
625.546,2493.75
626.039,2481.18
626.531,2516.3
627.024,2496.05
627.516,2492.1
628.008,2480.7
628.501,2515.4
628.993,2516.93
629.485,2498.18
629.977,2496.1
630.469,2530.55
630.96,2645.57
631.452,2576.95
631.944,2526.18
632.435,2518.6
632.927,2534.93
633.418,2534.6
633.91,2505.85
634.401,2465.27
634.892,2462.18
635.383,2450.13
635.874,2434.35
636.365,2426.25
636.856,2440.25
637.346,2434.6
637.837,2429.0
638.327,2428.3
638.818,2416.48
639.308,2418.32
639.799,2397.27
640.289,2413.6
640.779,2392.5
641.269,2384.0
641.759,2386.13
642.249,2393.82
642.738,2390.43
643.228,2375.98
643.718,2369.43
644.207,2383.73
644.697,2385.63
645.186,2378.2
645.675,2382.1
646.164,2362.0
646.653,2354.93
647.142,2343.77
647.631,2348.07
648.12,2334.35
648.609,2339.45
649.098,2351.0
649.586,2306.45
650.075,2341.5
650.563,2345.2
651.051,2320.68
651.539,2327.8
652.027,2313.98
652.515,2296.02
653.003,2299.65
653.491,2272.3
653.979,2281.5
654.467,2271.13
654.954,2252.88
655.442,2259.2
655.929,2254.43
656.416,2203.23
656.904,2222.43
657.391,2233.2
657.878,2238.4
658.365,2211.1
658.851,2220.63
659.338,2200.13
659.825,2203.68
660.311,2208.2
660.798,2198.4
661.041,2205.73