File: spectra/VLFR_07-PET_nobio_Raman_bbe4ad35.csv
nm,Intensity
791.75,14587.4
792.846,13467.8
793.942,12612.8
795.037,12679.5
796.133,12518.2
797.228,12359.3
798.324,12401.4
799.419,12242.8
800.514,12159.9
801.61,12318.0
802.705,11914.4
803.8,11654.7
804.894,11587.2
805.989,11456.5
807.084,11332.5
808.178,11332.2
809.273,11174.3
810.367,11026.5
811.461,10954.0
812.556,10886.0
813.65,10742.0
814.744,10786.8
815.837,10517.8
816.931,10644.7
818.025,10435.9
819.118,10423.2
820.212,10311.1
821.305,10090.8
822.398,10095.8
823.491,9992.0
824.585,9837.65
825.677,10326.2
826.77,9743.6
827.863,9570.1
828.956,9524.05
830.048,9603.95
831.14,9341.55
832.233,9196.5
833.325,9225.35
834.417,9083.9
835.509,8978.25
836.601,9176.45
837.692,9074.1
838.784,8992.6
839.876,8908.45
840.967,9336.95
842.058,8941.25
843.149,8783.45
844.24,8649.6
845.331,8300.45
846.422,8384.55
847.513,8245.4
848.604,8163.4
849.694,8121.9
850.784,8221.0
851.875,8084.3
852.965,8132.8
854.055,7995.7
855.145,7911.55
856.235,7850.3
857.324,7914.6
858.414,7979.3
859.503,8057.6
860.593,7850.8
861.682,7692.25
862.771,7607.65
863.86,7653.2
864.949,7612.6
866.038,7432.2
867.126,7383.85
868.215,7417.0
869.303,7389.15
870.391,7393.0
871.479,7679.2
872.567,7855.0
873.655,7696.7
874.743,7289.2
875.831,7170.0
876.918,7062.8
878.006,7041.25
879.093,7032.55
880.18,6926.3
881.267,6940.3
882.354,6930.25
883.441,6805.0
884.527,6774.1
885.614,6755.8
886.7,6625.55
887.786,6610.65
888.872,6525.15
889.958,6509.4
891.044,6551.65
892.13,6399.6
893.216,6274.9
894.301,6261.3
895.386,6223.55
896.472,6286.8
897.557,7053.3
898.642,6998.5
899.726,6277.25
900.811,6036.2
901.896,5899.35
902.98,5855.45
904.064,5883.25
905.148,5875.25
906.232,6202.8
907.316,6568.8
908.4,6223.1
909.484,5788.35
910.567,5672.55
911.65,5576.6
912.734,5464.25
913.817,5482.8
914.9,5419.15
915.982,5323.75
917.065,5284.35
918.147,5301.6
919.23,5275.5
920.312,5214.05
921.394,5136.2
922.476,5148.25
923.558,5097.2
924.639,5072.05
925.721,5056.25
926.802,5001.35
927.884,4981.15
928.965,4898.25
930.046,4868.3
931.126,4824.6
932.207,4807.35
933.288,4770.1
934.368,4755.85
935.448,4723.8
936.528,4661.55
937.608,4647.5
938.688,4608.3
939.767,4610.1
940.847,4587.3
941.926,4539.45
943.005,4525.25
944.084,4496.95
945.163,4488.35
946.242,4427.95
947.321,4434.75
948.399,4421.5
949.477,4391.1
950.556,4352.35
951.634,4346.9
952.711,4321.4
953.789,4295.0
954.867,4287.2
955.944,4273.7
957.021,4250.05
958.098,4242.4
959.175,4221.25
960.252,4204.85
961.328,4177.95
962.405,4182.35
963.481,4160.95
964.557,4125.45
965.633,4127.95
966.709,4110.2
967.785,4088.8
968.86,4081.7
969.936,4079.75
971.011,4052.0
972.086,4057.3
973.161,4046.3
974.235,4023.3
975.31,4014.65
976.384,3998.85
977.459,3992.85
978.533,3980.65
979.607,3971.85
980.68,3960.25
981.754,3951.35
982.827,3938.25
983.901,3941.05
984.974,3931.45
986.047,3926.45
987.119,3911.95
988.192,3913.6
989.264,3895.3
990.337,3886.85
991.409,3882.3
992.481,3877.6
993.553,3873.0
994.624,3865.65
995.696,3858.8
996.767,3852.1
997.838,3843.3
998.909,3836.7
999.98,3833.65
1001.05,3832.35
1002.12,3820.85
1003.19,3822.8
1004.26,3817.3
1005.33,3809.95
1006.4,3805.25
1007.47,3802.0
1008.54,3796.9
1009.61,3789.2
1010.68,3786.4
1011.75,3781.25
1012.82,3783.35
1013.88,3779.05
1014.95,3783.05
1016.02,3774.55
1017.09,3771.35
1018.16,3771.4
1019.22,3767.4
1020.29,3768.8
1021.36,3773.05
1022.43,3776.0
1023.49,3768.95
1024.56,3765.4
1025.63,3758.15
1026.69,3751.15
1027.76,3748.9
1028.83,3742.55
1029.89,3742.15
1030.96,3735.8
1032.02,3736.75
1033.09,3738.85
1034.15,3745.6
1035.22,3743.45
1036.28,3737.1
1037.35,3731.5
1038.41,3727.6
1039.48,3725.65
1040.54,3723.4
1041.6,3721.05
1042.67,3722.95
1043.73,3719.85
1044.79,3718.9
1045.86,3718.15
1046.92,3716.55
1047.98,3716.1
1049.05,3716.2
1050.11,3715.9
1051.17,3714.2
1052.23,3715.15
1053.29,3716.25
1054.36,3713.9
1055.42,3712.85
1056.48,3713.0
1057.54,3712.55
1058.6,3711.05
1059.66,3710.65
1060.72,3711.0
1061.78,3710.45
1062.84,3709.35
1063.9,3710.55
1064.96,3710.55
1066.02,3708.8
1067.08,3708.3
1067.88,3708.55