File: spectra/VLFR_08-PLA_nobio_Raman_5d370759.csv
cm-1,Intensity
-123.878,1855.7
-105.821,1854.95
-87.8007,1854.4
-69.8161,1854.75
-51.8675,1856.9
-33.9547,1855.8
-16.0776,1891.45
1.76388,3124.9
19.5698,1857.5
37.3403,1857.35
55.0755,2043.25
72.7754,2478.35
90.4402,2356.75
108.07,2314.6
125.665,2250.6
143.225,2246.0
160.75,2248.1
178.241,2214.4
195.697,2224.35
213.119,2189.95
230.506,2194.55
247.859,2220.4
265.178,2179.6
282.463,2208.05
299.713,2231.0
316.93,2247.95
334.113,2227.25
351.263,2220.05
368.379,2241.05
385.461,2285.45
402.51,2347.25
419.526,2273.15
436.508,2248.75
453.458,2226.85
470.374,2209.2
487.257,2223.7
504.107,2227.65
520.925,2231.3
537.71,2239.15
554.462,2249.8
571.182,2251.05
587.87,2267.65
604.525,2264.25
621.148,2274.05
637.739,2282.7
654.297,2290.45
670.824,2317.0
687.319,2314.6
703.782,2309.4
720.213,2310.85
736.613,2347.3
752.981,2335.05
769.317,2327.8
785.623,2312.0
801.897,2309.15
818.139,2310.55
834.351,2320.65
850.532,2396.7
866.681,2770.9
882.8,2620.55
898.888,2403.9
914.945,2385.95
930.972,2384.15
946.968,2358.45
962.934,2363.75
978.869,2354.75
994.774,2356.75
1010.65,2374.75
1026.49,2416.55
1042.31,2536.3
1058.09,2450.85
1073.85,2416.2
1089.57,2488.45
1105.27,2508.3
1120.93,2553.05
1136.57,2524.35
1152.18,2400.0
1167.75,2414.0
1183.3,2438.4
1198.82,2428.9
1214.31,2434.05
1229.77,2412.2
1245.2,2436.2
1260.6,2395.75
1275.97,2418.7
1291.32,2508.1
1306.63,2519.95
1321.92,2483.3
1337.18,2491.45
1352.41,2495.25
1367.61,2495.25
1382.78,2506.3
1397.93,2433.9
1413.05,2425.8
1428.14,2453.85
1443.2,2622.2
1458.23,2706.45
1473.23,2496.7
1488.21,2441.15
1503.16,2438.9
1518.08,2435.25
1532.97,2446.45
1547.84,2439.35
1562.68,2440.25
1577.49,2451.75
1592.27,2443.6
1607.03,2441.95
1621.76,2445.4
1636.46,2448.2
1651.14,2467.95
1665.78,2446.2
1680.41,2475.3
1695.0,2457.7
1709.57,2461.65
1724.11,2455.3
1738.62,2526.85
1753.11,2661.2
1767.57,2777.95
1782.01,2635.0
1796.41,2506.7
1810.8,2467.0
1825.15,2441.95
1839.48,2455.0
1853.79,2444.55
1868.06,2446.8
1882.31,2451.95
1896.54,2469.55
1910.74,2447.05
1924.91,2462.9
1939.06,2447.55
1953.19,2444.7
1967.28,2450.85
1981.35,2435.5
1995.4,2461.9
2009.42,2449.85
2023.42,2449.6
2037.39,2447.75
2051.33,2463.85
2065.25,2464.85
2079.15,2446.35
2093.01,2443.95
2106.86,2441.85
2120.68,2440.75
2134.47,2438.15
2148.24,2436.8
2161.99,2440.5
2175.71,2448.9
2189.41,2441.3
2203.08,2438.7
2216.73,2435.3
2230.35,2422.95
2243.95,2436.65
2257.52,2433.1
2271.07,2428.85
2284.6,2441.3
2298.1,2417.05
2311.58,2425.35
2325.03,2433.35
2338.46,2430.1
2351.87,2425.55
2365.25,2401.7
2378.61,2408.0
2391.94,2403.2
2405.26,2417.6
2418.54,2405.85
2431.81,2390.8
2445.05,2402.1
2458.27,2397.55
2471.46,2406.55
2484.63,2384.75
2497.78,2387.3
2510.9,2387.2
2524.0,2392.15
2537.08,2385.9
2550.14,2395.25
2563.17,2395.7
2576.18,2399.5
2589.17,2387.3
2602.13,2384.9
2615.07,2383.65
2627.99,2389.75
2640.89,2361.9
2653.76,2389.65
2666.61,2369.1
2679.44,2372.25
2692.25,2367.3
2705.03,2368.95
2717.79,2390.0
2730.53,2416.35
2743.25,2441.0
2755.94,2417.0
2768.61,2388.05
2781.27,2374.75
2793.89,2358.0
2806.5,2365.15
2819.09,2358.6
2831.65,2363.75
2844.19,2361.65
2856.71,2378.85
2869.21,2480.75
2881.69,2752.8
2894.14,2664.55
2906.58,2641.85
2918.99,2703.0
2931.38,2988.4
2943.75,4675.2
2956.1,3810.0
2968.42,3052.05
2980.73,2899.0
2993.01,3187.5
3005.28,3341.7
3017.52,2881.45
3029.74,2557.5
3041.94,2425.0
3054.12,2358.05
3066.28,2325.55
3078.42,2344.45
3090.54,2319.05
3102.63,2311.8
3114.71,2305.65
3126.77,2303.9
3138.8,2309.05
3150.82,2288.5
3162.81,2289.0
3174.78,2300.55
3186.74,2284.7
3198.67,2285.2
3210.58,2280.75
3222.47,2281.55
3234.35,2279.05
3246.2,2281.75
3258.03,2273.55
3269.84,2243.15
3281.64,2259.4
3293.41,2263.75
3305.16,2242.0
3316.89,2241.85
3328.61,2237.8
3340.3,2221.6
3351.97,2218.1
3363.63,2236.4
3375.26,2226.0
3386.88,2222.4
3398.47,2221.4
3410.05,2185.4
3421.6,2201.6
3433.14,2202.95
3444.66,2195.75
3456.15,2194.2
3467.63,2185.05
3479.09,2186.65
3490.53,2179.85
3501.96,2180.75
3513.36,2171.35
3524.74,2165.15
3536.11,2167.15
3547.45,2151.6
3558.78,2158.8
3570.09,2145.15
3581.37,2144.1
3592.64,2143.5
3603.9,2139.05
3615.13,2137.25
3626.34,2127.0
3637.54,2123.4
3648.72,2122.45
3659.87,2119.05
3665.45,2115.3