File: spectra/VLFR_08-PLA_nobio_Raman_9c9ab1c9.csv
nm,Intensity
526.486,831.2
527.033,831.4
527.579,830.9
528.126,830.6
528.672,829.9
529.219,830.6
529.765,830.6
530.311,830.4
530.857,830.2
531.403,830.7
531.948,833.0
532.494,831.2
533.039,831.0
533.585,830.9
534.13,1042.6
534.675,1010.0
535.22,977.8
535.764,961.2
536.309,950.1
536.854,959.2
537.398,946.6
537.942,942.3
538.486,936.9
539.03,935.2
539.574,933.1
540.118,924.2
540.662,942.3
541.205,941.6
541.749,936.7
542.292,933.1
542.835,930.0
543.378,954.9
543.921,961.9
544.464,946.4
545.006,934.8
545.549,931.9
546.091,932.3
546.634,932.9
547.176,936.9
547.718,936.2
548.26,938.4
548.802,939.9
549.343,945.8
549.885,941.9
550.426,942.5
550.968,948.6
551.509,949.6
552.05,951.0
552.591,954.2
553.132,953.8
553.673,949.3
554.214,961.3
554.754,958.5
555.295,947.9
555.835,946.1
556.375,945.4
556.915,951.9
557.455,968.4
557.995,1067.3
558.535,985.2
559.075,969.4
559.614,961.8
560.154,964.3
560.693,961.5
561.232,956.0
561.772,951.9
562.311,957.2
562.85,968.6
563.388,999.2
563.927,980.7
564.466,972.2
565.004,999.0
565.543,991.4
566.081,1015.3
566.619,989.6
567.157,969.0
567.695,975.6
568.233,973.3
568.771,980.8
569.309,981.0
569.846,978.0
570.384,982.9
570.921,977.5
571.458,993.8
571.995,998.7
572.532,993.8
573.069,996.3
573.606,996.4
574.143,988.1
574.68,1000.6
575.216,983.5
575.753,990.2
576.289,1000.6
576.825,1057.5
577.361,1008.1
577.897,986.0
578.433,989.8
578.969,987.5
579.505,987.1
580.041,988.4
580.576,987.5
581.112,989.2
581.647,991.9
582.183,989.6
582.718,987.8
583.253,993.6
583.788,992.4
584.323,998.1
584.858,989.7
585.392,997.0
585.927,995.2
586.462,1006.2
586.996,1040.0
587.53,1066.1
588.065,1021.1
588.599,1000.5
589.133,992.8
589.667,987.8
590.201,994.3
590.735,995.8
591.268,996.9
591.802,995.7
592.335,996.9
592.869,988.6
593.402,991.2
593.936,992.6
594.469,988.4
595.002,996.5
595.535,991.1
596.068,993.1
596.601,992.1
597.133,992.5
597.666,991.7
598.199,995.6
598.731,996.4
599.264,998.3
599.796,996.2
600.328,998.0
600.86,993.2
601.393,993.5
601.925,988.6
602.457,990.9
602.988,994.8
603.52,992.4
604.052,992.3
604.583,995.1
605.115,990.8
605.646,984.6
606.178,988.2
606.709,988.0
607.24,983.1
607.771,987.3
608.302,991.3
608.833,989.3
609.364,992.0
609.895,990.8
610.426,989.3
610.957,985.6
611.487,990.0
612.018,992.7
612.548,990.8
613.078,990.0
613.609,988.0
614.139,991.4
614.669,995.3
615.199,990.9
615.729,993.1
616.259,988.6
616.789,990.3
617.319,992.9
617.849,990.5
618.378,988.5
618.908,981.4
619.437,987.8
619.967,990.8
620.496,986.2
621.025,986.1
621.555,982.1
622.084,990.9
622.613,993.3
623.142,999.9
623.671,999.2
624.2,996.6
624.729,986.2
625.258,989.4
625.786,993.5
626.315,988.4
626.844,986.5
627.372,986.3
627.901,995.1
628.429,1058.9
628.957,1050.1
629.486,1050.3
630.014,1046.3
630.542,1109.0
631.07,1474.1
631.598,1253.0
632.126,1115.7
632.654,1095.6
633.182,1180.6
633.71,1144.3
634.237,1058.3
634.765,1002.3
635.293,993.1
635.82,983.3
636.348,980.4
636.875,977.8
637.403,978.8
637.93,978.2
638.458,973.5
638.985,971.1
639.512,973.9
640.039,974.9
640.566,972.4
641.093,972.8
641.62,970.9
642.147,970.2
642.674,971.2
643.201,971.5
643.728,966.5
644.255,964.1
644.781,965.6
645.308,961.0
645.835,960.7
646.361,957.0
646.888,960.6
647.414,957.0
647.941,961.1
648.467,957.0
648.993,956.2
649.52,955.7
650.046,953.0
650.572,949.8
651.098,952.1
651.625,957.2
652.151,958.3
652.677,955.1
653.203,951.1
653.729,958.0
654.255,949.8
654.78,951.2
655.306,949.1
655.832,949.0
656.358,950.5
656.884,952.3
657.409,953.0
657.935,947.6
658.461,948.3
658.986,947.9
659.512,948.8
660.037,944.9
660.563,947.7
661.088,943.6
661.614,944.8
662.139,943.9
662.664,946.5
663.058,943.0