File: spectra/VLFR_07-PET_bio_Raman_dc7a9a36.csv
nm,Intensity
791.75,8751.65
792.846,8327.15
793.942,8169.15
795.037,8038.85
796.133,7990.35
797.228,7907.4
798.324,7912.55
799.419,7950.7
800.514,7813.15
801.61,7875.55
802.705,7799.95
803.8,7721.6
804.894,7652.4
805.989,7677.4
807.084,7631.65
808.178,7520.65
809.273,7435.25
810.367,7427.95
811.461,7427.55
812.556,7359.55
813.65,7274.3
814.744,7237.0
815.837,7157.15
816.931,7121.1
818.025,6983.8
819.118,7080.75
820.212,6991.95
821.305,6989.05
822.398,6888.35
823.491,6806.7
824.585,6759.8
825.677,6906.85
826.77,6754.3
827.863,6691.85
828.956,6558.2
830.048,6612.65
831.14,6654.65
832.233,6509.35
833.325,6464.65
834.417,6488.4
835.509,6370.55
836.601,6454.1
837.692,6471.95
838.784,6467.35
839.876,6334.95
840.967,6504.1
842.058,6424.3
843.149,6275.25
844.24,6311.95
845.331,6195.25
846.422,6118.7
847.513,6119.5
848.604,6055.15
849.694,6026.45
850.784,6021.85
851.875,5995.7
852.965,5942.3
854.055,5993.65
855.145,5909.3
856.235,5902.15
857.324,5890.05
858.414,5924.25
859.503,5948.35
860.593,5838.85
861.682,5812.5
862.771,5780.3
863.86,5776.35
864.949,5684.1
866.038,5690.05
867.126,5663.15
868.215,5641.3
869.303,5616.75
870.391,5666.2
871.479,5724.55
872.567,5771.65
873.655,5733.8
874.743,5615.35
875.831,5537.4
876.918,5524.65
878.006,5460.05
879.093,5414.8
880.18,5431.35
881.267,5396.6
882.354,5382.5
883.441,5351.5
884.527,5361.6
885.614,5350.05
886.7,5283.55
887.786,5264.05
888.872,5237.3
889.958,5194.5
891.044,5215.75
892.13,5165.65
893.216,5140.8
894.301,5095.65
895.386,5095.9
896.472,5063.95
897.557,5225.95
898.642,5314.5
899.726,5163.3
900.811,4976.6
901.896,4902.15
902.98,4910.35
904.064,4920.6
905.148,4885.4
906.232,4958.6
907.316,5079.15
908.4,5041.35
909.484,4885.7
910.567,4794.6
911.65,4754.85
912.734,4703.2
913.817,4675.25
914.9,4637.75
915.982,4609.15
917.065,4621.9
918.147,4583.7
919.23,4554.15
920.312,4529.6
921.394,4528.2
922.476,4525.5
923.558,4488.25
924.639,4467.45
925.721,4437.55
926.802,4419.05
927.884,4405.15
928.965,4369.6
930.046,4347.35
931.126,4321.55
932.207,4307.35
933.288,4319.25
934.368,4263.35
935.448,4251.6
936.528,4230.95
937.608,4223.2
938.688,4226.85
939.767,4212.8
940.847,4192.45
941.926,4167.0
943.005,4152.3
944.084,4137.45
945.163,4121.4
946.242,4116.9
947.321,4097.65
948.399,4104.05
949.477,4074.4
950.556,4065.4
951.634,4055.4
952.711,4047.3
953.789,4041.9
954.867,4033.2
955.944,4016.95
957.021,4012.35
958.098,3996.45
959.175,3987.05
960.252,3990.5
961.328,3976.3
962.405,3974.45
963.481,3958.7
964.557,3953.75
965.633,3947.9
966.709,3943.35
967.785,3935.85
968.86,3933.45
969.936,3919.75
971.011,3917.15
972.086,3911.45
973.161,3906.65
974.235,3892.8
975.31,3889.25
976.384,3880.55
977.459,3880.9
978.533,3875.3
979.607,3873.05
980.68,3861.7
981.754,3865.95
982.827,3859.8
983.901,3856.85
984.974,3847.9
986.047,3854.8
987.119,3851.9
988.192,3842.7
989.264,3834.0
990.337,3829.95
991.409,3826.8
992.481,3824.0
993.553,3824.15
994.624,3820.4
995.696,3814.8
996.767,3812.8
997.838,3814.3
998.909,3808.45
999.98,3804.8
1001.05,3799.35
1002.12,3798.45
1003.19,3799.25
1004.26,3795.7
1005.33,3795.4
1006.4,3789.0
1007.47,3786.35
1008.54,3785.7
1009.61,3782.7
1010.68,3781.65
1011.75,3779.05
1012.82,3776.5
1013.88,3776.05
1014.95,3775.45
1016.02,3772.6
1017.09,3770.3
1018.16,3769.85
1019.22,3769.7
1020.29,3768.6
1021.36,3771.55
1022.43,3770.3
1023.49,3771.1
1024.56,3766.15
1025.63,3764.15
1026.69,3760.85
1027.76,3757.9
1028.83,3756.05
1029.89,3754.8
1030.96,3752.4
1032.02,3753.45
1033.09,3753.55
1034.15,3754.1
1035.22,3753.05
1036.28,3753.1
1037.35,3749.7
1038.41,3749.15
1039.48,3745.65
1040.54,3745.95
1041.6,3746.2
1042.67,3744.15
1043.73,3745.7
1044.79,3744.1
1045.86,3743.4
1046.92,3742.35
1047.98,3742.6
1049.05,3741.6
1050.11,3741.45
1051.17,3741.3
1052.23,3740.1
1053.29,3740.2
1054.36,3739.8
1055.42,3739.7
1056.48,3739.85
1057.54,3739.05
1058.6,3736.7
1059.66,3738.6
1060.72,3738.55
1061.78,3737.95
1062.84,3737.7
1063.9,3737.8
1064.96,3737.9
1066.02,3738.0
1067.08,3737.4
1067.88,3736.7