File: spectra/VLFR_08-PLA_nobio_Raman_611f5796.csv
nm,Intensity
526.486,829.0
527.033,828.8
527.579,829.2
528.126,829.0
528.672,828.933
529.219,828.567
529.765,829.833
530.311,829.867
530.857,829.133
531.403,829.567
531.948,831.8
532.494,830.667
533.039,829.4
533.585,829.2
534.13,861.367
534.675,858.333
535.22,854.067
535.764,852.533
536.309,851.9
536.854,852.367
537.398,851.167
537.942,853.167
538.486,852.333
539.03,852.967
539.574,851.867
540.118,851.867
540.662,853.2
541.205,854.0
541.749,852.133
542.292,853.567
542.835,853.2
543.378,855.833
543.921,855.833
544.464,854.433
545.006,855.2
545.549,854.9
546.091,854.433
546.634,856.4
547.176,854.867
547.718,856.6
548.26,855.433
548.802,856.033
549.343,855.933
549.885,857.167
550.426,856.7
550.968,859.133
551.509,859.9
552.05,858.667
552.591,858.933
553.132,858.1
553.673,858.267
554.214,858.733
554.754,859.167
555.295,859.467
555.835,858.167
556.375,858.867
556.915,858.967
557.455,860.333
557.995,869.233
558.535,862.1
559.075,860.9
559.614,859.867
560.154,859.8
560.693,859.067
561.232,858.933
561.772,859.3
562.311,860.8
562.85,862.4
563.388,863.1
563.927,864.567
564.466,863.967
565.004,864.667
565.543,865.767
566.081,867.2
566.619,865.033
567.157,862.633
567.695,861.433
568.233,864.433
568.771,865.533
569.309,865.333
569.846,866.4
570.384,866.267
570.921,866.0
571.458,867.033
571.995,868.1
572.532,866.833
573.069,869.4
573.606,868.633
574.143,869.667
574.68,870.3
575.216,868.167
575.753,868.267
576.289,869.2
576.825,874.967
577.361,869.633
577.897,869.367
578.433,868.667
578.969,868.733
579.505,869.767
580.041,870.067
580.576,869.967
581.112,870.2
581.647,870.0
582.183,869.5
582.718,870.033
583.253,866.9
583.788,868.967
584.323,870.3
584.858,869.133
585.392,869.533
585.927,869.167
586.462,870.633
586.996,874.6
587.53,876.367
588.065,872.867
588.599,871.333
589.133,871.2
589.667,869.3
590.201,869.067
590.735,869.9
591.268,869.067
591.802,870.8
592.335,870.767
592.869,869.1
593.402,868.9
593.936,869.367
594.469,870.467
595.002,870.533
595.535,869.2
596.068,871.1
596.601,868.433
597.133,869.433
597.666,869.633
598.199,868.767
598.731,871.1
599.264,870.1
599.796,870.933
600.328,871.4
600.86,870.067
601.393,869.933
601.925,870.3
602.457,870.267
602.988,870.3
603.52,869.2
604.052,871.567
604.583,870.3
605.115,869.167
605.646,868.5
606.178,869.467
606.709,867.0
607.24,870.833
607.771,869.067
608.302,868.2
608.833,869.133
609.364,869.3
609.895,869.333
610.426,870.3
610.957,868.7
611.487,868.7
612.018,866.267
612.548,869.667
613.078,867.833
613.609,869.167
614.139,869.967
614.669,869.667
615.199,868.7
615.729,869.433
616.259,870.2
616.789,868.433
617.319,868.833
617.849,869.967
618.378,868.567
618.908,868.133
619.437,868.833
619.967,867.567
620.496,868.5
621.025,868.0
621.555,867.733
622.084,868.233
622.613,867.633
623.142,870.133
623.671,869.833
624.2,868.8
624.729,868.133
625.258,869.267
625.786,868.867
626.315,868.667
626.844,868.733
627.372,868.567
627.901,869.867
628.429,876.733
628.957,874.5
629.486,873.433
630.014,876.4
630.542,881.433
631.07,921.8
631.598,898.467
632.126,880.467
632.654,879.533
633.182,889.167
633.71,885.167
634.237,874.633
634.765,869.233
635.293,866.2
635.82,866.767
636.348,866.067
636.875,864.5
637.403,867.767
637.93,865.133
638.458,864.5
638.985,865.433
639.512,864.667
640.039,864.9
640.566,863.9
641.093,865.0
641.62,864.033
642.147,865.067
642.674,864.2
643.201,862.2
643.728,861.733
644.255,862.533
644.781,863.3
645.308,862.167
645.835,860.7
646.361,862.633
646.888,860.4
647.414,862.8
647.941,861.9
648.467,860.433
648.993,859.767
649.52,861.767
650.046,859.933
650.572,858.633
651.098,859.367
651.625,859.6
652.151,859.8
652.677,860.4
653.203,860.5
653.729,859.133
654.255,859.267
654.78,859.233
655.306,859.0
655.832,857.733
656.358,859.067
656.884,858.5
657.409,857.733
657.935,858.033
658.461,857.2
658.986,857.267
659.512,858.267
660.037,857.767
660.563,856.567
661.088,858.0
661.614,856.933
662.139,855.167
662.664,856.3
663.058,856.833