File: spectra/VLFR_06-PET_nobio_Raman_064754f6.csv
nm,Intensity
526.508,828.9
527.055,830.1
527.602,828.4
528.149,828.6
528.695,830.4
529.241,828.9
529.787,829.3
530.334,830.0
530.879,831.1
531.425,830.5
531.971,833.5
532.516,830.8
533.062,831.2
533.607,841.7
534.152,2292.5
534.697,1881.4
535.242,1480.2
535.786,1219.2
536.331,1070.2
536.876,1007.2
537.42,980.8
537.964,967.7
538.508,984.0
539.052,968.8
539.596,979.5
540.14,995.8
540.683,946.0
541.227,931.8
541.77,923.3
542.313,921.7
542.856,923.7
543.399,922.9
543.942,934.6
544.485,924.1
545.027,927.2
545.57,933.8
546.112,930.1
546.654,934.1
547.196,936.3
547.738,937.1
548.28,938.5
548.822,937.2
549.363,938.5
549.905,941.3
550.446,954.3
550.988,970.3
551.529,944.1
552.07,954.4
552.611,963.4
553.152,981.6
553.692,963.1
554.233,954.9
554.773,957.0
555.314,978.8
555.854,1031.8
556.394,1052.4
556.934,1052.5
557.474,1219.9
558.014,1084.8
558.553,1077.2
559.093,1022.6
559.632,988.0
560.172,987.5
560.711,986.1
561.25,998.2
561.789,1003.3
562.328,1022.1
562.867,1030.1
563.406,1034.3
563.944,1020.7
564.483,1032.4
565.021,1081.0
565.559,1164.2
566.098,1167.7
566.636,1051.3
567.174,1030.3
567.711,1128.5
568.249,1043.6
568.787,1035.0
569.324,1044.1
569.862,1076.5
570.399,1131.8
570.936,1276.9
571.474,1436.4
572.011,1234.4
572.548,1108.2
573.084,1070.6
573.621,1074.4
574.158,1111.1
574.694,1090.5
575.231,1116.4
575.767,1097.8
576.303,1124.9
576.84,1142.2
577.376,1108.9
577.912,1086.3
578.447,1091.8
578.983,1094.5
579.519,1101.4
580.054,1103.6
580.59,1106.7
581.125,1138.9
581.661,1231.6
582.196,2634.2
582.731,1188.6
583.266,1133.8
583.801,1125.6
584.336,1142.5
584.87,1152.6
585.405,1276.5
585.94,1915.4
586.474,1604.5
587.008,1206.7
587.543,1156.1
588.077,1145.7
588.611,1141.6
589.145,1153.1
589.679,1141.9
590.213,1138.1
590.747,1151.2
591.28,1147.7
591.814,1145.5
592.347,1144.2
592.881,1142.5
593.414,1158.2
593.947,1151.1
594.48,1160.5
595.014,1153.8
595.547,1165.0
596.079,1158.8
596.612,1161.3
597.145,1168.0
597.678,1160.2
598.21,1169.2
598.743,1166.2
599.275,1171.0
599.807,1176.4
600.34,1178.4
600.872,1176.9
601.404,1168.5
601.936,1172.0
602.468,1181.4
603.0,1184.8
603.532,1180.0
604.063,1182.5
604.595,1182.1
605.126,1177.0
605.658,1175.0
606.189,1169.7
606.721,1174.3
607.252,1176.7
607.783,1169.6
608.314,1176.5
608.845,1186.9
609.376,1185.5
609.907,1186.0
610.438,1182.7
610.968,1186.8
611.499,1190.6
612.03,1187.9
612.56,1195.7
613.091,1207.1
613.621,1206.4
614.151,1204.4
614.681,1208.3
615.212,1214.7
615.742,1211.7
616.272,1206.1
616.802,1216.8
617.332,1216.6
617.861,1239.2
618.391,1232.7
618.921,1234.3
619.45,1230.0
619.98,1226.4
620.509,1218.3
621.039,1225.2
621.568,1224.4
622.097,1228.8
622.627,1241.2
623.156,1240.2
623.685,1246.5
624.214,1248.3
624.743,1259.7
625.272,1257.9
625.801,1271.4
626.33,1263.9
626.858,1262.0
627.387,1267.2
627.916,1281.2
628.444,1299.9
628.973,1324.1
629.501,1325.2
630.029,1320.9
630.558,1333.5
631.086,1402.5
631.614,1558.7
632.142,1538.8
632.67,1450.6
633.198,1441.3
633.726,1404.7
634.254,1373.5
634.782,1362.0
635.31,1372.5
635.838,1448.7
636.365,1587.6
636.893,1605.0
637.421,1427.8
637.948,1390.7
638.476,1390.0
639.003,1392.4
639.531,1392.5
640.058,1397.6
640.585,1406.2
641.113,1404.7
641.64,1408.3
642.167,1430.5
642.694,1424.9
643.221,1419.0
643.748,1407.8
644.275,1418.0
644.802,1418.9
645.329,1425.1
645.856,1434.6
646.382,1430.2
646.909,1437.6
647.436,1449.4
647.962,1447.0
648.489,1441.2
649.016,1442.3
649.542,1455.1
650.069,1449.3
650.595,1445.5
651.121,1449.5
651.648,1459.5
652.174,1459.5
652.7,1458.1
653.227,1455.9
653.753,1464.0
654.279,1470.6
654.805,1462.3
655.331,1465.7
655.857,1470.2
656.383,1466.7
656.909,1474.0
657.435,1464.9
657.961,1468.3
658.487,1475.3
659.013,1468.4
659.538,1472.5
660.064,1489.6
660.59,1472.3
661.116,1451.7
661.641,1469.4
662.167,1451.8
662.692,1465.2
663.087,1462.4