File: spectra/VLFR_07-PET_nobio_Raman_c5aeb565.csv
nm,Intensity
791.377,11781.6
792.477,10512.3
793.576,9957.08
794.676,9573.5
795.775,9453.68
796.874,9379.14
797.973,9209.02
799.072,9243.54
800.171,9168.74
801.27,9099.8
802.368,9234.24
803.467,8875.1
804.565,8830.44
805.664,8687.88
806.762,8686.58
807.86,8546.56
808.958,8457.14
810.056,8374.88
811.153,8411.92
812.251,8312.52
813.349,8240.14
814.446,8165.5
815.543,8115.18
816.64,8065.78
817.737,7943.76
818.834,7967.46
819.931,7890.52
821.028,7925.6
822.125,7789.14
823.221,7617.64
824.317,7694.18
825.414,7667.58
826.51,7677.08
827.606,7475.18
828.702,7414.56
829.797,7387.86
830.893,7467.06
831.988,7232.34
833.084,7180.48
834.179,7195.4
835.274,7033.92
836.369,7073.1
837.464,7181.0
838.559,7138.2
839.654,7021.06
840.748,7245.28
841.843,7400.6
842.937,6997.68
844.031,6918.28
845.125,6769.58
846.219,6696.38
847.313,6689.12
848.407,6549.62
849.5,6523.52
850.593,6486.78
851.687,6498.86
852.78,6539.72
853.873,6397.9
854.966,6385.16
856.059,6327.88
857.151,6302.56
858.244,6415.46
859.336,6459.14
860.428,6489.74
861.52,6307.5
862.612,6188.08
863.704,6146.42
864.796,6231.0
865.888,6073.46
866.979,6003.42
868.07,5986.12
869.162,6030.1
870.253,6023.42
871.344,6109.7
872.434,6258.22
873.525,6378.68
874.615,6124.18
875.706,5922.52
876.796,5813.54
877.886,5783.16
878.976,5750.54
880.066,5682.98
881.156,5695.96
882.245,5684.28
883.335,5629.18
884.424,5595.88
885.513,5615.66
886.602,5570.94
887.691,5509.34
888.78,5460.22
889.868,5404.04
890.957,5422.54
892.045,5387.04
893.133,5352.88
894.221,5285.46
895.309,5227.16
896.397,5243.58
897.484,5420.86
898.571,6043.64
899.659,5608.2
900.746,5120.66
901.833,5066.18
902.92,5066.86
904.006,5064.34
905.093,5008.04
906.179,5097.84
907.266,5423.0
908.352,5481.02
909.438,5202.04
910.523,4944.84
911.609,4836.98
912.695,4794.22
913.78,4746.82
914.865,4737.5
915.95,4726.46
917.035,4680.76
918.12,4676.36
919.204,4658.48
920.289,4612.34
921.373,4600.88
922.457,4583.32
923.541,4568.16
924.625,4551.44
925.709,4498.46
926.792,4507.82
927.876,4465.82
928.959,4443.96
930.042,4418.46
931.125,4398.04
932.208,4346.82
933.29,4335.92
934.373,4331.6
935.455,4308.6
936.537,4271.88
937.619,4265.78
938.701,4260.58
939.782,4253.14
940.864,4237.66
941.945,4196.7
943.026,4188.36
944.107,4184.14
945.188,4149.14
946.269,4167.0
947.349,4128.28
948.43,4134.14
949.51,4113.84
950.59,4105.1
951.67,4089.36
952.75,4077.44
953.829,4067.42
954.909,4060.96
955.988,4044.46
957.067,4035.98
958.146,4029.54
959.224,4011.04
960.303,4011.42
961.381,3997.1
962.459,3995.22
963.537,3979.58
964.615,3974.64
965.693,3970.5
966.771,3953.12
967.848,3957.76
968.925,3953.6
970.002,3936.96
971.079,3940.2
972.156,3928.14
973.232,3919.26
974.309,3909.46
975.385,3899.54
976.461,3901.44
977.537,3899.46
978.612,3883.82
979.688,3887.38
980.763,3878.42
981.838,3867.56
982.913,3871.02
983.988,3861.6
985.063,3861.48
986.137,3855.6
987.211,3854.46
988.285,3844.52
989.359,3839.04
990.433,3837.76
991.506,3828.24
992.58,3829.96
993.653,3825.22
994.726,3821.02
995.799,3815.08
996.872,3811.78
997.944,3809.36
999.016,3807.7
1000.09,3802.56
1001.16,3802.74
1002.23,3795.12
1003.3,3791.6
1004.38,3790.44
1005.45,3787.94
1006.52,3785.26
1007.59,3783.86
1008.66,3779.44
1009.73,3776.2
1010.8,3775.74
1011.87,3770.66
1012.94,3770.66
1014.01,3768.02
1015.08,3767.98
1016.15,3766.64
1017.22,3765.06
1018.29,3762.94
1019.36,3761.9
1020.42,3762.52
1021.49,3767.34
1022.56,3767.24
1023.63,3767.94
1024.7,3763.06
1025.76,3756.6
1026.83,3753.1
1027.9,3751.12
1028.97,3747.34
1030.03,3744.44
1031.1,3741.64
1032.17,3743.42
1033.23,3741.64
1034.3,3745.92
1035.36,3749.32
1036.43,3745.9
1037.5,3741.4
1038.56,3737.44
1039.63,3736.38
1040.69,3733.8
1041.76,3732.86
1042.82,3731.62
1043.89,3731.88
1044.95,3728.92
1046.01,3728.52
1047.08,3728.86
1048.14,3727.6
1049.2,3727.72
1050.27,3727.9
1051.33,3727.46
1052.39,3726.9
1053.46,3726.8
1054.52,3726.64
1055.58,3727.56
1056.64,3726.46
1057.7,3725.82
1058.77,3724.96
1059.83,3725.12
1060.89,3725.42
1061.95,3724.52
1063.01,3723.88
1064.07,3724.46
1065.13,3723.88
1066.19,3722.84
1067.25,3724.08
1068.05,3721.38