File: spectra/VLFR_06-PET_bio_Raman_76a80d0b.csv
nm,Intensity
526.493,828.8
527.039,829.65
527.586,829.25
528.133,829.5
528.679,828.95
529.225,828.5
529.771,829.65
530.317,828.95
530.863,828.95
531.409,828.4
531.955,829.7
532.5,829.2
533.046,829.2
533.591,840.3
534.136,2319.45
534.681,1913.3
535.226,1505.55
535.771,1262.45
536.315,1105.25
536.86,1043.05
537.404,1016.35
537.948,1008.75
538.493,1022.3
539.037,1010.55
539.58,1027.65
540.124,1043.15
540.668,991.65
541.211,975.5
541.755,970.3
542.298,974.8
542.841,970.2
543.384,973.8
543.927,985.0
544.47,981.9
545.013,986.4
545.555,985.7
546.098,985.85
546.64,992.6
547.182,994.7
547.724,999.85
548.266,999.35
548.808,1003.8
549.35,1001.6
549.892,1009.75
550.433,1028.7
550.974,1044.0
551.516,1021.9
552.057,1025.2
552.598,1035.85
553.139,1059.05
553.68,1039.95
554.22,1041.25
554.761,1047.1
555.301,1059.55
555.842,1123.95
556.382,1132.95
556.922,1143.85
557.462,1310.15
558.002,1178.65
558.542,1170.85
559.082,1115.95
559.621,1088.4
560.161,1085.05
560.7,1088.95
561.239,1098.45
561.778,1101.5
562.317,1122.2
562.856,1140.6
563.395,1146.05
563.934,1131.2
564.472,1152.2
565.011,1206.8
565.549,1284.75
566.088,1288.8
566.626,1175.7
567.164,1156.6
567.702,1255.7
568.24,1174.5
568.777,1170.15
569.315,1179.0
569.853,1213.1
570.39,1269.75
570.927,1422.9
571.465,1566.55
572.002,1385.4
572.539,1255.85
573.076,1226.65
573.612,1229.5
574.149,1264.0
574.686,1242.05
575.222,1277.05
575.759,1254.6
576.295,1281.75
576.831,1310.85
577.367,1268.15
577.903,1257.55
578.439,1262.05
578.975,1266.75
579.511,1270.35
580.046,1278.65
580.582,1289.85
581.117,1316.1
581.653,1413.6
582.188,2837.7
582.723,1383.4
583.258,1326.1
583.793,1321.85
584.328,1332.1
584.863,1351.35
585.398,1472.7
585.932,2128.15
586.467,1836.35
587.001,1418.55
587.535,1365.65
588.07,1358.05
588.604,1352.9
589.138,1357.2
589.672,1352.2
590.206,1355.9
590.739,1361.95
591.273,1361.75
591.807,1370.5
592.34,1364.5
592.873,1368.9
593.407,1368.0
593.94,1371.05
594.473,1376.2
595.006,1377.7
595.539,1392.85
596.072,1390.4
596.605,1390.55
597.138,1399.95
597.67,1400.25
598.203,1408.25
598.735,1411.6
599.268,1412.3
599.8,1415.55
600.332,1418.15
600.865,1411.25
601.397,1413.15
601.929,1417.45
602.46,1417.35
602.992,1425.45
603.524,1425.3
604.056,1428.8
604.587,1425.15
605.119,1416.6
605.65,1415.4
606.182,1416.65
606.713,1408.4
607.244,1423.6
607.775,1423.95
608.306,1433.35
608.837,1436.65
609.368,1433.25
609.899,1432.55
610.43,1439.5
610.961,1434.95
611.491,1450.85
612.022,1434.15
612.552,1451.7
613.083,1468.8
613.613,1467.35
614.143,1473.6
614.673,1477.1
615.203,1472.95
615.734,1479.65
616.263,1487.95
616.793,1488.2
617.323,1502.15
617.853,1510.0
618.383,1518.65
618.912,1510.8
619.442,1499.6
619.971,1500.75
620.501,1507.9
621.03,1506.0
621.56,1503.1
622.089,1511.8
622.618,1529.25
623.147,1531.4
623.676,1541.15
624.205,1557.0
624.734,1565.7
625.263,1565.55
625.792,1567.55
626.321,1568.65
626.849,1570.95
627.378,1582.8
627.906,1587.75
628.435,1616.8
628.963,1653.2
629.492,1658.9
630.02,1646.6
630.548,1657.7
631.077,1738.7
631.605,1906.7
632.133,1895.95
632.661,1801.85
633.189,1776.1
633.717,1760.5
634.245,1729.8
634.773,1716.5
635.3,1735.85
635.828,1815.5
636.356,1976.2
636.883,1993.9
637.411,1816.85
637.938,1776.1
638.466,1766.35
638.993,1774.75
639.521,1787.05
640.048,1783.2
640.575,1792.2
641.103,1801.8
641.63,1814.3
642.157,1824.8
642.684,1831.25
643.211,1815.1
643.738,1826.4
644.265,1821.6
644.792,1829.85
645.319,1825.05
645.845,1837.95
646.372,1846.25
646.899,1855.05
647.425,1865.95
647.952,1875.45
648.479,1870.35
649.005,1862.0
649.532,1867.4
650.058,1872.75
650.585,1870.85
651.111,1879.5
651.637,1877.35
652.164,1889.9
652.69,1888.3
653.216,1898.65
653.742,1908.2
654.268,1901.6
654.794,1909.25
655.32,1903.25
655.846,1910.85
656.372,1914.45
656.898,1911.3
657.424,1915.15
657.95,1911.95
658.476,1923.35
659.002,1913.6
659.528,1916.05
660.053,1922.95
660.579,1911.9
661.105,1908.7
661.63,1905.55
662.156,1898.15
662.681,1910.7
663.076,1899.65