File: spectra/VLFR_02-HDPE_nobio_Raman_50267749.csv
nm,Intensity
526.508,828.8
527.055,828.9
527.602,830.0
528.149,829.3
528.695,827.4
529.241,828.7
529.787,830.2
530.334,830.6
530.879,831.1
531.425,830.2
531.971,832.5
532.516,831.2
533.062,829.9
533.607,829.8
534.152,888.4
534.697,883.0
535.242,882.6
535.786,863.6
536.331,856.2
536.876,853.5
537.42,852.5
537.964,854.2
538.508,851.0
539.052,851.5
539.596,847.7
540.14,847.8
540.683,846.1
541.227,846.0
541.77,846.4
542.313,847.3
542.856,847.9
543.399,846.5
543.942,844.3
544.485,846.1
545.027,845.3
545.57,846.8
546.112,846.7
546.654,846.5
547.196,846.3
547.738,846.3
548.28,847.6
548.822,848.6
549.363,846.8
549.905,847.0
550.446,846.3
550.988,848.2
551.529,848.2
552.07,847.4
552.611,849.9
553.152,848.1
553.692,849.2
554.233,849.8
554.773,850.9
555.314,849.9
555.854,850.6
556.394,851.2
556.934,852.8
557.474,854.5
558.014,856.0
558.553,856.1
559.093,853.4
559.632,852.9
560.172,853.1
560.711,853.2
561.25,852.3
561.789,853.5
562.328,854.9
562.867,855.0
563.406,860.7
563.944,919.6
564.483,873.1
565.021,869.2
565.559,863.6
566.098,926.2
566.636,866.0
567.174,861.7
567.711,862.9
568.249,856.3
568.787,857.4
569.324,858.1
569.862,860.7
570.399,862.3
570.936,869.5
571.474,958.6
572.011,879.3
572.548,865.5
573.084,861.1
573.621,860.5
574.158,865.9
574.694,861.0
575.231,861.6
575.767,900.2
576.303,985.3
576.84,922.2
577.376,904.2
577.912,866.7
578.447,860.0
578.983,860.6
579.519,859.2
580.054,858.7
580.59,858.6
581.125,861.0
581.661,858.7
582.196,857.2
582.731,859.5
583.266,856.1
583.801,859.7
584.336,860.5
584.87,858.3
585.405,856.6
585.94,858.2
586.474,860.5
587.008,861.7
587.543,860.2
588.077,863.0
588.611,859.8
589.145,860.9
589.679,865.1
590.213,865.8
590.747,865.4
591.28,864.5
591.814,869.9
592.347,868.1
592.881,868.7
593.414,871.6
593.947,872.4
594.48,871.4
595.014,872.6
595.547,877.3
596.079,880.0
596.612,879.9
597.145,879.9
597.678,887.4
598.21,890.5
598.743,890.9
599.275,895.4
599.807,896.3
600.34,896.3
600.872,896.7
601.404,896.0
601.936,907.1
602.468,906.4
603.0,905.7
603.532,904.8
604.063,905.9
604.595,907.3
605.126,909.6
605.658,907.9
606.189,909.0
606.721,909.4
607.252,908.0
607.783,909.0
608.314,911.6
608.845,910.3
609.376,915.9
609.907,907.7
610.438,910.2
610.968,911.5
611.499,910.9
612.03,909.1
612.56,906.7
613.091,905.9
613.621,907.6
614.151,905.8
614.681,907.4
615.212,904.9
615.742,902.4
616.272,904.5
616.802,906.9
617.332,911.1
617.861,907.5
618.391,908.2
618.921,906.6
619.45,910.5
619.98,908.8
620.509,904.6
621.039,912.8
621.568,923.1
622.097,948.9
622.627,954.3
623.156,912.6
623.685,904.3
624.214,899.9
624.743,901.2
625.272,902.2
625.801,915.5
626.33,944.2
626.858,1257.5
627.387,1796.6
627.916,1403.3
628.444,1681.1
628.973,1357.6
629.501,1250.2
630.029,1133.5
630.558,1113.7
631.086,992.5
631.614,911.3
632.142,898.5
632.67,891.3
633.198,886.3
633.726,880.3
634.254,876.5
634.782,875.0
635.31,875.6
635.838,873.1
636.365,872.0
636.893,869.5
637.421,864.6
637.948,864.3
638.476,864.1
639.003,863.5
639.531,861.0
640.058,860.4
640.585,863.3
641.113,860.4
641.64,863.8
642.167,859.5
642.694,863.7
643.221,861.4
643.748,862.8
644.275,857.8
644.802,858.5
645.329,860.9
645.856,859.9
646.382,858.7
646.909,859.6
647.436,859.2
647.962,861.4
648.489,859.4
649.016,861.3
649.542,859.7
650.069,858.5
650.595,861.7
651.121,858.7
651.648,859.2
652.174,859.6
652.7,859.4
653.227,860.2
653.753,860.0
654.279,859.3
654.805,859.5
655.331,861.2
655.857,859.1
656.383,861.5
656.909,859.5
657.435,862.2
657.961,861.2
658.487,859.6
659.013,859.2
659.538,858.6
660.064,859.3
660.59,859.6
661.116,861.0
661.641,859.7
662.167,855.7
662.692,857.8
663.087,854.3