File: spectra/VLFR_02-HDPE_nobio_Raman_960f841f.csv
nm,Intensity
526.532,833.25
527.079,833.65
527.625,833.3
528.172,833.8
528.718,832.95
529.265,833.35
529.811,834.25
530.357,833.55
530.903,833.4
531.449,833.7
531.994,844.95
532.54,834.85
533.085,833.25
533.63,834.85
534.176,942.85
534.721,943.85
535.266,932.15
535.81,903.45
536.355,897.1
536.9,890.55
537.444,891.0
537.988,888.6
538.533,888.05
539.077,882.1
539.621,880.15
540.165,879.75
540.708,878.35
541.252,878.35
541.795,877.6
542.339,878.3
542.882,877.1
543.425,877.3
543.968,877.8
544.511,877.6
545.054,878.2
545.597,876.0
546.139,877.3
546.682,879.15
547.224,878.75
547.766,878.4
548.308,877.25
548.85,878.85
549.392,876.95
549.934,879.1
550.475,877.85
551.017,878.45
551.558,876.8
552.1,876.85
552.641,877.25
553.182,880.1
553.723,880.45
554.264,882.05
554.804,883.45
555.345,882.7
555.885,884.3
556.426,883.0
556.966,886.95
557.506,888.3
558.046,891.05
558.586,893.5
559.126,890.6
559.665,895.05
560.205,893.3
560.745,895.05
561.284,897.3
561.823,899.6
562.362,902.9
562.901,906.15
563.44,915.0
563.979,1036.6
564.518,937.25
565.056,931.85
565.595,928.1
566.133,1047.25
566.671,932.2
567.21,928.45
567.748,935.05
568.285,930.4
568.823,935.3
569.361,937.1
569.899,946.45
570.436,950.0
570.974,965.05
571.511,1186.1
572.048,991.1
572.585,976.7
573.122,972.25
573.659,990.35
574.196,1000.95
574.733,1001.45
575.269,1016.65
575.806,1068.4
576.342,1228.25
576.878,1139.05
577.414,1124.3
577.951,1088.75
578.486,1104.05
579.022,1119.15
579.558,1141.9
580.094,1163.05
580.629,1188.4
581.165,1211.35
581.7,1242.1
582.236,1264.0
582.771,1295.95
583.306,1325.95
583.841,1348.05
584.376,1371.75
584.911,1395.0
585.445,1421.5
585.98,1456.15
586.514,1488.05
587.049,1516.95
587.583,1551.95
588.117,1576.95
588.651,1617.6
589.186,1646.05
589.72,1676.75
590.253,1711.35
590.787,1742.95
591.321,1783.25
591.854,1801.25
592.388,1825.75
592.921,1836.3
593.455,1849.0
593.988,1848.8
594.521,1870.95
595.054,1893.45
595.587,1904.0
596.12,1912.0
596.653,1928.45
597.186,1948.25
597.718,1958.05
598.251,1992.3
598.783,1994.55
599.316,2002.9
599.848,2019.55
600.38,2000.45
600.912,2007.85
601.444,1994.15
601.976,1973.6
602.508,1952.65
603.04,1939.2
603.572,1914.3
604.103,1876.5
604.635,1837.25
605.167,1789.25
605.698,1745.75
606.229,1709.35
606.761,1670.15
607.292,1636.4
607.823,1612.55
608.354,1589.4
608.885,1567.3
609.416,1545.05
609.947,1520.35
610.477,1503.2
611.008,1483.45
611.539,1472.55
612.069,1456.25
612.6,1453.45
613.13,1437.1
613.66,1430.65
614.19,1415.15
614.721,1402.2
615.251,1384.95
615.781,1371.25
616.311,1355.75
616.841,1347.8
617.37,1353.45
617.9,1348.5
618.43,1328.35
618.96,1321.7
619.489,1313.75
620.019,1303.15
620.548,1293.25
621.077,1297.75
621.607,1310.4
622.136,1346.65
622.665,1330.35
623.194,1281.5
623.723,1270.55
624.252,1271.3
624.781,1268.75
625.31,1266.35
625.839,1274.65
626.368,1325.25
626.896,1780.6
627.425,2298.1
627.953,1834.0
628.482,2340.55
629.01,1843.8
629.539,1700.65
630.067,1552.8
630.596,1525.35
631.124,1363.55
631.652,1296.4
632.18,1276.95
632.708,1276.85
633.236,1273.05
633.764,1279.3
634.292,1274.4
634.82,1269.65
635.348,1283.25
635.876,1289.2
636.403,1299.75
636.931,1304.55
637.459,1305.25
637.986,1303.75
638.514,1312.3
639.041,1316.5
639.568,1324.35
640.096,1329.8
640.623,1331.55
641.15,1341.3
641.678,1348.75
642.205,1354.35
642.732,1357.75
643.259,1367.1
643.786,1371.0
644.313,1371.95
644.84,1366.15
645.367,1374.4
645.894,1372.25
646.421,1369.05
646.948,1368.85
647.474,1372.2
648.001,1371.4
648.528,1366.65
649.054,1358.6
649.581,1365.5
650.108,1358.0
650.634,1347.85
651.161,1350.3
651.687,1352.15
652.214,1349.0
652.74,1345.8
653.266,1338.15
653.793,1342.8
654.319,1336.8
654.845,1336.35
655.371,1332.55
655.897,1322.35
656.424,1309.4
656.95,1306.7
657.476,1295.15
658.002,1280.35
658.528,1275.65
659.054,1262.65
659.58,1255.0
660.106,1245.3
660.631,1224.1
661.157,1209.65
661.683,1198.25
662.209,1181.85
662.735,1170.55
663.129,1162.55