File: spectra/VLFR_08-PLA_bio_Raman_8d72bcc1.csv
nm,Intensity
526.547,831.8
527.095,832.4
527.642,831.25
528.189,831.7
528.736,831.4
529.283,831.75
529.829,831.4
530.376,832.4
530.922,831.7
531.468,831.75
532.014,847.75
532.56,833.4
533.106,831.7
533.651,832.5
534.196,875.05
534.742,873.1
535.287,865.4
535.832,862.95
536.376,862.95
536.921,861.1
537.465,866.1
538.01,869.0
538.554,873.45
539.098,875.9
539.642,871.7
540.186,865.6
540.729,864.25
541.273,864.1
541.816,865.1
542.36,864.15
542.903,866.6
543.446,864.6
543.988,865.65
544.531,867.55
545.074,879.4
545.616,890.6
546.158,875.15
546.701,867.75
547.243,867.15
547.785,865.85
548.326,866.45
548.868,870.55
549.41,875.6
549.951,880.35
550.492,880.5
551.034,874.0
551.575,871.85
552.116,868.85
552.656,869.65
553.197,868.7
553.738,870.6
554.278,870.6
554.819,869.2
555.359,871.35
555.899,870.4
556.439,869.15
556.979,870.4
557.519,870.1
558.058,873.8
558.598,869.7
559.137,871.45
559.677,871.9
560.216,873.95
560.755,875.8
561.294,894.4
561.833,924.45
562.371,877.05
562.91,881.05
563.449,899.9
563.987,881.85
564.525,880.2
565.064,881.3
565.602,880.55
566.14,883.65
566.678,887.65
567.216,882.4
567.753,878.6
568.291,876.65
568.828,881.0
569.366,876.6
569.903,878.75
570.44,877.15
570.977,879.5
571.514,878.6
572.051,878.2
572.588,879.5
573.125,880.55
573.661,880.55
574.198,878.85
574.734,880.5
575.271,879.95
575.807,880.15
576.343,881.95
576.879,881.2
577.415,881.8
577.951,880.95
578.486,882.0
579.022,882.15
579.557,883.1
580.093,883.4
580.628,881.3
581.164,883.6
581.699,882.4
582.234,883.85
582.769,885.85
583.304,888.15
583.838,883.8
584.373,887.4
584.908,888.4
585.442,884.5
585.977,884.35
586.511,888.8
587.045,885.9
587.58,887.9
588.114,887.6
588.648,884.9
589.182,885.85
589.715,886.05
590.249,886.8
590.783,885.45
591.316,884.5
591.85,886.95
592.383,887.45
592.917,885.35
593.45,885.05
593.983,886.65
594.516,889.25
595.049,887.85
595.582,887.75
596.115,886.0
596.648,885.4
597.18,888.3
597.713,885.5
598.245,886.75
598.778,888.25
599.31,889.0
599.842,888.75
600.375,887.95
600.907,888.85
601.439,888.5
601.971,887.15
602.503,889.7
603.034,890.0
603.566,886.35
604.098,888.35
604.629,888.2
605.161,887.9
605.692,887.6
606.224,888.8
606.755,886.45
607.286,888.25
607.817,886.45
608.348,887.05
608.879,888.9
609.41,889.4
609.941,886.6
610.472,884.85
611.002,889.45
611.533,886.35
612.063,888.3
612.594,887.75
613.124,887.8
613.655,888.2
614.185,887.65
614.715,887.65
615.245,887.55
615.775,887.0
616.305,888.05
616.835,885.9
617.365,889.0
617.895,885.25
618.425,888.1
618.954,889.85
619.484,887.9
620.013,887.65
620.543,887.35
621.072,886.9
621.602,889.2
622.131,887.95
622.66,884.8
623.189,886.25
623.718,886.75
624.247,885.9
624.776,885.1
625.305,885.2
625.834,887.45
626.363,885.85
626.891,886.2
627.42,888.55
627.949,884.6
628.477,888.0
629.006,889.25
629.534,889.15
630.062,887.05
630.591,890.0
631.119,896.1
631.647,887.75
632.175,888.2
632.703,889.35
633.231,888.8
633.759,888.15
634.287,885.45
634.815,887.6
635.343,884.9
635.871,886.7
636.398,885.95
636.926,887.95
637.454,886.95
637.981,888.1
638.509,888.5
639.036,887.5
639.564,890.25
640.091,891.7
640.618,892.8
641.146,892.5
641.673,896.2
642.2,897.85
642.727,899.85
643.254,900.15
643.781,899.6
644.308,900.0
644.835,899.2
645.362,900.65
645.889,902.25
646.416,904.45
646.942,905.2
647.469,908.05
647.996,911.1
648.522,915.2
649.049,917.5
649.576,919.65
650.102,919.5
650.629,920.05
651.155,920.35
651.682,921.55
652.208,915.55
652.734,910.0
653.261,902.85
653.787,901.05
654.313,899.55
654.839,895.6
655.365,895.75
655.892,891.95
656.418,889.95
656.944,887.05
657.47,885.9
657.996,883.35
658.522,881.4
659.048,881.8
659.574,880.95
660.099,878.75
660.625,875.75
661.151,875.75
661.677,875.05
662.203,874.2
662.728,873.85
663.123,873.75