File: spectra/VLFR_01-LDPE_bio_Raman_1af1ed82.csv
nm,Intensity
528.635,1834.9
529.14,1833.3
529.645,1834.5
530.151,1834.2
530.656,1836.1
531.161,1836.2
531.666,1872.6
532.171,4120.2
532.676,1836.1
533.181,1835.3
533.686,1994.9
534.191,2328.7
534.696,2266.9
535.201,2185.6
535.705,2093.2
536.21,2057.9
536.715,2048.2
537.219,2046.7
537.724,2041.0
538.228,2014.8
538.733,2006.1
539.237,1996.9
539.741,1971.1
540.246,1962.2
540.75,1958.5
541.254,1952.3
541.758,1948.2
542.262,1950.2
542.766,1956.1
543.27,1953.4
543.774,1941.2
544.278,1943.1
544.781,1939.0
545.285,1934.4
545.789,1932.5
546.292,1932.5
546.796,1940.9
547.299,1941.1
547.803,1934.4
548.306,1935.4
548.809,1925.8
549.313,1927.6
549.816,1926.4
550.319,1926.5
550.822,1933.1
551.325,1929.6
551.828,1933.4
552.331,1933.9
552.834,1935.4
553.337,1954.7
553.839,1954.5
554.342,1964.1
554.845,1968.8
555.347,1979.0
555.85,1990.8
556.352,1999.8
556.854,2025.5
557.357,2037.5
557.859,2055.4
558.361,2070.6
558.863,2064.6
559.365,2029.3
559.867,2017.3
560.369,2004.2
560.871,2009.7
561.373,2006.7
561.875,2018.0
562.377,2037.4
562.878,2073.0
563.38,2130.3
563.881,2669.5
564.383,2324.0
564.884,2250.7
565.386,2171.9
565.887,2472.6
566.388,2394.5
566.889,2121.7
567.391,2156.5
567.892,2069.1
568.393,2059.2
568.893,2054.5
569.394,2064.4
569.895,2070.9
570.396,2114.7
570.897,2188.1
571.397,3075.3
571.898,2526.5
572.398,2257.3
572.899,2145.1
573.399,2126.9
573.899,2196.0
574.399,2106.6
574.9,2117.0
575.4,2414.1
575.9,2711.7
576.4,3283.7
576.899,2938.3
577.399,2504.7
577.899,2247.9
578.399,2233.4
578.898,2224.1
579.398,2227.7
579.897,2230.5
580.397,2277.3
580.896,2305.0
581.396,2283.7
581.895,2305.8
582.394,2315.1
582.893,2350.4
583.392,2341.1
583.891,2385.3
584.39,2405.3
584.889,2402.2
585.387,2423.8
585.886,2437.0
586.385,2473.1
586.883,2524.4
587.382,2552.8
587.88,2553.5
588.379,2623.5
588.877,2642.4
589.375,2656.1
589.873,2659.1
590.371,2687.8
590.869,2711.7
591.367,2750.3
591.865,2761.0
592.363,2748.6
592.86,2736.5
593.358,2767.3
593.856,2767.6
594.353,2741.2
594.851,2746.8
595.348,2771.4
595.845,2760.8
596.342,2766.0
596.84,2773.8
597.337,2750.0
597.834,2764.2
598.331,2776.1
598.827,2785.4
599.324,2855.4
599.821,2820.7
600.318,2835.6
600.814,2835.3
601.311,2800.7
601.807,2841.5
602.303,2824.8
602.8,2780.1
603.296,2779.4
603.792,2760.9
604.288,2727.4
604.784,2700.0
605.28,2651.1
605.776,2615.9
606.272,2621.7
606.767,2575.7
607.263,2573.4
607.758,2527.4
608.254,2541.3
608.749,2506.9
609.244,2471.6
609.74,2475.0
610.235,2472.5
610.73,2451.5
611.225,2455.1
611.72,2417.8
612.215,2403.5
612.709,2410.2
613.204,2402.2
613.699,2390.0
614.193,2365.6
614.688,2386.0
615.182,2356.9
615.676,2332.2
616.171,2347.4
616.665,2361.7
617.159,2386.7
617.653,2397.8
618.147,2381.1
618.641,2382.9
619.134,2388.7
619.628,2393.9
620.122,2389.9
620.615,2415.2
621.109,2458.0
621.602,2567.3
622.095,2734.1
622.588,2638.3
623.082,2451.5
623.575,2391.6
624.068,2362.4
624.56,2379.7
625.053,2373.4
625.546,2455.6
626.039,2593.0
626.531,3375.2
627.024,7681.0
627.516,7389.5
628.008,6381.1
628.501,9266.4
628.993,6701.1
629.485,5790.9
629.977,4895.4
630.469,4618.7
630.961,3614.3
631.452,2859.3
631.944,2644.3
632.436,2482.7
632.927,2437.1
633.418,2387.0
633.91,2343.1
634.401,2335.5
634.892,2319.9
635.383,2328.0
635.874,2318.7
636.365,2312.6
636.856,2305.9
637.347,2299.2
637.837,2287.8
638.328,2280.1
638.818,2269.0
639.309,2287.3
639.799,2296.0
640.289,2281.0
640.78,2296.3
641.27,2298.6
641.76,2304.2
642.249,2319.3
642.739,2324.6
643.229,2307.9
643.719,2319.1
644.208,2337.0
644.698,2308.9
645.187,2300.0
645.676,2314.6
646.165,2313.7
646.655,2299.4
647.144,2303.0
647.633,2279.8
648.121,2288.8
648.61,2286.1
649.099,2253.2
649.587,2241.4
650.076,2243.4
650.564,2259.8
651.053,2236.3
651.541,2254.4
652.029,2235.0
652.517,2228.4
653.005,2233.5
653.493,2209.8
653.981,2212.4
654.468,2202.4
654.956,2192.0
655.444,2194.8
655.931,2186.6
656.418,2197.1
656.906,2165.6
657.393,2170.1
657.88,2124.6
658.367,2135.1
658.854,2140.5
659.341,2127.4
659.827,2126.9
660.314,2102.9
660.8,2106.3
661.044,2083.5