File: spectra/VLFR_09-PET_bio_Raman_13f5f7e4.csv
nm,Intensity
526.508,827.9
527.055,828.7
527.602,829.0
528.149,827.4
528.695,828.0
529.241,828.0
529.787,827.2
530.334,829.0
530.879,827.7
531.425,827.6
531.971,835.6
532.516,829.1
533.062,828.5
533.607,836.6
534.152,1855.3
534.697,1797.0
535.242,1680.4
535.786,1638.0
536.331,1603.3
536.876,1590.8
537.42,1583.1
537.964,1603.3
538.508,1627.4
539.052,1628.5
539.596,1646.4
540.14,1657.5
540.683,1655.1
541.227,1658.0
541.77,1677.0
542.313,1684.1
542.856,1697.5
543.399,1723.0
543.942,1724.2
544.485,1747.3
545.027,1758.7
545.57,1759.0
546.112,1776.8
546.654,1787.4
547.196,1796.5
547.738,1812.5
548.28,1817.5
548.822,1840.0
549.363,1849.3
549.905,1861.0
550.446,1879.6
550.988,1878.2
551.529,1889.2
552.07,1910.9
552.611,1914.7
553.152,1928.8
553.692,1928.8
554.233,1959.4
554.773,1962.0
555.314,1966.4
555.854,1993.6
556.394,1998.2
556.934,2026.4
557.474,2128.0
558.014,2060.1
558.553,2059.2
559.093,2050.1
559.632,2063.6
560.172,2082.7
560.711,2085.2
561.25,2111.7
561.789,2150.9
562.328,2136.4
562.867,2137.5
563.406,2165.2
563.944,2179.7
564.483,2224.7
565.021,2293.6
565.559,2290.6
566.098,2286.4
566.636,2240.3
567.174,2242.5
567.711,2294.3
568.249,2274.1
568.787,2275.7
569.324,2324.6
569.862,2336.5
570.399,2370.2
570.936,2440.5
571.474,2561.4
572.011,2438.6
572.548,2388.3
573.084,2389.2
573.621,2411.8
574.158,2444.4
574.694,2452.0
575.231,2469.3
575.767,2476.2
576.303,2474.5
576.84,2497.4
577.376,2496.2
577.912,2496.5
578.447,2520.7
578.983,2515.9
579.519,2536.3
580.054,2534.0
580.59,2540.9
581.125,2571.7
581.661,2641.4
582.196,3442.4
582.731,2647.0
583.266,2632.9
583.801,2623.5
584.336,2632.5
584.87,2655.5
585.405,2697.8
585.94,3053.3
586.474,2911.9
587.008,2735.1
587.543,2711.6
588.077,2691.6
588.611,2696.5
589.145,2704.8
589.679,2694.7
590.213,2705.1
590.747,2717.8
591.28,2722.1
591.814,2747.4
592.347,2708.4
592.881,2721.1
593.414,2738.7
593.947,2732.7
594.48,2745.3
595.014,2765.6
595.547,2784.1
596.079,2768.8
596.612,2790.9
597.145,2812.1
597.678,2809.8
598.21,2828.9
598.743,2835.1
599.275,2852.0
599.807,2846.6
600.34,2843.4
600.872,2856.1
601.404,2833.2
601.936,2846.5
602.468,2886.5
603.0,2884.5
603.532,2890.1
604.063,2896.0
604.595,2896.5
605.126,2897.0
605.658,2865.9
606.189,2861.2
606.721,2895.6
607.252,2902.2
607.783,2926.7
608.314,2945.5
608.845,2963.5
609.376,2974.4
609.907,2994.9
610.438,2974.1
610.968,3016.5
611.499,3022.0
612.03,3066.6
612.56,3103.8
613.091,3146.0
613.621,3172.1
614.151,3205.9
614.681,3214.1
615.212,3225.6
615.742,3247.1
616.272,3263.5
616.802,3291.0
617.332,3314.9
617.861,3348.1
618.391,3367.8
618.921,3394.9
619.45,3405.2
619.98,3419.0
620.509,3435.7
621.039,3448.4
621.568,3474.2
622.097,3526.1
622.627,3550.6
623.156,3588.8
623.685,3637.4
624.214,3686.8
624.743,3705.5
625.272,3717.0
625.801,3738.2
626.33,3764.8
626.858,3782.1
627.387,3811.2
627.916,3835.1
628.444,3869.1
628.973,3912.8
629.501,3945.9
630.029,3984.8
630.558,3993.7
631.086,4060.8
631.614,4130.6
632.142,4163.1
632.67,4143.0
633.198,4165.6
633.726,4162.3
634.254,4150.7
634.782,4156.5
635.31,4200.2
635.838,4269.2
636.365,4377.9
636.893,4406.2
637.421,4322.2
637.948,4321.5
638.476,4343.6
639.003,4363.1
639.531,4406.6
640.058,4416.0
640.585,4458.1
641.113,4461.2
641.64,4490.8
642.167,4506.2
642.694,4511.5
643.221,4487.3
643.748,4494.5
644.275,4471.6
644.802,4478.4
645.329,4500.9
645.856,4512.4
646.382,4519.9
646.909,4536.9
647.436,4587.4
647.962,4589.8
648.489,4589.9
649.016,4587.3
649.542,4568.8
650.069,4600.4
650.595,4583.4
651.121,4555.6
651.648,4598.0
652.174,4620.8
652.7,4620.5
653.227,4635.1
653.753,4626.4
654.279,4638.2
654.805,4635.8
655.331,4636.5
655.857,4637.9
656.383,4640.4
656.909,4666.1
657.435,4672.8
657.961,4650.2
658.487,4685.3
659.013,4641.6
659.538,4662.0
660.064,4688.5
660.59,4670.1
661.116,4635.6
661.641,4618.3
662.167,4604.8
662.692,4616.4
663.087,4574.6