File: spectra/VLFR_06-PET_nobio_Raman_5eefd76b.csv
nm,Intensity
528.65,1841.73
529.155,1842.3
529.66,1842.0
530.165,1843.1
530.67,1843.5
531.175,1843.5
531.68,1869.5
532.185,3578.83
532.69,1846.47
533.194,1852.5
533.699,3185.63
534.204,6229.53
534.708,5080.03
535.213,4125.37
535.717,3305.63
536.222,2823.77
536.726,2630.23
537.231,2567.67
537.735,2530.73
538.239,2560.73
538.743,2543.93
539.247,2581.23
539.751,2686.07
540.255,2577.93
540.759,2465.33
541.263,2423.23
541.767,2407.73
542.271,2427.63
542.775,2430.93
543.279,2417.43
543.782,2446.27
544.286,2444.93
544.789,2439.63
545.293,2438.87
545.796,2453.27
546.3,2443.93
546.803,2449.97
547.306,2440.87
547.81,2451.5
548.313,2453.13
548.816,2467.33
549.319,2457.03
549.822,2449.6
550.325,2546.6
550.828,2822.8
551.331,2485.07
551.834,2464.2
552.337,2483.6
552.839,2757.53
553.342,2477.13
553.844,2494.37
554.347,2462.97
554.849,2492.53
555.352,2615.33
555.854,2799.83
556.357,2830.17
556.859,2913.37
557.361,3518.57
557.863,3142.23
558.365,3012.8
558.867,2798.2
559.369,2606.7
559.871,2562.1
560.373,2563.23
560.875,2575.47
561.377,2623.13
561.878,2665.93
562.38,2717.23
562.881,2775.87
563.383,2744.9
563.884,2694.4
564.386,2724.1
564.887,2953.37
565.388,3299.43
565.89,3451.57
566.391,2941.5
566.892,2763.57
567.393,2960.3
567.894,3045.1
568.395,2795.73
568.896,2765.33
569.396,2838.97
569.897,2980.33
570.398,3315.27
570.898,4071.1
571.399,4523.83
571.9,3705.3
572.4,3155.83
572.9,2934.43
573.401,2927.27
573.901,3053.57
574.401,3018.37
574.901,3055.27
575.401,3236.87
575.901,3039.73
576.401,3263.8
576.901,3268.8
577.401,3037.63
577.901,3033.63
578.4,3038.4
578.9,3041.33
579.399,3054.07
579.899,3096.43
580.398,3116.47
580.898,3218.77
581.397,3429.2
581.896,6216.93
582.395,5548.07
582.895,3304.6
583.394,3213.47
583.893,3178.67
584.391,3250.2
584.89,3327.83
585.389,4213.7
585.888,6467.43
586.386,5140.73
586.885,3531.3
587.384,3301.7
587.882,3246.13
588.38,3232.2
588.879,3244.43
589.377,3250.67
589.875,3216.67
590.373,3232.97
590.871,3223.3
591.369,3214.97
591.867,3226.27
592.365,3258.9
592.863,3221.13
593.361,3237.63
593.858,3253.7
594.356,3251.97
594.853,3257.33
595.351,3277.07
595.848,3263.87
596.345,3315.47
596.843,3287.2
597.34,3271.03
597.837,3255.9
598.334,3292.6
598.831,3314.0
599.328,3298.83
599.824,3285.7
600.321,3273.3
600.818,3322.63
601.314,3352.93
601.811,3302.83
602.307,3309.63
602.804,3313.03
603.3,3304.57
603.796,3323.4
604.293,3289.53
604.789,3314.2
605.285,3345.7
605.781,3322.43
606.277,3351.53
606.772,3364.53
607.268,3366.73
607.764,3337.33
608.259,3353.8
608.755,3354.83
609.25,3380.43
609.746,3363.83
610.241,3345.6
610.736,3400.6
611.231,3384.53
611.727,3382.37
612.222,3401.77
612.716,3415.33
613.211,3356.7
613.706,3400.0
614.201,3413.1
614.695,3431.17
615.19,3440.27
615.684,3446.8
616.179,3452.57
616.673,3485.67
617.168,3502.97
617.662,3510.5
618.156,3521.97
618.65,3562.2
619.144,3495.83
619.638,3485.73
620.131,3488.5
620.625,3505.23
621.119,3489.33
621.612,3507.77
622.106,3482.97
622.599,3520.5
623.093,3540.57
623.586,3566.0
624.079,3564.73
624.572,3572.6
625.065,3659.7
625.558,3586.33
626.051,3542.0
626.544,3626.77
627.037,3569.6
627.529,3678.7
628.022,3664.07
628.514,3773.1
629.007,3800.9
629.499,3867.27
629.991,3786.13
630.483,3809.9
630.976,4103.9
631.468,4623.4
631.959,4647.83
632.451,4392.67
632.943,4208.5
633.435,4092.07
633.926,4027.0
634.418,3910.3
634.909,3878.77
635.401,3981.7
635.892,4243.1
636.383,4888.8
636.874,4521.93
637.365,4062.17
637.856,3926.43
638.347,3848.27
638.838,3842.63
639.329,3900.2
639.819,3840.93
640.31,3818.07
640.8,3803.37
641.291,3840.23
641.781,3779.97
642.271,3883.5
642.761,3843.33
643.251,3817.93
643.741,3871.13
644.231,3815.87
644.721,3813.97
645.211,3810.9
645.7,3886.67
646.19,3870.2
646.679,3773.7
647.169,3827.23
647.658,3799.7
648.147,3762.93
648.636,3830.6
649.125,3802.63
649.614,3668.17
650.103,3754.63
650.592,3755.73
651.08,3774.67
651.569,3706.83
652.058,3725.1
652.546,3676.2
653.034,3694.2
653.523,3689.8
654.011,3689.27
654.499,3673.67
654.987,3642.2
655.475,3603.87
655.963,3599.77
656.45,3591.33
656.938,3487.77
657.425,3601.07
657.913,3573.67
658.4,3472.8
658.888,3494.53
659.375,3407.23
659.862,3456.0
660.349,3422.07
660.836,3364.3
661.079,3381.9