File: spectra/VLFR_08-PLA_bio_Raman_5309dbb4.csv
nm,Intensity
526.495,829.5
527.042,829.0
527.589,829.4
528.136,827.9
528.682,829.0
529.229,830.0
529.775,828.3
530.321,829.1
530.867,828.0
531.413,829.2
531.959,833.8
532.505,830.1
533.051,829.3
533.596,830.5
534.141,1041.5
534.687,996.1
535.232,954.0
535.777,941.0
536.321,936.7
536.866,931.8
537.41,926.1
537.955,921.9
538.499,915.0
539.043,913.8
539.587,909.8
540.131,905.8
540.675,919.5
541.219,924.8
541.762,913.0
542.305,911.5
542.849,914.5
543.392,933.9
543.935,943.7
544.478,925.7
545.02,911.8
545.563,908.4
546.106,908.6
546.648,910.0
547.19,913.8
547.732,912.3
548.274,909.9
548.816,911.3
549.358,917.5
549.9,914.9
550.441,917.3
550.983,918.1
551.524,924.0
552.065,928.7
552.606,929.5
553.147,924.6
553.688,923.8
554.229,933.9
554.769,925.5
555.31,919.2
555.85,915.7
556.391,914.9
556.931,922.1
557.471,934.7
558.011,1043.7
558.551,953.7
559.09,936.4
559.63,936.2
560.169,930.9
560.709,928.8
561.248,927.7
561.787,924.0
562.326,927.9
562.865,937.1
563.404,966.7
563.943,949.4
564.481,937.6
565.02,955.9
565.558,953.2
566.096,980.0
566.634,953.3
567.172,931.5
567.71,942.1
568.248,944.9
568.786,943.1
569.324,941.2
569.861,940.5
570.399,937.8
570.936,940.4
571.473,957.6
572.01,958.6
572.547,955.4
573.084,957.1
573.621,958.6
574.158,958.2
574.694,963.1
575.231,945.5
575.767,944.3
576.303,964.5
576.84,1019.7
577.376,964.3
577.912,950.1
578.448,944.1
578.984,949.5
579.519,946.3
580.055,942.4
580.59,945.5
581.126,948.1
581.661,945.6
582.196,944.9
582.731,942.4
583.267,949.7
583.801,951.0
584.336,951.5
584.871,954.8
585.406,951.9
585.94,951.4
586.475,960.5
587.009,1000.4
587.543,1020.0
588.078,968.1
588.612,955.6
589.146,950.8
589.68,948.0
590.214,952.8
590.747,950.5
591.281,948.7
591.815,952.6
592.348,954.0
592.881,952.0
593.415,949.9
593.948,947.5
594.481,949.5
595.014,952.7
595.547,948.6
596.08,949.7
596.613,953.3
597.146,951.1
597.678,950.6
598.211,954.9
598.743,955.7
599.276,954.8
599.808,955.1
600.34,953.4
600.872,951.5
601.404,951.6
601.936,952.5
602.468,951.5
603.0,955.1
603.532,953.9
604.064,951.5
604.595,954.8
605.127,954.5
605.658,948.5
606.189,947.1
606.721,947.4
607.252,945.8
607.783,948.0
608.314,948.9
608.845,948.8
609.376,950.6
609.907,949.1
610.438,953.2
610.968,951.1
611.499,948.3
612.029,952.5
612.56,947.8
613.09,952.1
613.621,954.1
614.151,951.8
614.681,951.9
615.211,953.9
615.741,956.8
616.271,951.3
616.801,958.2
617.331,960.0
617.861,954.9
618.39,953.5
618.92,954.5
619.45,955.5
619.979,955.3
620.509,953.9
621.038,954.6
621.567,954.0
622.096,955.1
622.626,962.2
623.155,969.1
623.684,962.9
624.213,954.8
624.742,957.6
625.271,952.1
625.799,952.9
626.328,950.1
626.857,950.9
627.386,953.3
627.914,960.9
628.443,1028.0
628.971,1010.7
629.5,1008.8
630.028,1014.3
630.556,1065.4
631.084,1419.7
631.613,1195.4
632.141,1066.0
632.669,1051.2
633.197,1133.3
633.725,1094.6
634.253,1007.8
634.781,966.2
635.308,950.7
635.836,942.2
636.364,942.6
636.891,944.0
637.419,942.7
637.947,940.3
638.474,940.8
639.002,938.5
639.529,943.2
640.056,941.5
640.584,939.6
641.111,939.1
641.638,939.7
642.165,939.3
642.692,935.0
643.219,934.4
643.746,932.1
644.273,932.1
644.8,928.4
645.327,933.1
645.854,929.8
646.381,928.5
646.908,930.4
647.434,924.8
647.961,926.8
648.488,923.8
649.014,927.4
649.541,921.3
650.067,923.1
650.594,920.8
651.12,923.4
651.646,922.0
652.173,921.2
652.699,919.8
653.225,921.0
653.752,922.9
654.278,920.0
654.804,919.6
655.33,917.5
655.856,919.0
656.382,918.0
656.908,918.3
657.434,919.8
657.96,919.4
658.486,920.3
659.012,920.6
659.538,917.2
660.064,917.0
660.589,916.1
661.115,913.5
661.641,914.2
662.166,916.1
662.692,912.0
663.086,911.4