File: spectra/VLFR_06-PET_nobio_Raman_a0dfeccd.csv
nm,Intensity
526.547,832.6
527.094,833.2
527.641,832.8
528.188,833.3
528.734,832.3
529.281,832.2
529.827,832.7
530.373,832.7
530.92,832.0
531.466,831.7
532.011,837.4
532.557,833.0
533.103,832.5
533.648,852.7
534.193,2238.6
534.738,1811.9
535.283,1431.8
535.828,1196.5
536.373,1070.9
536.917,1021.3
537.462,998.4
538.006,988.0
538.55,993.9
539.094,999.0
539.638,1010.9
540.182,1015.6
540.726,971.7
541.269,960.5
541.812,951.4
542.356,951.3
542.899,953.3
543.442,953.6
543.985,964.3
544.527,961.1
545.07,963.9
545.612,964.2
546.155,970.2
546.697,973.1
547.239,969.7
547.781,973.1
548.323,975.3
548.865,975.8
549.406,979.3
549.948,978.8
550.489,1011.2
551.03,1000.5
551.572,999.3
552.113,997.6
552.654,1009.7
553.194,1018.1
553.735,1014.6
554.276,1009.0
554.816,1009.2
555.356,1029.8
555.896,1074.8
556.437,1094.9
556.977,1099.2
557.516,1273.6
558.056,1126.2
558.596,1124.8
559.135,1073.6
559.675,1039.0
560.214,1046.1
560.753,1049.3
561.292,1051.8
561.831,1056.4
562.37,1077.4
562.909,1094.9
563.448,1095.9
563.986,1080.1
564.525,1099.6
565.063,1153.2
565.601,1230.4
566.139,1208.5
566.677,1117.7
567.215,1102.8
567.753,1198.4
568.291,1109.8
568.828,1107.6
569.366,1118.3
569.903,1150.3
570.441,1213.2
570.978,1369.4
571.515,1470.1
572.052,1297.1
572.589,1176.5
573.126,1144.1
573.662,1157.2
574.199,1187.1
574.735,1160.5
575.272,1210.8
575.808,1173.7
576.344,1211.2
576.88,1225.0
577.416,1185.5
577.952,1178.3
578.488,1185.5
579.024,1178.7
579.559,1178.6
580.095,1194.9
580.63,1199.9
581.166,1218.8
581.701,1356.6
582.236,2707.3
582.771,1270.1
583.306,1223.4
583.841,1219.8
584.376,1234.8
584.911,1252.3
585.445,1411.1
585.98,2005.7
586.514,1634.1
587.048,1289.3
587.583,1256.7
588.117,1239.1
588.651,1241.0
589.185,1238.5
589.719,1235.0
590.253,1241.0
590.786,1233.9
591.32,1242.0
591.853,1241.5
592.387,1245.8
592.92,1244.3
593.454,1238.1
593.987,1251.3
594.52,1248.6
595.053,1253.6
595.586,1256.5
596.119,1264.0
596.651,1255.1
597.184,1264.3
597.717,1260.3
598.249,1264.7
598.782,1267.1
599.314,1273.8
599.846,1264.9
600.379,1263.5
600.911,1267.5
601.443,1266.6
601.975,1268.5
602.507,1270.9
603.038,1269.6
603.57,1275.7
604.102,1282.3
604.633,1264.0
605.165,1268.3
605.696,1257.5
606.228,1259.4
606.759,1255.6
607.29,1265.9
607.821,1256.2
608.352,1271.9
608.883,1270.5
609.414,1272.4
609.945,1270.0
610.476,1268.7
611.006,1266.1
611.537,1273.5
612.067,1273.4
612.598,1275.3
613.128,1288.7
613.659,1289.0
614.189,1293.3
614.719,1294.8
615.249,1292.8
615.779,1292.0
616.309,1297.7
616.839,1296.0
617.369,1304.8
617.899,1316.3
618.428,1314.2
618.958,1314.6
619.487,1303.8
620.017,1307.2
620.546,1307.5
621.076,1300.6
621.605,1299.8
622.134,1322.0
622.663,1317.7
623.193,1314.9
623.722,1329.1
624.251,1328.9
624.78,1339.7
625.308,1350.8
625.837,1346.4
626.366,1340.6
626.895,1342.8
627.423,1336.5
627.952,1362.8
628.48,1373.6
629.009,1414.7
629.537,1415.7
630.065,1405.2
630.594,1414.9
631.122,1490.5
631.65,1663.0
632.178,1625.4
632.706,1529.4
633.234,1505.6
633.762,1481.6
634.29,1458.4
634.818,1440.5
635.346,1455.4
635.873,1549.3
636.401,1705.3
636.929,1667.5
637.456,1510.7
637.984,1463.8
638.511,1464.8
639.039,1469.6
639.566,1469.1
640.093,1479.2
640.62,1480.7
641.148,1482.0
641.675,1482.2
642.202,1513.2
642.729,1506.9
643.256,1498.4
643.783,1493.1
644.31,1488.6
644.837,1499.6
645.364,1491.9
645.891,1504.2
646.417,1495.6
646.944,1503.7
647.471,1514.4
647.997,1517.4
648.524,1516.8
649.051,1515.4
649.577,1514.2
650.104,1518.0
650.63,1519.9
651.157,1521.4
651.683,1535.6
652.209,1543.3
652.736,1529.1
653.262,1526.4
653.788,1541.6
654.314,1541.0
654.84,1536.6
655.366,1554.7
655.893,1546.0
656.419,1542.8
656.945,1548.5
657.471,1544.5
657.997,1539.9
658.522,1547.4
659.048,1560.4
659.574,1555.8
660.1,1545.5
660.626,1562.4
661.152,1549.0
661.677,1541.0
662.203,1536.5
662.729,1547.4
663.123,1530.7