File: spectra/VLFR_07-PET_nobio_Raman_dd2c1905.csv
nm,Intensity
791.588,11681.8
792.685,10772.2
793.781,10125.2
794.878,9904.2
795.975,9747.1
797.071,9667.8
798.168,9571.4
799.264,9731.1
800.36,9569.1
801.456,9561.5
802.552,9537.2
803.648,9363.9
804.744,9235.9
805.84,9150.5
806.936,9184.2
808.031,9046.8
809.127,8940.8
810.222,8920.8
811.317,8861.8
812.412,8709.3
813.507,8797.2
814.602,8648.6
815.697,8545.2
816.792,8503.1
817.887,8504.2
818.981,8421.4
820.076,8334.3
821.17,8210.4
822.265,8189.3
823.359,8198.5
824.453,8045.3
825.547,8378.5
826.641,7983.3
827.735,7951.3
828.828,7967.0
829.922,7813.8
831.016,7947.5
832.109,7694.8
833.202,7643.6
834.295,7619.1
835.388,7517.4
836.481,7541.1
837.574,7626.8
838.667,7548.6
839.76,7494.3
840.852,7713.8
841.945,7710.1
843.037,7439.1
844.129,7352.7
845.221,7171.1
846.314,7029.2
847.405,6973.8
848.497,6891.4
849.589,6872.1
850.681,6906.3
851.772,6850.0
852.863,6862.6
853.955,6838.9
855.046,6690.1
856.137,6708.8
857.228,6675.4
858.318,6773.2
859.409,6847.9
860.5,6734.9
861.59,6588.4
862.681,6507.8
863.771,6477.9
864.861,6574.5
865.951,6424.8
867.041,6288.9
868.131,6302.0
869.22,6377.8
870.31,6395.1
871.399,6468.9
872.488,6725.7
873.578,6692.1
874.667,6450.2
875.756,6283.7
876.845,6206.1
877.933,6076.3
879.022,6066.8
880.11,6024.0
881.199,6040.7
882.287,6056.9
883.375,5968.7
884.463,5979.9
885.551,6036.4
886.639,5876.4
887.726,5842.6
888.814,5768.8
889.901,5760.1
890.988,5793.6
892.075,5777.4
893.162,5639.1
894.249,5646.7
895.336,5584.0
896.423,5633.4
897.509,5993.4
898.595,6427.8
899.682,5923.5
900.768,5482.3
901.854,5394.5
902.94,5351.3
904.025,5356.4
905.111,5339.9
906.196,5502.7
907.282,5853.4
908.367,5833.6
909.452,5472.9
910.537,5217.2
911.622,5111.5
912.706,5064.5
913.791,5036.7
914.875,5022.4
915.959,4950.7
917.044,4913.9
918.128,4927.3
919.211,4913.1
920.295,4818.9
921.379,4836.8
922.462,4770.2
923.546,4774.6
924.629,4727.2
925.712,4707.9
926.795,4694.3
927.877,4665.8
928.96,4610.9
930.043,4609.5
931.125,4600.9
932.207,4573.7
933.289,4546.8
934.371,4497.1
935.453,4474.2
936.535,4458.8
937.616,4439.4
938.697,4411.8
939.779,4396.3
940.86,4395.6
941.941,4351.0
943.022,4346.0
944.102,4328.4
945.183,4305.5
946.263,4293.6
947.343,4282.5
948.423,4257.3
949.503,4263.4
950.583,4233.4
951.663,4214.3
952.742,4187.3
953.822,4188.1
954.901,4172.5
955.98,4164.3
957.059,4155.8
958.137,4144.4
959.216,4124.3
960.294,4107.1
961.373,4099.4
962.451,4090.3
963.529,4082.7
964.607,4082.6
965.684,4065.5
966.762,4046.6
967.839,4038.2
968.917,4024.1
969.994,4024.9
971.071,4017.8
972.147,3995.7
973.224,3996.7
974.3,3996.8
975.377,3980.7
976.453,3974.5
977.529,3968.3
978.605,3961.8
979.68,3946.2
980.756,3945.7
981.831,3938.7
982.907,3930.1
983.982,3927.6
985.057,3929.8
986.131,3918.7
987.206,3913.2
988.28,3903.2
989.355,3904.6
990.429,3897.0
991.503,3890.7
992.576,3888.6
993.65,3880.7
994.723,3876.8
995.797,3876.2
996.87,3868.2
997.943,3860.4
999.016,3859.0
1000.09,3857.9
1001.16,3854.7
1002.23,3845.1
1003.31,3845.2
1004.38,3839.1
1005.45,3840.8
1006.52,3836.6
1007.59,3834.6
1008.66,3825.2
1009.73,3825.9
1010.81,3821.1
1011.88,3820.9
1012.95,3820.1
1014.02,3820.3
1015.09,3816.1
1016.16,3813.7
1017.23,3817.3
1018.3,3807.7
1019.37,3811.1
1020.44,3807.5
1021.51,3814.2
1022.58,3818.7
1023.64,3811.7
1024.71,3804.1
1025.78,3802.1
1026.85,3797.1
1027.92,3796.0
1028.99,3792.5
1030.05,3787.5
1031.12,3785.7
1032.19,3782.2
1033.26,3786.8
1034.32,3788.3
1035.39,3788.3
1036.46,3785.9
1037.52,3782.0
1038.59,3780.1
1039.66,3775.6
1040.72,3775.5
1041.79,3772.5
1042.86,3772.1
1043.92,3773.4
1044.99,3770.6
1046.05,3771.2
1047.12,3769.5
1048.18,3770.3
1049.25,3768.2
1050.31,3768.5
1051.37,3768.1
1052.44,3769.8
1053.5,3767.8
1054.57,3768.4
1055.63,3767.7
1056.69,3766.7
1057.76,3766.1
1058.82,3766.0
1059.88,3765.8
1060.95,3765.4
1062.01,3764.7
1063.07,3764.0
1064.13,3763.6
1065.19,3764.2
1066.26,3764.5
1067.32,3766.2
1068.11,3761.3