File: spectra/VLFR_07-PET_nobio_Raman_812ffefc.csv
cm-1,Intensity
109.24,7332.6
126.699,6954.5
144.108,6751.85
161.468,6600.3
178.779,6537.75
196.04,6564.85
213.253,6481.2
230.417,6500.35
247.532,6466.35
264.599,6504.75
281.618,6401.15
298.59,6359.65
315.513,6277.1
332.389,6290.1
349.218,6262.55
365.999,6190.8
382.734,6167.3
399.422,6114.3
416.064,6093.9
432.659,5998.6
449.208,5969.3
465.711,5946.3
482.168,5918.65
498.579,5887.75
514.946,5819.0
531.267,5799.95
547.542,5782.0
563.773,5774.7
579.96,5697.5
596.102,5662.0
612.199,5675.45
628.252,5754.4
644.261,5621.0
660.227,5547.55
676.149,5523.2
692.027,5510.85
707.862,5509.95
723.654,5500.0
739.403,5427.55
755.109,5430.4
770.773,5392.8
786.394,5389.95
801.973,5426.25
817.509,5407.85
833.004,5384.35
848.457,5524.7
863.868,5405.15
879.238,5372.7
894.567,5301.85
909.854,5248.6
925.1,5183.65
940.306,5176.35
955.471,5182.1
970.595,5130.75
985.679,5106.3
1000.72,5103.75
1015.73,5108.05
1030.69,5091.2
1045.61,5070.85
1060.5,5025.6
1075.34,5042.9
1090.15,5090.15
1104.92,5105.7
1119.64,5061.7
1134.33,4984.75
1148.98,4979.3
1163.6,4976.1
1178.17,4968.55
1192.7,4892.5
1207.2,4897.5
1221.66,4887.4
1236.08,4908.35
1250.46,4918.25
1264.81,4980.35
1279.12,5080.85
1293.39,5004.0
1307.62,4902.35
1321.82,4844.95
1335.98,4834.85
1350.11,4786.2
1364.19,4774.1
1378.24,4755.75
1392.26,4757.4
1406.24,4743.2
1420.18,4733.65
1434.08,4727.95
1447.96,4754.8
1461.79,4692.65
1475.59,4647.6
1489.35,4646.7
1503.08,4629.15
1516.78,4637.35
1530.44,4609.45
1544.06,4582.45
1557.65,4570.7
1571.2,4552.7
1584.72,4553.75
1598.21,4751.45
1611.66,4855.45
1625.08,4608.1
1638.46,4468.7
1651.81,4460.7
1665.13,4453.4
1678.41,4423.25
1691.66,4444.5
1704.88,4529.45
1718.06,4649.25
1731.21,4616.55
1744.32,4438.55
1757.41,4357.25
1770.46,4326.45
1783.48,4311.2
1796.46,4282.1
1809.42,4270.85
1822.34,4267.7
1835.23,4267.95
1848.08,4246.8
1860.91,4243.1
1873.7,4223.1
1886.46,4204.7
1899.19,4200.2
1911.89,4177.3
1924.56,4157.85
1937.19,4153.55
1949.8,4139.55
1962.37,4119.05
1974.91,4104.65
1987.42,4091.1
1999.9,4079.95
2012.36,4067.35
2024.78,4055.95
2037.16,4041.45
2049.52,4038.6
2061.85,4021.15
2074.15,4010.7
2086.42,4018.95
2098.66,3998.5
2110.87,3990.8
2123.05,3979.95
2135.2,3978.5
2147.32,3973.6
2159.41,3962.7
2171.47,3950.85
2183.51,3937.2
2195.51,3949.8
2207.49,3935.75
2219.43,3922.95
2231.35,3920.25
2243.24,3912.85
2255.1,3912.95
2266.93,3905.0
2278.73,3901.1
2290.51,3888.6
2302.26,3888.8
2313.97,3888.85
2325.67,3879.6
2337.33,3868.65
2348.96,3870.8
2360.57,3867.25
2372.15,3865.7
2383.7,3860.45
2395.23,3858.2
2406.73,3854.95
2418.2,3853.1
2429.64,3849.1
2441.06,3846.2
2452.45,3838.9
2463.81,3832.25
2475.15,3833.9
2486.46,3829.15
2497.74,3826.25
2509.0,3826.75
2520.23,3827.05
2531.43,3818.1
2542.61,3817.05
2553.76,3813.4
2564.88,3813.05
2575.98,3807.25
2587.06,3809.75
2598.1,3804.25
2609.13,3805.2
2620.12,3804.2
2631.09,3800.5
2642.04,3796.55
2652.96,3792.3
2663.85,3791.95
2674.72,3788.45
2685.57,3789.8
2696.39,3785.55
2707.18,3784.5
2717.95,3781.7
2728.69,3781.05
2739.41,3778.6
2750.11,3774.7
2760.78,3773.75
2771.43,3771.75
2782.05,3771.7
2792.65,3770.7
2803.22,3772.1
2813.77,3767.15
2824.3,3765.65
2834.8,3765.65
2845.27,3761.15
2855.73,3761.45
2866.16,3761.8
2876.56,3760.3
2886.95,3759.4
2897.3,3759.5
2907.64,3759.3
2917.95,3757.8
2928.24,3757.05
2938.51,3756.9
2948.75,3759.35
2958.97,3761.15
2969.17,3758.15
2979.34,3755.0
2989.49,3753.55
2999.62,3752.2
3009.72,3748.65
3019.81,3747.25
3029.87,3745.5
3039.9,3745.5
3049.92,3745.4
3059.91,3747.05
3069.88,3747.5
3079.83,3749.4
3089.76,3748.0
3099.66,3743.5
3109.54,3742.85
3119.4,3741.55
3129.24,3741.95
3139.06,3740.35
3148.85,3740.7
3158.62,3739.45
3168.38,3738.1
3178.11,3738.6
3187.81,3737.65
3197.5,3737.9
3207.17,3736.5
3216.81,3738.2
3226.44,3736.2
3236.04,3735.3
3245.62,3736.7
3255.18,3734.9
3264.72,3736.4
3274.24,3736.95
3283.73,3736.35
3293.21,3736.05
3302.67,3735.6
3312.1,3735.45
3321.52,3735.6
3330.91,3735.2
3340.29,3736.1
3349.64,3735.75
3358.97,3735.7
3368.29,3734.05
3375.26,3734.2