File: spectra/VLFR_06-PET_bio_Raman_d766ef19.csv
nm,Intensity
526.493,829.2
527.039,828.7
527.586,828.6
528.133,828.7
528.679,829.6
529.225,829.5
529.771,830.0
530.317,828.3
530.863,830.5
531.409,829.0
531.955,830.7
532.5,830.3
533.046,828.7
533.591,842.1
534.136,2501.3
534.681,2051.0
535.226,1585.1
535.771,1317.0
536.315,1141.3
536.86,1073.4
537.404,1043.1
537.948,1033.5
538.493,1042.3
539.037,1036.9
539.58,1064.3
540.124,1069.6
540.668,1014.1
541.211,1003.4
541.755,995.9
542.298,993.2
542.841,997.3
543.384,996.9
543.927,1008.9
544.47,1007.9
545.013,1017.0
545.555,1016.2
546.098,1012.2
546.64,1016.2
547.182,1022.9
547.724,1022.8
548.266,1028.4
548.808,1024.1
549.35,1031.9
549.892,1036.2
550.433,1052.8
550.974,1068.4
551.516,1048.2
552.057,1054.4
552.598,1064.2
553.139,1087.2
553.68,1068.2
554.22,1069.9
554.761,1070.3
555.301,1090.9
555.842,1159.9
556.382,1170.6
556.922,1186.7
557.462,1360.7
558.002,1227.3
558.542,1215.0
559.082,1152.7
559.621,1119.2
560.161,1121.0
560.7,1120.5
561.239,1127.3
561.778,1130.9
562.317,1163.4
562.856,1174.4
563.395,1183.2
563.934,1175.8
564.472,1182.4
565.011,1240.8
565.549,1335.6
566.088,1347.2
566.626,1215.0
567.164,1199.2
567.702,1306.4
568.24,1216.8
568.777,1209.1
569.315,1214.4
569.853,1257.7
570.39,1317.0
570.927,1488.1
571.465,1660.0
572.002,1449.3
572.539,1304.9
573.076,1269.7
573.612,1274.0
574.149,1319.4
574.686,1292.1
575.222,1333.0
575.759,1308.7
576.295,1339.2
576.831,1361.7
577.367,1314.9
577.903,1298.4
578.439,1323.2
578.975,1318.3
579.511,1327.1
580.046,1330.6
580.582,1347.8
581.117,1371.3
581.653,1477.1
582.188,3026.9
582.723,1445.6
583.258,1380.8
583.793,1384.1
584.328,1398.9
584.863,1417.0
585.398,1550.0
585.932,2274.7
586.467,1937.8
587.001,1487.7
587.535,1424.1
588.07,1428.8
588.604,1420.8
589.138,1416.1
589.672,1422.8
590.206,1427.4
590.739,1422.9
591.273,1424.7
591.807,1431.0
592.34,1428.4
592.873,1431.9
593.407,1432.4
593.94,1431.0
594.473,1446.3
595.006,1451.1
595.539,1464.5
596.072,1459.0
596.605,1453.1
597.138,1458.6
597.67,1472.1
598.203,1475.7
598.735,1480.9
599.268,1483.6
599.8,1492.2
600.332,1486.3
600.865,1486.2
601.397,1483.2
601.929,1483.3
602.46,1491.3
602.992,1488.8
603.524,1491.9
604.056,1501.1
604.587,1502.8
605.119,1496.5
605.65,1487.3
606.182,1479.0
606.713,1485.6
607.244,1481.9
607.775,1490.2
608.306,1492.8
608.837,1501.0
609.368,1500.9
609.899,1505.1
610.43,1509.1
610.961,1511.2
611.491,1513.0
612.022,1519.0
612.552,1525.4
613.083,1538.0
613.613,1540.8
614.143,1543.8
614.673,1539.2
615.203,1553.4
615.734,1551.6
616.263,1557.0
616.793,1554.3
617.323,1572.7
617.853,1580.7
618.383,1585.2
618.912,1584.2
619.442,1578.1
619.971,1569.2
620.501,1589.6
621.03,1575.8
621.56,1581.7
622.089,1597.5
622.618,1616.8
623.147,1610.2
623.676,1625.8
624.205,1639.7
624.734,1653.4
625.263,1651.7
625.792,1658.4
626.321,1646.3
626.849,1660.4
627.378,1659.2
627.906,1678.0
628.435,1708.1
628.963,1736.0
629.492,1742.3
630.02,1745.0
630.548,1755.1
631.077,1834.7
631.605,2015.5
632.133,2011.1
632.661,1900.2
633.189,1869.9
633.717,1861.8
634.245,1835.3
634.773,1817.2
635.3,1829.7
635.828,1919.6
636.356,2091.7
636.883,2107.0
637.411,1914.2
637.938,1884.5
638.466,1863.5
638.993,1877.5
639.521,1886.5
640.048,1880.5
640.575,1893.5
641.103,1906.5
641.63,1906.4
642.157,1940.8
642.684,1945.1
643.211,1937.0
643.738,1911.0
644.265,1919.6
644.792,1922.4
645.319,1927.5
645.845,1941.8
646.372,1948.2
646.899,1969.8
647.425,1980.6
647.952,1974.5
648.479,1979.2
649.005,1969.3
649.532,1982.7
650.058,1966.8
650.585,1974.0
651.111,1986.7
651.637,1982.4
652.164,1997.7
652.69,1992.7
653.216,2010.3
653.742,2006.7
654.268,1999.6
654.794,2009.2
655.32,2003.8
655.846,2015.4
656.372,2018.5
656.898,2016.0
657.424,2030.0
657.95,2023.4
658.476,2024.0
659.002,2024.5
659.528,2028.2
660.053,2033.2
660.579,2017.7
661.105,2005.3
661.63,1992.3
662.156,2000.0
662.681,2005.9
663.076,1995.8