File: spectra/VLFR_02-HDPE_bio_Raman_ac76474d.csv
nm,Intensity
526.547,832.65
527.095,832.3
527.642,832.35
528.189,831.3
528.736,833.25
529.283,832.95
529.829,832.65
530.376,831.75
530.922,831.8
531.468,832.5
532.014,834.45
532.56,832.7
533.106,833.1
533.651,833.65
534.196,898.2
534.742,902.25
535.287,892.85
535.832,867.75
536.376,858.85
536.921,855.35
537.465,855.6
538.01,855.25
538.554,852.25
539.098,850.2
539.642,848.5
540.186,847.1
540.729,845.65
541.273,846.65
541.816,846.05
542.36,846.5
542.903,848.8
543.446,845.45
543.988,846.35
544.531,846.65
545.074,846.3
545.616,845.65
546.158,846.6
546.701,845.75
547.243,846.1
547.785,846.95
548.326,845.75
548.868,846.0
549.41,845.9
549.951,846.9
550.492,847.5
551.034,844.95
551.575,845.15
552.116,847.4
552.656,846.05
553.197,847.2
553.738,849.85
554.278,849.5
554.819,848.9
555.359,849.5
555.899,851.85
556.439,851.65
556.979,853.25
557.519,854.6
558.058,855.15
558.598,855.15
559.137,855.3
559.677,854.25
560.216,855.8
560.755,853.35
561.294,852.95
561.833,854.4
562.371,856.4
562.91,858.6
563.449,860.6
563.987,960.8
564.525,875.05
565.064,868.1
565.602,866.15
566.14,937.05
566.678,864.55
567.216,864.1
567.753,865.25
568.291,858.45
568.828,857.4
569.366,858.3
569.903,858.55
570.44,862.85
570.977,868.75
571.514,1030.65
572.051,883.1
572.588,864.85
573.125,861.1
573.661,863.1
574.198,868.45
574.734,860.7
575.271,865.15
575.807,895.25
576.343,1017.5
576.879,944.15
577.415,910.75
577.951,872.0
578.486,866.1
579.022,865.2
579.557,864.35
580.093,866.25
580.628,864.05
581.164,865.0
581.699,865.05
582.234,863.4
582.769,867.0
583.304,865.5
583.838,865.1
584.373,865.95
584.908,865.85
585.442,867.05
585.977,866.55
586.511,868.55
587.045,865.55
587.58,867.85
588.114,869.3
588.648,867.55
589.182,869.1
589.715,871.0
590.249,869.8
590.783,869.7
591.316,869.55
591.85,871.2
592.383,871.85
592.917,869.9
593.45,872.35
593.983,874.35
594.516,874.25
595.049,876.0
595.582,876.15
596.115,878.45
596.648,877.6
597.18,879.2
597.713,882.55
598.245,882.25
598.778,882.4
599.31,886.75
599.842,883.85
600.375,885.95
600.907,887.2
601.439,888.2
601.971,891.1
602.503,888.4
603.034,886.45
603.566,885.95
604.098,886.3
604.629,885.6
605.161,883.75
605.692,882.3
606.224,880.35
606.755,880.45
607.286,880.95
607.817,876.5
608.348,879.8
608.879,876.05
609.41,875.1
609.941,876.0
610.472,875.1
611.002,874.55
611.533,875.95
612.063,874.7
612.594,874.8
613.124,873.1
613.655,875.55
614.185,874.3
614.715,873.95
615.245,873.75
615.775,875.75
616.305,875.0
616.835,880.05
617.365,885.05
617.895,883.95
618.425,883.85
618.954,882.0
619.484,886.5
620.013,890.25
620.543,889.65
621.072,895.7
621.602,917.05
622.131,953.4
622.66,940.45
623.189,901.15
623.718,889.1
624.247,888.3
624.776,890.4
625.305,892.6
625.834,904.0
626.363,948.6
626.891,1360.65
627.42,1825.45
627.949,1428.5
628.477,1874.95
629.006,1378.35
629.534,1260.05
630.062,1140.2
630.591,1111.55
631.119,974.3
631.647,904.6
632.175,893.15
632.703,885.35
633.231,884.1
633.759,880.35
634.287,876.45
634.815,873.1
635.343,871.1
635.871,870.65
636.398,869.9
636.926,869.7
637.454,866.15
637.981,866.95
638.509,864.75
639.036,863.1
639.564,862.4
640.091,863.0
640.618,864.55
641.146,862.5
641.673,864.8
642.2,863.3
642.727,861.6
643.254,860.95
643.781,861.5
644.308,862.0
644.835,861.45
645.362,859.7
645.889,861.3
646.416,862.35
646.942,862.1
647.469,861.0
647.996,859.75
648.522,859.45
649.049,860.6
649.576,859.95
650.102,859.3
650.629,859.85
651.155,861.35
651.682,858.95
652.208,860.1
652.734,859.7
653.261,859.5
653.787,860.2
654.313,858.8
654.839,860.3
655.365,858.9
655.892,859.6
656.418,859.65
656.944,857.9
657.47,858.55
657.996,858.35
658.522,859.15
659.048,858.85
659.574,858.85
660.099,861.5
660.625,858.15
661.151,859.75
661.677,857.25
662.203,855.55
662.728,856.25
663.123,854.0