File: spectra/VLFR_02-HDPE_nobio_Raman_a5041157.csv
nm,Intensity
526.486,830.2
527.033,830.5
527.579,831.1
528.126,829.7
528.672,829.7
529.219,830.1
529.765,828.5
530.311,829.5
530.857,830.3
531.403,829.5
531.948,833.9
532.494,831.0
533.039,829.8
533.585,829.7
534.13,878.6
534.675,873.7
535.22,870.4
535.764,855.0
536.309,852.4
536.854,851.3
537.398,850.5
537.942,849.7
538.486,850.2
539.03,847.8
539.574,845.7
540.118,844.9
540.662,845.7
541.205,844.7
541.749,844.8
542.292,845.9
542.835,847.8
543.378,844.7
543.921,844.5
544.464,845.0
545.006,844.2
545.549,845.1
546.091,843.5
546.634,846.6
547.176,845.8
547.718,844.4
548.26,844.5
548.802,846.6
549.343,845.8
549.885,847.8
550.426,847.3
550.968,847.8
551.509,847.4
552.05,849.1
552.591,850.8
553.132,849.3
553.673,851.2
554.214,854.1
554.754,853.3
555.295,852.6
555.835,855.9
556.375,859.6
556.915,857.0
557.455,862.1
557.995,864.0
558.535,866.2
559.075,865.5
559.614,865.5
560.154,866.2
560.693,868.7
561.232,869.7
561.772,871.1
562.311,873.1
562.85,871.6
563.388,874.4
563.927,918.5
564.466,889.9
565.004,887.7
565.543,880.5
566.081,942.1
566.619,884.8
567.157,878.7
567.695,880.8
568.233,875.0
568.771,877.0
569.309,879.3
569.846,878.2
570.384,883.3
570.921,888.5
571.458,958.1
571.995,903.1
572.532,885.6
573.069,886.9
573.606,885.1
574.143,894.7
574.68,889.0
575.216,890.8
575.753,932.9
576.289,1003.7
576.825,958.1
577.361,948.4
577.897,916.6
578.433,919.6
578.969,919.5
579.505,928.4
580.041,927.6
580.576,929.8
581.112,938.5
581.647,944.6
582.183,943.7
582.718,952.3
583.253,954.3
583.788,960.7
584.323,956.8
584.858,956.9
585.392,958.9
585.927,963.8
586.462,968.4
586.996,966.9
587.53,972.2
588.065,973.7
588.599,968.8
589.133,973.8
589.667,982.9
590.201,981.6
590.735,982.9
591.268,989.2
591.802,990.8
592.335,993.6
592.869,993.7
593.402,995.3
593.936,998.1
594.469,999.7
595.002,999.3
595.535,1002.6
596.068,1010.4
596.601,1010.6
597.133,1013.4
597.666,1009.4
598.199,1021.9
598.731,1020.8
599.264,1024.1
599.796,1029.3
600.328,1017.1
600.86,1021.6
601.393,1018.2
601.925,1011.6
602.457,1012.9
602.988,1011.3
603.52,1005.7
604.052,1002.6
604.583,1002.0
605.115,987.8
605.646,986.1
606.178,976.5
606.709,974.5
607.24,974.0
607.771,968.8
608.302,961.8
608.833,961.9
609.364,961.2
609.895,959.0
610.426,953.7
610.957,957.2
611.487,951.9
612.018,948.9
612.548,947.4
613.078,949.5
613.609,943.9
614.139,939.6
614.669,940.9
615.199,936.4
615.729,936.2
616.259,931.9
616.789,934.7
617.319,932.9
617.849,936.0
618.378,932.9
618.908,933.7
619.437,933.2
619.967,937.7
620.496,933.6
621.025,937.7
621.555,945.6
622.084,970.4
622.613,962.5
623.142,936.4
623.671,929.9
624.2,930.6
624.729,932.7
625.258,935.0
625.786,943.6
626.315,960.2
626.844,1159.8
627.372,1596.1
627.901,1300.0
628.429,1477.0
628.957,1357.6
629.486,1243.5
630.014,1142.2
630.542,1122.5
631.07,1016.8
631.598,950.3
632.126,941.8
632.654,936.8
633.182,937.5
633.71,925.6
634.237,924.6
634.765,928.0
635.293,920.4
635.82,921.9
636.348,920.7
636.875,919.7
637.403,920.4
637.93,920.7
638.458,915.6
638.985,914.1
639.512,912.4
640.039,915.9
640.566,920.8
641.093,913.0
641.62,913.5
642.147,917.8
642.674,915.4
643.201,914.4
643.728,917.0
644.255,913.1
644.781,913.9
645.308,915.9
645.835,913.5
646.361,917.1
646.888,914.1
647.414,913.3
647.941,915.9
648.467,911.1
648.993,911.9
649.52,912.1
650.046,911.7
650.572,908.0
651.098,910.5
651.625,909.4
652.151,908.1
652.677,907.3
653.203,908.3
653.729,909.6
654.255,904.9
654.78,904.3
655.306,907.4
655.832,907.1
656.358,904.7
656.884,904.5
657.409,902.5
657.935,899.0
658.461,901.4
658.986,899.2
659.512,900.4
660.037,898.0
660.563,896.4
661.088,893.4
661.614,890.9
662.139,887.8
662.664,886.1
663.058,885.6