File: spectra/VLFR_02-HDPE_bio_Raman_d481c8c0.csv
nm,Intensity
528.629,1850.8
529.134,1851.2
529.639,1851.05
530.145,1849.15
530.65,1852.2
531.155,1851.1
531.66,1874.55
532.165,2727.55
532.67,1851.75
533.175,1850.4
533.68,1874.8
534.185,1922.7
534.69,1922.85
535.195,1915.2
535.699,1900.35
536.204,1890.3
536.709,1890.1
537.213,1891.0
537.718,1889.0
538.222,1890.0
538.727,1890.65
539.231,1887.9
539.735,1886.1
540.239,1885.35
540.744,1886.45
541.248,1882.7
541.752,1883.05
542.256,1885.75
542.76,1887.55
543.264,1886.95
543.768,1885.9
544.271,1884.85
544.775,1884.05
545.279,1884.3
545.783,1886.8
546.286,1886.3
546.79,1888.25
547.293,1886.2
547.797,1887.95
548.3,1890.65
548.803,1888.45
549.306,1888.45
549.81,1887.7
550.313,1887.95
550.816,1892.05
551.319,1891.4
551.822,1891.45
552.325,1889.7
552.828,1891.3
553.33,1892.2
553.833,1894.75
554.336,1896.7
554.838,1895.85
555.341,1893.05
555.843,1900.15
556.346,1900.7
556.848,1902.2
557.35,1907.3
557.853,1909.45
558.355,1910.65
558.857,1912.6
559.359,1909.05
559.861,1904.9
560.363,1904.1
560.865,1904.4
561.367,1904.3
561.869,1907.5
562.37,1910.2
562.872,1915.7
563.374,1919.85
563.875,2034.35
564.376,1944.15
564.878,1928.85
565.379,1933.6
565.881,2027.8
566.382,2035.35
566.883,1924.65
567.384,1943.85
567.885,1922.2
568.386,1916.55
568.887,1919.5
569.388,1915.0
569.888,1918.35
570.389,1923.0
570.89,1932.1
571.39,2124.4
571.891,1963.6
572.391,1931.3
572.892,1917.85
573.392,1920.85
573.892,1934.25
574.393,1921.0
574.893,1921.2
575.393,2046.1
575.893,2014.65
576.393,2055.0
576.893,2013.9
577.392,1959.3
577.892,1930.95
578.392,1923.05
578.891,1921.25
579.391,1923.85
579.89,1920.05
580.39,1921.0
580.889,1921.35
581.388,1916.1
581.888,1919.05
582.387,1914.0
582.886,1918.65
583.385,1912.2
583.884,1914.7
584.383,1908.4
584.881,1916.9
585.38,1909.1
585.879,1916.15
586.377,1914.9
586.876,1913.45
587.374,1912.55
587.873,1913.85
588.371,1909.15
588.869,1915.2
589.368,1910.05
589.866,1911.85
590.364,1915.7
590.862,1914.55
591.36,1908.75
591.857,1916.0
592.355,1913.35
592.853,1917.85
593.35,1911.45
593.848,1916.3
594.345,1915.2
594.843,1918.15
595.34,1922.35
595.837,1920.25
596.335,1921.9
596.832,1922.4
597.329,1921.2
597.826,1920.85
598.323,1922.35
598.819,1925.55
599.316,1926.55
599.813,1927.05
600.309,1925.65
600.806,1917.65
601.302,1922.8
601.799,1929.3
602.295,1926.3
602.791,1926.6
603.288,1926.9
603.784,1923.9
604.28,1924.35
604.776,1928.65
605.272,1925.25
605.767,1921.75
606.263,1920.75
606.759,1920.25
607.254,1921.55
607.75,1923.25
608.245,1921.1
608.74,1925.15
609.236,1920.45
609.731,1920.3
610.226,1917.95
610.721,1925.1
611.216,1927.9
611.711,1928.65
612.206,1922.25
612.7,1923.4
613.195,1917.35
613.69,1917.6
614.184,1919.1
614.679,1921.2
615.173,1916.6
615.667,1923.6
616.161,1920.75
616.656,1920.55
617.15,1933.4
617.644,1931.05
618.137,1930.1
618.631,1931.15
619.125,1935.95
619.619,1940.65
620.112,1930.95
620.606,1939.35
621.099,1950.0
621.592,1970.25
622.086,1993.25
622.579,1982.6
623.072,1945.85
623.565,1940.7
624.058,1936.0
624.551,1939.85
625.043,1939.95
625.536,1945.85
626.029,1972.5
626.521,2129.8
627.014,2933.7
627.506,2743.35
627.998,2554.0
628.49,3042.25
628.983,2489.3
629.475,2384.75
629.966,2232.8
630.458,2218.45
630.95,2068.15
631.442,1968.0
631.933,1945.95
632.425,1933.45
632.916,1927.8
633.408,1923.9
633.899,1921.05
634.39,1919.45
634.881,1915.25
635.372,1919.45
635.863,1910.55
636.354,1913.8
636.845,1910.1
637.336,1908.35
637.826,1906.25
638.317,1905.3
638.807,1901.25
639.298,1902.15
639.788,1901.9
640.278,1904.35
640.768,1903.2
641.258,1899.5
641.748,1900.2
642.238,1897.5
642.728,1899.15
643.217,1897.45
643.707,1898.3
644.197,1898.15
644.686,1893.0
645.175,1897.05
645.664,1894.2
646.154,1900.5
646.643,1899.75
647.132,1899.0
647.621,1898.8
648.109,1898.85
648.598,1897.2
649.087,1892.8
649.575,1893.85
650.064,1893.45
650.552,1894.2
651.04,1891.9
651.528,1896.2
652.017,1892.5
652.505,1892.55
652.992,1894.25
653.48,1889.95
653.968,1892.55
654.456,1890.6
654.943,1890.7
655.431,1890.25
655.918,1888.7
656.405,1889.75
656.893,1888.95
657.38,1891.65
657.867,1886.85
658.354,1885.4
658.84,1887.85
659.327,1886.8
659.814,1891.95
660.3,1883.65
660.787,1884.35
661.03,1886.3