File: spectra/VLFR_02-HDPE_nobio_Raman_48982249.csv
nm,Intensity
526.5,829.6
527.047,829.2
527.594,826.5
528.14,829.4
528.687,828.6
529.233,829.3
529.779,828.4
530.325,828.8
530.871,829.0
531.417,828.9
531.962,832.3
532.508,828.8
533.053,827.9
533.599,829.4
534.144,841.3
534.689,839.6
535.234,838.5
535.778,837.6
536.323,838.5
536.867,839.8
537.412,837.7
537.956,836.8
538.5,837.1
539.044,837.2
539.588,836.4
540.132,835.8
540.675,835.1
541.219,834.3
541.762,834.6
542.305,835.6
542.848,834.9
543.391,835.4
543.934,836.9
544.477,840.5
545.02,843.8
545.562,856.2
546.105,866.0
546.647,850.4
547.189,837.5
547.731,836.5
548.273,834.4
548.815,835.1
549.356,836.4
549.898,844.0
550.439,843.7
550.981,853.7
551.522,840.1
552.063,837.0
552.604,836.0
553.145,837.4
553.686,835.3
554.226,836.0
554.767,837.3
555.307,835.6
555.848,836.4
556.388,836.3
556.928,836.0
557.468,836.0
558.008,834.9
558.547,836.3
559.087,836.0
559.626,837.1
560.166,838.1
560.705,838.0
561.244,841.0
561.783,860.6
562.322,998.0
562.861,868.2
563.4,839.0
563.939,838.9
564.477,841.2
565.015,839.2
565.554,843.1
566.092,843.7
566.63,846.1
567.168,844.1
567.706,840.7
568.244,841.1
568.781,840.3
569.319,840.0
569.857,838.4
570.394,837.0
570.931,839.6
571.468,837.8
572.005,839.3
572.542,838.4
573.079,838.8
573.616,837.8
574.153,838.4
574.689,839.3
575.226,839.7
575.762,838.1
576.298,840.4
576.834,840.2
577.371,839.9
577.907,839.5
578.442,838.9
578.978,839.7
579.514,839.5
580.049,839.5
580.585,840.8
581.12,840.9
581.656,840.2
582.191,843.4
582.726,842.4
583.261,842.0
583.796,841.1
584.331,842.7
584.865,844.4
585.4,842.2
585.935,843.0
586.469,843.7
587.004,845.4
587.538,844.9
588.072,845.9
588.606,843.3
589.14,847.1
589.674,847.0
590.208,847.3
590.742,846.8
591.275,848.3
591.809,850.6
592.342,852.5
592.876,851.1
593.409,852.7
593.942,853.3
594.476,855.8
595.009,856.5
595.542,859.2
596.075,859.3
596.607,860.1
597.14,866.3
597.673,863.9
598.205,867.5
598.738,867.9
599.27,868.9
599.803,869.3
600.335,870.0
600.867,869.2
601.399,870.1
601.931,869.2
602.463,868.9
602.995,865.7
603.527,870.5
604.058,869.9
604.59,866.8
605.122,865.5
605.653,863.3
606.184,866.6
606.716,860.6
607.247,860.8
607.778,863.5
608.309,862.5
608.84,857.4
609.371,859.8
609.902,858.9
610.433,858.9
610.964,858.2
611.494,858.6
612.025,856.8
612.556,854.6
613.086,857.4
613.616,859.1
614.147,856.2
614.677,859.4
615.207,856.1
615.737,856.3
616.267,853.2
616.797,854.5
617.327,854.9
617.857,855.3
618.387,855.2
618.917,853.7
619.446,852.2
619.976,853.2
620.505,853.1
621.035,854.5
621.564,850.2
622.093,852.9
622.623,851.9
623.152,854.0
623.681,853.0
624.21,851.6
624.739,850.2
625.268,850.9
625.797,849.7
626.326,848.2
626.855,851.2
627.383,852.1
627.912,851.1
628.441,851.0
628.969,850.7
629.498,851.0
630.026,850.5
630.554,851.0
631.083,851.6
631.611,850.7
632.139,848.3
632.667,848.7
633.195,846.9
633.724,846.6
634.252,849.5
634.779,847.7
635.307,845.6
635.835,847.1
636.363,846.5
636.891,847.5
637.418,847.9
637.946,848.6
638.474,850.0
639.001,850.3
639.529,847.5
640.056,850.9
640.583,848.9
641.111,847.6
641.638,849.4
642.165,850.4
642.692,851.5
643.22,852.1
643.747,849.5
644.274,850.5
644.801,850.2
645.328,850.2
645.854,851.9
646.381,853.1
646.908,851.3
647.435,855.1
647.962,854.2
648.488,854.0
649.015,854.1
649.542,854.1
650.068,855.5
650.595,857.7
651.121,854.4
651.648,857.5
652.174,856.4
652.7,856.2
653.227,859.9
653.753,857.3
654.279,862.7
654.805,859.4
655.331,861.2
655.858,858.5
656.384,857.8
656.91,860.6
657.436,854.1
657.962,855.1
658.488,858.2
659.013,853.6
659.539,854.7
660.065,853.5
660.591,855.5
661.117,851.9
661.642,852.7
662.168,850.8
662.694,849.8
663.088,850.2