File: spectra/VLFR_06-PET_nobio_Raman_2b26fef9.csv
nm,Intensity
526.486,830.0
527.033,830.3
527.579,830.1
528.126,829.9
528.672,830.5
529.219,831.2
529.765,830.7
530.311,830.0
530.857,829.8
531.403,830.6
531.948,836.0
532.494,833.3
533.039,830.5
533.585,836.2
534.13,1784.5
534.675,1552.3
535.22,1303.2
535.764,1156.5
536.309,1058.9
536.854,1014.7
537.398,1001.1
537.942,992.9
538.486,992.8
539.03,997.8
539.574,1002.4
540.118,1021.8
540.662,989.6
541.205,982.5
541.749,979.0
542.292,981.7
542.835,982.0
543.378,986.8
543.921,993.7
544.464,987.7
545.006,993.5
545.549,999.7
546.091,998.4
546.634,1003.2
547.176,1002.5
547.718,1010.8
548.26,1011.2
548.802,1017.7
549.343,1018.2
549.885,1024.6
550.426,1041.9
550.968,1043.1
551.509,1033.4
552.05,1035.5
552.591,1043.4
553.132,1063.5
553.673,1053.2
554.214,1050.0
554.754,1053.3
555.295,1075.3
555.835,1112.5
556.375,1113.4
556.915,1125.2
557.455,1244.4
557.995,1168.4
558.535,1144.6
559.075,1119.3
559.614,1098.7
560.154,1105.9
560.693,1107.0
561.232,1119.8
561.772,1124.0
562.311,1138.1
562.85,1149.2
563.388,1154.1
563.927,1149.6
564.466,1161.9
565.004,1209.1
565.543,1251.8
566.081,1255.7
566.619,1191.7
567.157,1179.8
567.695,1250.1
568.233,1195.1
568.771,1183.9
569.309,1198.1
569.846,1223.8
570.384,1260.2
570.921,1369.6
571.458,1502.1
571.995,1350.2
572.532,1271.7
573.069,1244.8
573.606,1250.8
574.143,1282.8
574.68,1258.2
575.216,1294.2
575.753,1282.7
576.289,1301.7
576.825,1317.5
577.361,1295.0
577.897,1290.9
578.433,1300.9
578.969,1305.4
579.505,1317.9
580.041,1314.1
580.576,1317.2
581.112,1348.1
581.647,1414.7
582.183,2466.1
582.718,1412.6
583.253,1359.6
583.788,1366.6
584.323,1372.6
584.858,1386.1
585.392,1459.8
585.927,1932.3
586.462,1758.3
586.996,1443.7
587.53,1411.4
588.065,1400.7
588.599,1392.2
589.133,1392.7
589.667,1398.6
590.201,1405.5
590.735,1409.7
591.268,1413.4
591.802,1414.0
592.335,1413.1
592.869,1411.0
593.402,1415.0
593.936,1415.1
594.469,1426.0
595.002,1424.4
595.535,1444.0
596.068,1436.8
596.601,1436.7
597.133,1454.2
597.666,1439.1
598.199,1466.5
598.731,1462.5
599.264,1470.1
599.796,1476.4
600.328,1461.4
600.86,1458.0
601.393,1464.6
601.925,1470.4
602.457,1481.4
602.988,1472.4
603.52,1472.2
604.052,1482.6
604.583,1475.9
605.115,1470.2
605.646,1470.0
606.178,1470.5
606.709,1471.1
607.24,1475.1
607.771,1477.3
608.302,1479.0
608.833,1503.0
609.364,1492.1
609.895,1487.9
610.426,1487.6
610.957,1495.9
611.487,1492.1
612.018,1496.1
612.548,1513.7
613.078,1518.8
613.609,1537.6
614.139,1537.1
614.669,1531.9
615.199,1530.9
615.729,1535.1
616.259,1528.7
616.789,1537.9
617.319,1547.8
617.849,1561.2
618.378,1568.4
618.908,1566.7
619.437,1562.2
619.967,1556.4
620.496,1562.9
621.025,1559.3
621.555,1565.6
622.084,1565.6
622.613,1586.7
623.142,1585.7
623.671,1594.4
624.2,1604.7
624.729,1623.4
625.258,1618.8
625.786,1619.7
626.315,1626.8
626.844,1624.4
627.372,1633.9
627.901,1656.5
628.429,1666.6
628.957,1688.5
629.486,1696.5
630.014,1709.4
630.542,1705.2
631.07,1752.9
631.598,1868.9
632.126,1867.3
632.654,1807.0
633.182,1794.7
633.71,1784.6
634.237,1758.0
634.765,1772.2
635.293,1775.6
635.82,1834.3
636.348,1936.9
636.875,1953.1
637.403,1848.1
637.93,1813.3
638.458,1822.6
638.985,1823.3
639.512,1836.3
640.039,1839.2
640.566,1841.3
641.093,1854.6
641.62,1867.2
642.147,1872.1
642.674,1877.9
643.201,1861.7
643.728,1863.6
644.255,1865.2
644.781,1876.9
645.308,1871.8
645.835,1879.9
646.361,1888.2
646.888,1893.2
647.414,1900.3
647.941,1912.2
648.467,1900.5
648.993,1888.4
649.52,1914.4
650.046,1906.0
650.572,1913.2
651.098,1920.1
651.625,1914.9
652.151,1919.8
652.677,1922.5
653.203,1919.0
653.729,1927.3
654.255,1927.3
654.78,1943.5
655.306,1921.6
655.832,1932.2
656.358,1933.2
656.884,1929.7
657.409,1934.3
657.935,1931.5
658.461,1942.2
658.986,1945.9
659.512,1941.6
660.037,1945.6
660.563,1939.6
661.088,1919.7
661.614,1920.4
662.139,1918.8
662.664,1923.9
663.058,1910.0