File: spectra/VLFR_02-HDPE_nobio_Raman_c77363d1.csv
nm,Intensity
526.532,829.067
527.079,828.9
527.625,829.6
528.172,829.467
528.718,829.733
529.265,828.767
529.811,829.067
530.357,829.0
530.903,829.6
531.449,829.367
531.994,835.267
532.54,828.9
533.085,829.033
533.63,830.433
534.176,904.767
534.721,891.633
535.266,876.967
535.81,865.733
536.355,860.5
536.9,856.7
537.444,855.733
537.988,856.2
538.533,852.633
539.077,849.433
539.621,846.5
540.165,845.6
540.708,845.1
541.252,844.7
541.795,844.133
542.339,843.767
542.882,844.0
543.425,843.133
543.968,844.067
544.511,843.133
545.054,842.8
545.597,841.933
546.139,842.467
546.682,843.433
547.224,843.4
547.766,843.433
548.308,842.3
548.85,842.167
549.392,843.567
549.934,842.233
550.475,842.8
551.017,841.633
551.558,843.1
552.1,842.967
552.641,842.967
553.182,845.1
553.723,845.467
554.264,845.633
554.804,846.933
555.345,847.533
555.885,847.967
556.426,848.767
556.966,852.133
557.506,851.0
558.046,855.8
558.586,855.633
559.126,853.767
559.665,852.533
560.205,852.767
560.745,852.067
561.284,851.4
561.823,851.933
562.362,853.6
562.901,857.8
563.44,861.933
563.979,996.0
564.518,883.033
565.056,876.2
565.595,875.567
566.133,1129.93
566.671,875.167
567.21,863.567
567.748,859.933
568.285,856.667
568.823,856.167
569.361,857.867
569.899,858.567
570.436,863.933
570.974,870.5
571.511,1109.03
572.048,890.967
572.585,867.6
573.122,862.3
573.659,862.7
574.196,872.667
574.733,860.267
575.269,883.2
575.806,963.8
576.342,1000.03
576.878,950.467
577.414,911.367
577.951,877.833
578.486,873.733
579.022,874.8
579.558,875.1
580.094,876.567
580.629,879.7
581.165,882.133
581.7,883.833
582.236,889.733
582.771,888.767
583.306,893.333
583.841,896.567
584.376,898.3
584.911,903.367
585.445,904.567
585.98,909.033
586.514,910.867
587.049,913.9
587.583,917.033
588.117,918.633
588.651,918.667
589.186,921.633
589.72,923.9
590.253,926.367
590.787,930.933
591.321,933.733
591.854,933.7
592.388,935.367
592.921,936.667
593.455,938.667
593.988,939.7
594.521,939.333
595.054,941.833
595.587,944.4
596.12,945.3
596.653,943.433
597.186,942.867
597.718,946.133
598.251,946.2
598.783,948.7
599.316,950.0
599.848,951.767
600.38,948.567
600.912,945.6
601.444,945.433
601.976,949.2
602.508,948.933
603.04,946.533
603.572,945.933
604.103,945.633
604.635,943.067
605.167,940.867
605.698,939.067
606.229,934.367
606.761,932.333
607.292,931.133
607.823,933.933
608.354,929.6
608.885,929.467
609.416,928.2
609.947,927.467
610.477,926.133
611.008,929.733
611.539,927.267
612.069,922.367
612.6,921.8
613.13,920.233
613.66,918.867
614.19,918.033
614.721,916.7
615.251,914.367
615.781,916.1
616.311,916.2
616.841,918.733
617.37,918.467
617.9,919.8
618.43,917.7
618.96,916.4
619.489,916.633
620.019,916.3
620.548,916.3
621.077,921.6
621.607,928.067
622.136,951.067
622.665,943.8
623.194,919.967
623.723,913.033
624.252,911.067
624.781,910.7
625.31,916.067
625.839,926.033
626.368,953.8
626.896,1220.67
627.425,1642.73
627.953,1326.67
628.482,1553.6
629.01,1403.47
629.539,1293.13
630.067,1183.73
630.596,1154.13
631.124,1013.67
631.652,943.967
632.18,925.067
632.708,917.9
633.236,912.767
633.764,908.833
634.292,906.367
634.82,906.0
635.348,904.5
635.876,904.6
636.403,904.367
636.931,905.2
637.459,900.367
637.986,901.633
638.514,903.467
639.041,902.9
639.568,902.8
640.096,902.233
640.623,901.967
641.15,900.833
641.678,904.7
642.205,902.4
642.732,902.1
643.259,903.3
643.786,900.433
644.313,903.0
644.84,901.967
645.367,903.4
645.894,903.367
646.421,904.2
646.948,901.533
647.474,902.867
648.001,903.4
648.528,902.9
649.054,900.6
649.581,899.5
650.108,898.9
650.634,896.8
651.161,898.6
651.687,899.867
652.214,899.033
652.74,895.967
653.266,896.867
653.793,897.8
654.319,896.233
654.845,896.367
655.371,894.733
655.897,893.633
656.424,893.4
656.95,894.0
657.476,893.0
658.002,891.0
658.528,891.667
659.054,889.533
659.58,890.9
660.106,891.633
660.631,888.7
661.157,885.2
661.683,885.467
662.209,885.167
662.735,882.433
663.129,882.533