File: spectra/VLFR_02-HDPE_bio_Raman_ab3e7439.csv
nm,Intensity
526.508,831.5
527.055,831.0
527.602,830.0
528.149,829.7
528.695,830.0
529.241,829.3
529.787,829.6
530.334,830.4
530.879,828.8
531.425,830.1
531.971,834.5
532.516,831.2
533.062,829.1
533.607,829.6
534.152,925.1
534.697,909.2
535.242,893.7
535.786,883.8
536.331,875.0
536.876,870.1
537.42,872.5
537.964,866.0
538.508,866.2
539.052,862.0
539.596,861.3
540.14,857.6
540.683,856.5
541.227,856.6
541.77,857.8
542.313,857.0
542.856,856.0
543.399,857.7
543.942,855.9
544.485,858.0
545.027,856.6
545.57,855.6
546.112,857.1
546.654,857.4
547.196,858.4
547.738,859.2
548.28,856.7
548.822,857.5
549.363,856.0
549.905,858.3
550.446,857.7
550.988,856.4
551.529,856.9
552.07,858.5
552.611,856.9
553.152,859.7
553.692,862.0
554.233,859.5
554.773,860.7
555.314,861.1
555.854,861.7
556.394,862.6
556.934,865.0
557.474,868.2
558.014,869.7
558.553,872.3
559.093,866.1
559.632,867.6
560.172,865.7
560.711,865.9
561.25,866.8
561.789,869.7
562.328,870.8
562.867,873.5
563.406,877.6
563.944,977.7
564.483,902.4
565.021,894.3
565.559,892.7
566.098,1113.9
566.636,900.6
567.174,883.0
567.711,875.8
568.249,875.4
568.787,880.9
569.324,876.3
569.862,877.9
570.399,884.3
570.936,890.0
571.474,1062.7
572.011,913.1
572.548,887.8
573.084,883.6
573.621,885.7
574.158,899.9
574.694,883.9
575.231,901.6
575.767,1017.3
576.303,1008.2
576.84,977.8
577.376,939.1
577.912,908.5
578.447,905.5
578.983,901.7
579.519,909.6
580.054,914.3
580.59,920.8
581.125,927.1
581.661,933.7
582.196,944.3
582.731,954.5
583.266,958.2
583.801,968.0
584.336,979.2
584.87,986.4
585.405,994.1
585.94,1010.3
586.474,1019.5
587.008,1025.1
587.543,1037.5
588.077,1051.6
588.611,1062.5
589.145,1065.3
589.679,1077.9
590.213,1085.1
590.747,1092.6
591.28,1104.9
591.814,1109.4
592.347,1110.5
592.881,1116.0
593.414,1113.3
593.947,1120.7
594.48,1117.8
595.014,1129.3
595.547,1127.3
596.079,1130.4
596.612,1133.5
597.145,1139.8
597.678,1141.6
598.21,1149.0
598.743,1151.7
599.275,1162.4
599.807,1169.1
600.34,1165.3
600.872,1161.2
601.404,1157.7
601.936,1157.7
602.468,1148.4
603.0,1143.9
603.532,1142.8
604.063,1140.4
604.595,1132.0
605.126,1114.5
605.658,1099.5
606.189,1098.0
606.721,1089.9
607.252,1085.6
607.783,1075.9
608.314,1072.6
608.845,1067.5
609.376,1063.8
609.907,1062.9
610.438,1053.6
610.968,1051.2
611.499,1045.1
612.03,1040.4
612.56,1038.1
613.091,1036.6
613.621,1034.5
614.151,1025.7
614.681,1022.2
615.212,1017.1
615.742,1008.7
616.272,1012.0
616.802,1003.6
617.332,1005.0
617.861,1009.3
618.391,999.7
618.921,999.3
619.45,995.6
619.98,997.3
620.509,996.7
621.039,993.4
621.568,999.7
622.097,1019.5
622.627,1015.1
623.156,990.2
623.685,984.4
624.214,983.2
624.743,981.4
625.272,987.9
625.801,989.2
626.33,1016.3
626.858,1211.3
627.387,1661.5
627.916,1354.5
628.444,1465.3
628.973,1433.8
629.501,1331.1
630.029,1229.3
630.558,1211.6
631.086,1083.1
631.614,1017.0
632.142,995.7
632.67,987.4
633.198,986.1
633.726,982.3
634.254,980.6
634.782,977.7
635.31,982.7
635.838,982.7
636.365,985.8
636.893,989.3
637.421,989.8
637.948,992.8
638.476,990.4
639.003,993.6
639.531,999.5
640.058,995.9
640.585,998.4
641.113,1000.4
641.64,999.5
642.167,1001.1
642.694,1007.4
643.221,1003.9
643.748,1007.7
644.275,1010.7
644.802,1005.1
645.329,1008.0
645.856,1006.7
646.382,1005.5
646.909,1009.7
647.436,1005.2
647.962,1006.9
648.489,1000.0
649.016,1007.8
649.542,1005.4
650.069,1001.8
650.595,1007.3
651.121,1002.3
651.648,998.4
652.174,1007.8
652.7,998.2
653.227,996.2
653.753,1001.4
654.279,997.8
654.805,993.2
655.331,992.9
655.857,990.6
656.383,990.8
656.909,985.9
657.435,987.4
657.961,980.8
658.487,982.3
659.013,974.8
659.538,974.6
660.064,968.3
660.59,963.8
661.116,961.7
661.641,961.9
662.167,952.2
662.692,948.2
663.087,947.2