File: spectra/VLFR_01-LDPE_bio_Raman_82d22de2.csv
nm,Intensity
526.547,832.7
527.095,832.35
527.642,832.6
528.189,831.9
528.736,832.1
529.283,832.65
529.829,833.1
530.376,831.5
530.922,832.6
531.468,832.6
532.014,839.5
532.56,832.1
533.106,833.3
533.651,833.45
534.196,906.85
534.742,895.15
535.287,883.1
535.832,871.3
536.376,866.95
536.921,864.15
537.465,864.95
538.01,862.7
538.554,860.75
539.098,857.4
539.642,858.15
540.186,857.4
540.729,854.8
541.273,854.35
541.816,853.05
542.36,853.3
542.903,851.0
543.446,852.1
543.988,852.55
544.531,850.85
545.074,852.2
545.616,851.35
546.158,850.8
546.701,850.6
547.243,850.35
547.785,850.5
548.326,850.0
548.868,850.5
549.41,849.35
549.951,849.7
550.492,851.7
551.034,850.1
551.575,850.55
552.116,850.65
552.656,850.55
553.197,853.45
553.738,853.95
554.278,855.75
554.819,856.5
555.359,856.95
555.899,856.35
556.439,858.55
556.979,860.4
557.519,861.65
558.058,864.5
558.598,864.65
559.137,866.8
559.677,864.75
560.216,865.7
560.755,864.5
561.294,866.6
561.833,869.1
562.371,870.2
562.91,873.35
563.449,881.05
563.987,930.3
564.525,896.65
565.064,891.0
565.602,887.35
566.14,942.15
566.678,893.1
567.216,890.7
567.753,891.5
568.291,892.6
568.828,893.05
569.366,898.45
569.903,900.85
570.44,909.8
570.977,915.45
571.514,1006.8
572.051,941.15
572.588,932.5
573.125,931.95
573.661,940.75
574.198,952.05
574.734,952.95
575.271,964.35
575.807,1004.1
576.343,1093.65
576.879,1063.35
577.415,1044.7
577.951,1034.5
578.486,1048.4
579.022,1062.9
579.557,1082.75
580.093,1104.3
580.628,1122.45
581.164,1138.1
581.699,1158.45
582.234,1173.75
582.769,1197.65
583.304,1207.75
583.838,1229.2
584.373,1236.45
584.908,1258.7
585.442,1276.4
585.977,1290.75
586.511,1318.4
587.045,1342.4
587.58,1367.3
588.114,1394.5
588.648,1411.4
589.182,1439.3
589.715,1463.75
590.249,1497.5
590.783,1514.45
591.316,1544.9
591.85,1559.8
592.383,1580.2
592.917,1591.65
593.45,1607.9
593.983,1622.85
594.516,1632.15
595.049,1657.3
595.582,1674.3
596.115,1694.75
596.648,1724.3
597.18,1742.8
597.713,1765.8
598.245,1790.3
598.778,1826.6
599.31,1850.25
599.842,1865.25
600.375,1865.15
600.907,1862.75
601.439,1860.05
601.971,1852.7
602.503,1833.55
603.034,1812.3
603.566,1785.85
604.098,1743.75
604.629,1710.35
605.161,1658.0
605.692,1614.3
606.224,1568.95
606.755,1536.75
607.286,1503.35
607.817,1487.35
608.348,1458.75
608.879,1437.9
609.41,1414.4
609.941,1388.95
610.472,1371.55
611.002,1357.95
611.533,1340.1
612.063,1329.15
612.594,1317.3
613.124,1312.75
613.655,1301.0
614.185,1292.5
614.715,1278.4
615.245,1262.75
615.775,1252.6
616.305,1242.45
616.835,1237.9
617.365,1228.15
617.895,1225.5
618.425,1209.25
618.954,1200.2
619.484,1200.0
620.013,1194.3
620.543,1184.75
621.072,1182.85
621.602,1189.1
622.131,1199.1
622.66,1198.55
623.189,1169.3
623.718,1159.9
624.247,1161.85
624.776,1155.05
625.305,1155.55
625.834,1155.55
626.363,1174.7
626.891,1358.25
627.42,1608.15
627.949,1427.4
628.477,1635.1
629.006,1460.8
629.534,1393.0
630.062,1309.3
630.591,1302.6
631.119,1211.95
631.647,1167.1
632.175,1153.95
632.703,1142.75
633.231,1143.6
633.759,1142.75
634.287,1138.6
634.815,1144.9
635.343,1140.75
635.871,1144.15
636.398,1148.15
636.926,1149.1
637.454,1150.7
637.981,1151.25
638.509,1159.25
639.036,1159.65
639.564,1166.8
640.091,1171.7
640.618,1174.9
641.146,1182.8
641.673,1185.4
642.2,1186.9
642.727,1192.7
643.254,1189.4
643.781,1191.9
644.308,1198.4
644.835,1197.3
645.362,1203.0
645.889,1196.55
646.416,1206.05
646.942,1212.45
647.469,1212.7
647.996,1213.4
648.522,1209.55
649.049,1208.1
649.576,1210.25
650.102,1207.7
650.629,1208.15
651.155,1210.3
651.682,1214.3
652.208,1215.1
652.734,1217.4
653.261,1218.6
653.787,1214.7
654.313,1215.35
654.839,1218.6
655.365,1213.95
655.892,1203.4
656.418,1204.05
656.944,1195.35
657.47,1188.7
657.996,1178.35
658.522,1171.6
659.048,1165.7
659.574,1151.05
660.099,1138.45
660.625,1131.5
661.151,1113.8
661.677,1102.25
662.203,1092.85
662.728,1076.35
663.123,1071.85