File: spectra/VLFR_02-HDPE_nobio_Raman_6429837d.csv
nm,Intensity
526.532,830.067
527.079,830.267
527.625,829.733
528.172,829.067
528.718,830.567
529.265,829.933
529.811,829.7
530.357,830.0
530.903,830.0
531.449,829.833
531.994,832.6
532.54,830.5
533.085,830.367
533.63,830.933
534.176,913.667
534.721,912.3
535.266,910.033
535.81,876.267
536.355,865.667
536.9,862.6
537.444,862.1
537.988,860.633
538.533,859.367
539.077,853.667
539.621,852.633
540.165,852.3
540.708,850.6
541.252,852.133
541.795,852.4
542.339,851.1
542.882,851.4
543.425,850.7
543.968,852.2
544.511,851.6
545.054,851.633
545.597,850.967
546.139,850.233
546.682,851.733
547.224,850.967
547.766,852.0
548.308,851.433
548.85,851.3
549.392,852.0
549.934,853.6
550.475,851.533
551.017,852.4
551.558,851.133
552.1,853.967
552.641,854.0
553.182,856.133
553.723,858.1
554.264,856.467
554.804,857.1
555.345,857.133
555.885,858.833
556.426,857.667
556.966,859.167
557.506,862.2
558.046,863.733
558.586,862.1
559.126,861.033
559.665,861.0
560.205,859.067
560.745,859.033
561.284,859.433
561.823,860.1
562.362,862.167
562.901,864.567
563.44,866.5
563.979,987.233
564.518,885.2
565.056,878.633
565.595,872.833
566.133,954.733
566.671,870.833
567.21,869.4
567.748,874.6
568.285,863.333
568.823,863.033
569.361,864.8
569.899,865.9
570.436,871.333
570.974,875.967
571.511,1077.17
572.048,892.133
572.585,872.067
573.122,866.667
573.659,867.3
574.196,872.333
574.733,863.733
575.269,871.0
575.806,910.633
576.342,1063.0
576.878,965.433
577.414,926.233
577.951,877.033
578.486,871.7
579.022,868.567
579.558,869.933
580.094,867.9
580.629,869.1
581.165,870.333
581.7,869.3
582.236,872.3
582.771,870.567
583.306,871.1
583.841,871.867
584.376,873.067
584.911,871.833
585.445,873.067
585.98,874.033
586.514,875.2
587.049,875.733
587.583,877.533
588.117,877.1
588.651,875.633
589.186,875.667
589.72,875.8
590.253,877.567
590.787,880.1
591.321,880.667
591.854,879.6
592.388,878.7
592.921,881.167
593.455,880.067
593.988,881.1
594.521,879.933
595.054,882.467
595.587,884.667
596.12,884.0
596.653,883.933
597.186,884.833
597.718,883.967
598.251,885.633
598.783,888.4
599.316,886.733
599.848,889.267
600.38,888.2
600.912,886.167
601.444,889.1
601.976,893.2
602.508,890.033
603.04,885.9
603.572,886.533
604.103,885.133
604.635,885.233
605.167,884.167
605.698,882.733
606.229,880.2
606.761,878.9
607.292,878.833
607.823,876.933
608.354,876.933
608.885,877.967
609.416,878.367
609.947,876.6
610.477,875.867
611.008,876.067
611.539,874.233
612.069,874.0
612.6,875.0
613.13,876.2
613.66,874.333
614.19,875.433
614.721,875.433
615.251,876.4
615.781,875.767
616.311,878.533
616.841,883.933
617.37,889.833
617.9,891.6
618.43,890.267
618.96,889.133
619.489,895.733
620.019,896.0
620.548,896.9
621.077,906.3
621.607,929.5
622.136,980.167
622.665,963.0
623.194,910.033
623.723,898.333
624.252,897.867
624.781,899.0
625.31,902.433
625.839,919.467
626.368,977.4
626.896,1517.6
627.425,2139.83
627.953,1614.73
628.482,2184.5
629.01,1543.77
629.539,1399.27
630.067,1230.7
630.596,1190.73
631.124,1012.13
631.652,924.6
632.18,904.433
632.708,897.733
633.236,892.9
633.764,887.633
634.292,884.1
634.82,879.667
635.348,879.333
635.876,877.067
636.403,875.1
636.931,875.667
637.459,872.067
637.986,869.167
638.514,868.7
639.041,867.533
639.568,867.933
640.096,868.467
640.623,865.833
641.15,866.967
641.678,866.033
642.205,866.767
642.732,865.533
643.259,866.967
643.786,866.033
644.313,867.567
644.84,865.5
645.367,864.467
645.894,864.8
646.421,866.2
646.948,865.6
647.474,865.167
648.001,865.0
648.528,864.4
649.054,864.5
649.581,864.233
650.108,863.6
650.634,865.233
651.161,863.233
651.687,861.767
652.214,864.5
652.74,863.467
653.266,862.167
653.793,863.2
654.319,863.733
654.845,862.233
655.371,862.833
655.897,860.733
656.424,859.933
656.95,860.7
657.476,862.2
658.002,860.767
658.528,861.533
659.054,861.267
659.58,862.233
660.106,864.0
660.631,860.533
661.157,860.333
661.683,858.1
662.209,859.567
662.735,856.8
663.129,857.5