File: spectra/VLFR_01-LDPE_nobio_Raman_621a7271.csv
nm,Intensity
526.486,830.8
527.033,829.0
527.579,829.4
528.126,831.6
528.672,829.9
529.219,830.4
529.765,829.4
530.311,830.3
530.857,830.1
531.403,830.1
531.948,830.8
532.494,831.3
533.039,829.7
533.585,829.3
534.13,887.7
534.675,884.9
535.22,872.3
535.764,865.5
536.309,863.7
536.854,863.8
537.398,858.5
537.942,862.3
538.486,861.3
539.03,857.9
539.574,857.1
540.118,856.9
540.662,853.7
541.205,856.0
541.749,854.0
542.292,853.4
542.835,851.6
543.378,853.5
543.921,853.7
544.464,852.1
545.006,852.0
545.549,852.4
546.091,851.1
546.634,852.5
547.176,853.0
547.718,851.9
548.26,851.4
548.802,850.2
549.343,850.4
549.885,851.4
550.426,851.5
550.968,852.6
551.509,851.9
552.05,852.1
552.591,851.8
553.132,850.7
553.673,853.9
554.214,852.3
554.754,853.2
555.295,852.3
555.835,853.8
556.375,855.2
556.915,859.6
557.455,858.4
557.995,857.8
558.535,859.2
559.075,858.3
559.614,858.3
560.154,857.0
560.693,857.2
561.232,857.5
561.772,858.5
562.311,860.8
562.85,858.7
563.388,864.9
563.927,885.8
564.466,876.2
565.004,872.1
565.543,865.2
566.081,894.4
566.619,870.8
567.157,865.5
567.695,866.9
568.233,863.6
568.771,864.7
569.309,863.8
569.846,867.8
570.384,869.2
570.921,869.8
571.458,908.1
571.995,889.8
572.532,875.3
573.069,873.5
573.606,873.3
574.143,877.6
574.68,872.0
575.216,877.0
575.753,897.9
576.289,945.1
576.825,921.4
577.361,907.4
577.897,886.3
578.433,882.3
578.969,885.3
579.505,886.5
580.041,888.9
580.576,890.6
581.112,891.4
581.647,891.7
582.183,895.2
582.718,897.6
583.253,902.6
583.788,905.3
584.323,908.0
584.858,909.0
585.392,916.4
585.927,921.1
586.462,928.5
586.996,938.4
587.53,944.1
588.065,947.2
588.599,959.8
589.133,965.1
589.667,978.3
590.201,981.2
590.735,989.9
591.268,1000.7
591.802,1004.6
592.335,1015.2
592.869,1018.2
593.402,1025.6
593.936,1027.3
594.469,1039.5
595.002,1049.1
595.535,1059.0
596.068,1067.1
596.601,1073.2
597.133,1087.0
597.666,1099.1
598.199,1105.0
598.731,1112.9
599.264,1130.5
599.796,1133.6
600.328,1135.8
600.86,1141.6
601.393,1140.2
601.925,1138.0
602.457,1134.8
602.988,1122.0
603.52,1120.7
604.052,1110.7
604.583,1098.7
605.115,1084.9
605.646,1067.0
606.178,1058.5
606.709,1052.1
607.24,1040.5
607.771,1035.2
608.302,1021.4
608.833,1023.8
609.364,1013.1
609.895,1006.7
610.426,1002.6
610.957,996.7
611.487,996.0
612.018,988.8
612.548,986.6
613.078,983.9
613.609,979.9
614.139,978.7
614.669,972.4
615.199,976.9
615.729,973.0
616.259,966.7
616.789,962.4
617.319,961.1
617.849,960.6
618.378,962.4
618.908,954.5
619.437,953.8
619.967,953.6
620.496,952.1
621.025,953.8
621.555,954.9
622.084,963.8
622.613,961.6
623.142,949.7
623.671,943.4
624.2,942.7
624.729,939.8
625.258,936.4
625.786,941.2
626.315,953.7
626.844,1064.9
627.372,1317.5
627.901,1164.0
628.429,1240.6
628.957,1198.0
629.486,1137.1
630.014,1080.3
630.542,1064.0
631.07,996.9
631.598,950.2
632.126,936.6
632.654,930.9
633.182,921.2
633.71,919.5
634.237,917.1
634.765,919.4
635.293,920.1
635.82,921.5
636.348,921.0
636.875,921.0
637.403,923.8
637.93,921.3
638.458,927.3
638.985,928.7
639.512,927.6
640.039,928.1
640.566,932.5
641.093,931.5
641.62,932.4
642.147,931.2
642.674,939.6
643.201,938.0
643.728,943.5
644.255,937.8
644.781,939.5
645.308,942.3
645.835,948.9
646.361,945.5
646.888,948.0
647.414,945.9
647.941,950.2
648.467,943.8
648.993,944.3
649.52,949.1
650.046,945.5
650.572,952.3
651.098,948.5
651.625,951.6
652.151,954.7
652.677,955.4
653.203,954.0
653.729,953.5
654.255,960.6
654.78,951.3
655.306,953.8
655.832,950.4
656.358,947.0
656.884,948.2
657.409,945.6
657.935,942.8
658.461,941.3
658.986,939.4
659.512,933.2
660.037,933.0
660.563,928.0
661.088,923.8
661.614,915.7
662.139,919.2
662.664,907.3
663.058,907.8