File: spectra/VLFR_06-PET_bio_Raman_b491a057.csv
nm,Intensity
526.493,828.3
527.039,829.0
527.586,828.85
528.133,828.55
528.679,828.7
529.225,828.85
529.771,829.1
530.317,828.6
530.863,828.9
531.409,829.1
531.955,832.4
532.5,830.35
533.046,829.5
533.591,832.65
534.136,1312.1
534.681,1263.25
535.226,1202.5
535.771,1185.6
536.315,1153.7
536.86,1146.8
537.404,1145.2
537.948,1147.65
538.493,1150.9
539.037,1145.55
539.58,1154.55
540.124,1159.65
540.668,1153.7
541.211,1154.4
541.755,1157.65
542.298,1161.7
542.841,1169.5
543.384,1171.25
543.927,1178.35
544.47,1183.8
545.013,1193.15
545.555,1197.25
546.098,1197.0
546.64,1204.5
547.182,1210.1
547.724,1208.9
548.266,1217.7
548.808,1222.05
549.35,1226.7
549.892,1231.9
550.433,1232.25
550.974,1241.85
551.516,1250.95
552.057,1250.45
552.598,1249.65
553.139,1257.35
553.68,1254.45
554.22,1262.55
554.761,1265.8
555.301,1262.15
555.842,1275.05
556.382,1279.05
556.922,1284.55
557.462,1309.4
558.002,1298.0
558.542,1290.55
559.082,1289.95
559.621,1290.55
560.161,1295.5
560.7,1296.6
561.239,1300.35
561.778,1303.95
562.317,1313.25
562.856,1315.9
563.395,1334.35
563.934,1330.0
564.472,1342.15
565.011,1349.9
565.549,1365.55
566.088,1370.6
566.626,1354.5
567.164,1343.95
567.702,1361.65
568.24,1357.4
568.777,1368.45
569.315,1368.15
569.853,1378.35
570.39,1386.35
570.927,1408.7
571.465,1421.45
572.002,1414.3
572.539,1401.45
573.076,1408.2
573.612,1411.1
574.149,1420.7
574.686,1416.35
575.222,1421.65
575.759,1430.15
576.295,1433.45
576.831,1444.35
577.367,1430.55
577.903,1437.95
578.439,1437.15
578.975,1447.25
579.511,1452.6
580.046,1446.25
580.582,1447.75
581.117,1454.0
581.653,1466.05
582.188,1657.0
582.723,1475.85
583.258,1480.45
583.793,1470.1
584.328,1478.4
584.863,1478.55
585.398,1489.55
585.932,1584.35
586.467,1554.65
587.001,1496.55
587.535,1494.4
588.07,1491.95
588.604,1488.45
589.138,1487.15
589.672,1491.3
590.206,1491.75
590.739,1500.55
591.273,1501.75
591.807,1504.9
592.34,1496.75
592.873,1496.35
593.407,1501.7
593.94,1496.5
594.473,1503.6
595.006,1513.5
595.539,1517.15
596.072,1512.8
596.605,1520.75
597.138,1523.5
597.67,1521.9
598.203,1524.95
598.735,1546.5
599.268,1539.35
599.8,1540.55
600.332,1532.8
600.865,1530.65
601.397,1538.05
601.929,1532.8
602.46,1538.6
602.992,1538.9
603.524,1545.9
604.056,1539.5
604.587,1540.75
605.119,1532.35
605.65,1523.6
606.182,1526.15
606.713,1522.1
607.244,1528.55
607.775,1528.4
608.306,1531.7
608.837,1531.95
609.368,1538.8
609.899,1527.95
610.43,1528.9
610.961,1532.55
611.491,1531.35
612.022,1536.6
612.552,1544.5
613.083,1553.15
613.613,1562.35
614.143,1561.15
614.673,1555.6
615.203,1549.5
615.734,1557.85
616.263,1553.95
616.793,1561.35
617.323,1557.7
617.853,1558.4
618.383,1565.05
618.912,1555.8
619.442,1557.25
619.971,1558.45
620.501,1558.25
621.03,1553.25
621.56,1556.45
622.089,1554.05
622.618,1558.5
623.147,1564.45
623.676,1562.45
624.205,1564.85
624.734,1569.2
625.263,1562.0
625.792,1571.3
626.321,1572.0
626.849,1565.15
627.378,1567.9
627.906,1569.75
628.435,1578.1
628.963,1577.2
629.492,1576.85
630.02,1574.0
630.548,1578.65
631.077,1596.6
631.605,1609.6
632.133,1609.65
632.661,1590.3
633.189,1590.6
633.717,1582.85
634.245,1576.35
634.773,1581.4
635.3,1585.55
635.828,1589.2
636.356,1609.3
636.883,1617.8
637.411,1591.4
637.938,1581.35
638.466,1583.55
638.993,1588.75
639.521,1581.55
640.048,1589.35
640.575,1591.7
641.103,1589.55
641.63,1588.4
642.157,1599.75
642.684,1595.1
643.211,1587.7
643.738,1579.15
644.265,1578.3
644.792,1571.85
645.319,1577.7
645.845,1581.55
646.372,1576.35
646.899,1581.55
647.425,1587.55
647.952,1601.75
648.479,1602.6
649.005,1613.85
649.532,1631.75
650.058,1654.2
650.585,1658.1
651.111,1663.05
651.637,1641.85
652.164,1619.2
652.69,1592.5
653.216,1578.35
653.742,1571.75
654.268,1559.1
654.794,1538.85
655.32,1533.25
655.846,1528.7
656.372,1517.05
656.898,1521.65
657.424,1517.25
657.95,1511.05
658.476,1513.5
659.002,1501.7
659.528,1499.0
660.053,1498.6
660.579,1488.95
661.105,1477.75
661.63,1476.3
662.156,1468.3
662.681,1468.5
663.076,1468.8