File: spectra/VLFR_08-PLA_bio_Raman_bbd491a8.csv
nm,Intensity
526.547,832.3
527.095,833.15
527.642,831.7
528.189,832.15
528.736,831.45
529.283,832.85
529.829,831.6
530.376,832.2
530.922,830.55
531.468,831.9
532.014,846.45
532.56,831.85
533.106,831.75
533.651,831.75
534.196,842.35
534.742,841.5
535.287,840.15
535.832,841.65
536.376,842.2
536.921,841.65
537.465,843.15
538.01,843.25
538.554,842.4
539.098,842.15
539.642,844.05
540.186,843.45
540.729,843.6
541.273,844.65
541.816,845.0
542.36,847.0
542.903,843.65
543.446,843.55
543.988,843.65
544.531,843.1
545.074,842.6
545.616,842.05
546.158,842.6
546.701,842.0
547.243,842.4
547.785,843.25
548.326,841.7
548.868,842.8
549.41,843.55
549.951,843.55
550.492,843.4
551.034,843.15
551.575,843.55
552.116,843.2
552.656,842.3
553.197,844.45
553.738,844.35
554.278,843.85
554.819,844.45
555.359,846.0
555.899,846.2
556.439,844.4
556.979,844.8
557.519,844.4
558.058,844.7
558.598,845.35
559.137,845.45
559.677,843.15
560.216,844.5
560.755,845.0
561.294,845.8
561.833,847.15
562.371,847.0
562.91,846.95
563.449,846.95
563.987,846.6
564.525,847.0
565.064,846.75
565.602,845.8
566.14,845.9
566.678,846.75
567.216,848.35
567.753,847.8
568.291,847.75
568.828,848.7
569.366,847.45
569.903,848.7
570.44,849.2
570.977,847.9
571.514,847.75
572.051,848.7
572.588,848.3
573.125,848.8
573.661,850.85
574.198,846.75
574.734,849.15
575.271,849.4
575.807,848.85
576.343,850.15
576.879,849.15
577.415,850.5
577.951,850.35
578.486,851.3
579.022,851.05
579.557,850.55
580.093,850.15
580.628,848.7
581.164,850.05
581.699,849.75
582.234,851.65
582.769,849.35
583.304,848.85
583.838,851.85
584.373,848.75
584.908,851.5
585.442,851.7
585.977,850.25
586.511,851.75
587.045,850.75
587.58,850.9
588.114,849.8
588.648,849.4
589.182,850.45
589.715,849.2
590.249,850.85
590.783,849.9
591.316,849.3
591.85,848.7
592.383,848.9
592.917,849.95
593.45,849.15
593.983,849.8
594.516,850.8
595.049,849.65
595.582,850.0
596.115,850.15
596.648,850.6
597.18,849.55
597.713,850.8
598.245,849.4
598.778,851.65
599.31,851.05
599.842,850.35
600.375,849.25
600.907,850.0
601.439,849.5
601.971,850.4
602.503,849.45
603.034,850.0
603.566,849.15
604.098,850.9
604.629,848.4
605.161,849.5
605.692,849.2
606.224,848.3
606.755,849.3
607.286,848.85
607.817,850.0
608.348,850.4
608.879,849.0
609.41,848.45
609.941,850.3
610.472,849.6
611.002,849.65
611.533,848.85
612.063,848.8
612.594,849.35
613.124,849.0
613.655,849.2
614.185,849.55
614.715,851.55
615.245,849.15
615.775,849.5
616.305,848.65
616.835,849.65
617.365,850.65
617.895,847.8
618.425,848.45
618.954,851.05
619.484,848.85
620.013,849.35
620.543,849.5
621.072,848.35
621.602,850.55
622.131,849.45
622.66,849.2
623.189,849.5
623.718,849.45
624.247,849.35
624.776,850.25
625.305,848.3
625.834,850.1
626.363,849.7
626.891,850.15
627.42,849.9
627.949,849.25
628.477,849.55
629.006,849.0
629.534,847.4
630.062,848.95
630.591,849.75
631.119,850.55
631.647,850.0
632.175,847.95
632.703,848.7
633.231,848.95
633.759,850.1
634.287,850.2
634.815,848.75
635.343,847.9
635.871,849.65
636.398,850.45
636.926,849.2
637.454,848.2
637.981,848.0
638.509,849.55
639.036,848.8
639.564,848.2
640.091,849.45
640.618,849.95
641.146,848.3
641.673,848.95
642.2,849.8
642.727,848.9
643.254,848.7
643.781,848.15
644.308,848.25
644.835,849.15
645.362,847.35
645.889,848.4
646.416,847.1
646.942,848.6
647.469,849.5
647.996,848.3
648.522,848.1
649.049,847.65
649.576,849.4
650.102,848.45
650.629,847.25
651.155,847.7
651.682,847.35
652.208,848.4
652.734,848.0
653.261,848.5
653.787,848.55
654.313,848.65
654.839,846.75
655.365,848.15
655.892,846.65
656.418,847.25
656.944,848.35
657.47,847.45
657.996,847.5
658.522,847.15
659.048,847.2
659.574,846.4
660.099,848.05
660.625,846.8
661.151,847.75
661.677,847.65
662.203,845.55
662.728,846.5
663.123,846.5