File: spectra/VLFR_02-HDPE_bio_Raman_02080e68.csv
nm,Intensity
526.508,829.4
527.055,830.0
527.602,830.8
528.149,829.0
528.695,830.2
529.241,830.9
529.787,830.7
530.334,829.1
530.879,829.8
531.425,830.4
531.971,838.5
532.516,831.1
533.062,830.4
533.607,829.4
534.152,869.8
534.697,862.9
535.242,855.4
535.786,848.6
536.331,848.4
536.876,846.1
537.42,846.3
537.964,847.2
538.508,844.3
539.052,846.6
539.596,844.1
540.14,841.2
540.683,842.0
541.227,840.6
541.77,841.0
542.313,840.2
542.856,842.7
543.399,841.2
543.942,842.4
544.485,841.1
545.027,840.5
545.57,841.7
546.112,841.6
546.654,840.7
547.196,841.6
547.738,841.8
548.28,842.6
548.822,841.3
549.363,842.6
549.905,841.7
550.446,840.9
550.988,842.1
551.529,842.7
552.07,841.1
552.611,841.2
553.152,842.9
553.692,843.3
554.233,844.7
554.773,845.7
555.314,846.5
555.854,845.8
556.394,845.7
556.934,846.9
557.474,849.3
558.014,848.9
558.553,855.4
559.093,849.0
559.632,851.1
560.172,849.0
560.711,846.9
561.25,848.1
561.789,851.1
562.328,850.5
562.867,854.1
563.406,856.0
563.944,911.5
564.483,871.8
565.021,867.7
565.559,867.5
566.098,967.5
566.636,871.0
567.174,862.3
567.711,862.6
568.249,862.4
568.787,865.3
569.324,865.2
569.862,870.2
570.399,875.9
570.936,880.0
571.474,969.0
572.011,897.1
572.548,888.9
573.084,889.1
573.621,894.5
574.158,905.5
574.694,904.4
575.231,919.1
575.767,979.7
576.303,982.3
576.84,957.3
577.376,948.4
577.912,934.7
578.447,929.7
578.983,938.2
579.519,935.2
580.054,934.3
580.59,933.8
581.125,938.2
581.661,940.3
582.196,941.8
582.731,944.4
583.266,947.6
583.801,949.8
584.336,951.0
584.87,956.5
585.405,959.7
585.94,966.0
586.474,968.6
587.008,974.8
587.543,979.8
588.077,986.0
588.611,992.4
589.145,987.2
589.679,999.9
590.213,1002.1
590.747,1004.7
591.28,1009.9
591.814,1008.1
592.347,1015.6
592.881,1015.8
593.414,1007.3
593.947,1012.8
594.48,1016.6
595.014,1012.5
595.547,1014.2
596.079,1013.2
596.612,1013.2
597.145,1005.1
597.678,1008.0
598.21,1006.8
598.743,1007.2
599.275,1006.4
599.807,1003.3
600.34,996.4
600.872,987.9
601.404,987.0
601.936,984.8
602.468,985.3
603.0,977.8
603.532,971.9
604.063,975.4
604.595,968.9
605.126,962.0
605.658,954.0
606.189,947.0
606.721,948.2
607.252,943.5
607.783,947.0
608.314,937.9
608.845,939.2
609.376,937.8
609.907,934.3
610.438,934.3
610.968,934.6
611.499,932.0
612.03,926.5
612.56,923.5
613.091,926.2
613.621,925.2
614.151,920.2
614.681,921.7
615.212,919.6
615.742,921.5
616.272,918.5
616.802,914.8
617.332,915.9
617.861,917.4
618.391,915.7
618.921,918.7
619.45,917.2
619.98,918.6
620.509,917.7
621.039,919.1
621.568,924.0
622.097,933.4
622.627,930.9
623.156,920.5
623.685,922.1
624.214,918.5
624.743,918.6
625.272,924.0
625.801,928.6
626.33,938.5
626.858,1038.6
627.387,1269.6
627.916,1115.5
628.444,1177.1
628.973,1166.5
629.501,1117.8
630.029,1064.5
630.558,1047.3
631.086,983.9
631.614,946.0
632.142,935.3
632.67,930.5
633.198,926.4
633.726,927.0
634.254,927.1
634.782,924.5
635.31,922.0
635.838,925.2
636.365,926.7
636.893,921.5
637.421,927.0
637.948,927.5
638.476,924.9
639.003,923.2
639.531,928.2
640.058,927.3
640.585,929.8
641.113,930.6
641.64,929.1
642.167,930.8
642.694,930.7
643.221,929.4
643.748,933.1
644.275,927.5
644.802,925.8
645.329,926.4
645.856,925.9
646.382,926.3
646.909,927.1
647.436,919.8
647.962,924.1
648.489,922.6
649.016,918.3
649.542,923.0
650.069,918.4
650.595,914.7
651.121,912.4
651.648,909.5
652.174,911.9
652.7,911.6
653.227,909.8
653.753,910.7
654.279,906.1
654.805,906.8
655.331,904.3
655.857,903.4
656.383,902.9
656.909,900.6
657.435,899.4
657.961,897.1
658.487,897.0
659.013,897.4
659.538,896.0
660.064,894.6
660.59,891.6
661.116,890.5
661.641,887.5
662.167,885.9
662.692,886.2
663.087,884.6