File: spectra/VLFR_01-LDPE_nobio_Raman_c20e76b4.csv
cm-1,Intensity
-123.878,1853.05
-105.821,1853.65
-87.8007,1853.35
-69.8161,1852.5
-51.8675,1854.85
-33.9547,1854.9
-16.0776,1878.75
1.76388,3012.2
19.5698,1854.55
37.3403,1855.65
55.0755,1988.85
72.7754,2404.65
90.4402,2405.5
108.07,2437.95
125.665,2436.65
143.225,2417.8
160.75,2439.1
178.241,2445.35
195.697,2480.6
213.119,2463.25
230.506,2469.6
247.859,2476.95
265.178,2490.95
282.463,2490.3
299.713,2476.25
316.93,2496.4
334.113,2517.0
351.263,2504.3
368.379,2516.5
385.461,2519.75
402.51,2534.65
419.526,2539.7
436.508,2537.55
453.458,2538.2
470.374,2564.8
487.257,2561.3
504.107,2579.8
520.925,2582.95
537.71,2591.15
554.462,2618.0
571.182,2628.7
587.87,2618.55
604.525,2644.9
621.148,2621.45
637.739,2651.2
654.297,2684.75
670.824,2661.2
687.319,2659.7
703.782,2647.2
720.213,2666.1
736.613,2670.15
752.981,2672.1
769.317,2680.15
785.623,2680.0
801.897,2684.4
818.139,2679.75
834.351,2692.95
850.532,2694.95
866.681,2742.85
882.8,2727.5
898.888,2730.8
914.945,2736.9
930.972,2739.55
946.968,2739.7
962.934,2755.5
978.869,2766.5
994.774,2791.5
1010.65,2793.75
1026.49,2809.05
1042.31,2810.35
1058.09,2868.75
1073.85,2844.3
1089.57,2913.45
1105.27,2872.95
1120.93,2914.6
1136.57,2921.75
1152.18,2931.95
1167.75,2932.95
1183.3,2957.6
1198.82,2983.5
1214.31,3017.55
1229.77,3034.8
1245.2,3020.7
1260.6,3077.0
1275.97,3069.35
1291.32,3227.0
1306.63,3232.7
1321.92,3174.2
1337.18,3168.15
1352.41,3198.05
1367.61,3189.65
1382.78,3166.35
1397.93,3193.4
1413.05,3196.6
1428.14,3274.95
1443.2,3344.8
1458.23,3281.15
1473.23,3246.3
1488.21,3203.1
1503.16,3178.8
1518.08,3221.4
1532.97,3247.95
1547.84,3308.4
1562.68,3326.8
1577.49,3353.45
1592.27,3374.75
1607.03,3320.1
1621.76,3234.3
1636.46,3209.85
1651.14,3158.15
1665.78,3141.3
1680.41,3086.75
1695.0,3149.25
1709.57,3130.7
1724.11,3112.7
1738.62,3099.75
1753.11,3140.95
1767.57,3148.65
1782.01,3192.4
1796.41,3130.0
1810.8,3130.35
1825.15,3126.0
1839.48,3138.8
1853.79,3124.85
1868.06,3124.65
1882.31,3144.9
1896.54,3140.0
1910.74,3170.5
1924.91,3134.3
1939.06,3138.6
1953.19,3164.55
1967.28,3139.15
1981.35,3152.95
1995.4,3166.9
2009.42,3202.55
2023.42,3205.35
2037.39,3197.85
2051.33,3242.1
2065.25,3186.3
2079.15,3234.6
2093.01,3222.4
2106.86,3242.3
2120.68,3247.4
2134.47,3266.9
2148.24,3254.35
2161.99,3290.2
2175.71,3286.5
2189.41,3289.1
2203.08,3282.6
2216.73,3257.35
2230.35,3258.8
2243.95,3243.45
2257.52,3262.95
2271.07,3206.45
2284.6,3235.6
2298.1,3228.9
2311.58,3196.0
2325.03,3215.5
2338.46,3194.75
2351.87,3174.15
2365.25,3184.95
2378.61,3184.95
2391.94,3180.45
2405.26,3207.45
2418.54,3178.7
2431.81,3197.05
2445.05,3159.75
2458.27,3160.6
2471.46,3174.7
2484.63,3168.6
2497.78,3113.6
2510.9,3153.6
2524.0,3173.4
2537.08,3139.25
2550.14,3141.9
2563.17,3158.25
2576.18,3148.15
2589.17,3126.35
2602.13,3179.0
2615.07,3175.1
2627.99,3157.5
2640.89,3196.7
2653.76,3173.75
2666.61,3105.6
2679.44,3167.8
2692.25,3176.35
2705.03,3179.65
2717.79,3233.9
2730.53,3194.1
2743.25,3163.65
2755.94,3155.55
2768.61,3122.1
2781.27,3102.45
2793.89,3129.25
2806.5,3154.3
2819.09,3154.65
2831.65,3265.55
2844.19,3853.7
2856.71,3948.15
2869.21,3684.4
2881.69,4030.45
2894.14,3746.3
2906.58,3627.55
2918.99,3538.3
2931.38,3492.95
2943.75,3240.3
2956.1,3143.15
2968.42,3068.75
2980.73,3032.6
2993.01,3010.7
3005.28,3046.9
3017.52,2996.3
3029.74,3001.75
3041.94,2993.9
3054.12,2960.1
3066.28,2951.45
3078.42,2986.7
3090.54,2965.0
3102.63,2909.6
3114.71,2922.1
3126.77,2925.0
3138.8,2900.85
3150.82,2917.25
3162.81,2898.15
3174.78,2881.55
3186.74,2872.65
3198.67,2856.75
3210.58,2871.25
3222.47,2842.4
3234.35,2829.45
3246.2,2833.75
3258.03,2822.5
3269.84,2786.75
3281.64,2830.5
3293.41,2806.95
3305.16,2766.2
3316.89,2751.95
3328.61,2757.3
3340.3,2745.0
3351.97,2756.5
3363.63,2751.0
3375.26,2703.25
3386.88,2718.3
3398.47,2709.3
3410.05,2714.8
3421.6,2701.7
3433.14,2692.5
3444.66,2686.45
3456.15,2704.15
3467.63,2646.0
3479.09,2664.9
3490.53,2638.25
3501.96,2634.4
3513.36,2628.5
3524.74,2633.4
3536.11,2602.75
3547.45,2596.9
3558.78,2582.7
3570.09,2581.85
3581.37,2612.35
3592.64,2558.7
3603.9,2530.6
3615.13,2529.1
3626.34,2506.45
3637.54,2503.05
3648.72,2487.6
3659.87,2484.0
3665.45,2488.3