File: spectra/VLFR_01-LDPE_bio_Raman_c537c5d4.csv
nm,Intensity
528.637,1836.7
529.143,1836.1
529.648,1836.5
530.153,1838.3
530.659,1837.0
531.164,1838.5
531.669,1884.4
532.174,4681.6
532.679,1837.6
533.184,1839.6
533.689,2232.0
534.194,3043.5
534.699,2871.3
535.203,2645.7
535.708,2467.7
536.213,2330.0
536.717,2305.6
537.222,2287.3
537.726,2290.4
538.231,2259.5
538.735,2182.0
539.24,2144.8
539.744,2127.5
540.248,2113.0
540.752,2091.7
541.256,2076.5
541.761,2083.8
542.265,2076.0
542.769,2055.2
543.272,2057.1
543.776,2073.3
544.28,2050.0
544.784,2042.8
545.288,2040.1
545.791,2022.7
546.295,2017.2
546.798,2027.5
547.302,2023.0
547.805,2024.0
548.308,2029.5
548.812,2010.4
549.315,2003.1
549.818,2010.8
550.321,1995.8
550.824,1996.9
551.327,1999.7
551.83,2013.0
552.333,2008.7
552.836,2023.8
553.339,2089.8
553.842,2099.2
554.344,2099.4
554.847,2115.0
555.349,2137.3
555.852,2171.8
556.354,2196.7
556.857,2249.6
557.359,2285.4
557.861,2332.1
558.363,2376.8
558.866,2337.5
559.368,2261.0
559.87,2223.8
560.372,2187.6
560.873,2200.2
561.375,2196.5
561.877,2222.0
562.379,2284.1
562.88,2351.1
563.382,2453.5
563.883,3938.9
564.385,2951.1
564.886,2774.6
565.388,2541.7
565.889,3480.6
566.39,3264.3
566.891,2439.1
567.392,2515.7
567.893,2304.0
568.394,2283.9
568.895,2262.3
569.396,2287.1
569.897,2307.0
570.398,2428.9
570.898,2581.9
571.399,5015.1
571.899,3384.3
572.4,2685.0
572.9,2452.7
573.4,2428.2
573.901,2665.2
574.401,2432.1
574.901,2449.2
575.401,3440.0
575.901,3934.1
576.401,5331.5
576.901,4522.8
577.401,3398.0
577.9,2774.0
578.4,2692.4
578.9,2685.3
579.399,2724.4
579.899,2758.4
580.398,2757.7
580.897,2771.2
581.397,2817.3
581.896,2834.5
582.395,2812.7
582.894,2840.3
583.393,2858.0
583.892,2886.1
584.391,2928.6
584.889,2944.1
585.388,2977.1
585.887,2984.4
586.385,3060.8
586.884,3088.9
587.382,3134.9
587.881,3145.9
588.379,3210.7
588.877,3213.5
589.375,3343.2
589.874,3349.7
590.372,3387.7
590.87,3470.3
591.367,3485.8
591.865,3552.9
592.363,3572.2
592.861,3596.0
593.358,3615.1
593.856,3626.1
594.353,3632.2
594.851,3679.9
595.348,3737.2
595.845,3742.8
596.342,3803.9
596.84,3899.1
597.337,3888.8
597.833,3963.5
598.33,3988.9
598.827,4128.3
599.324,4122.0
599.821,4183.4
600.317,4196.7
600.814,4182.8
601.31,4207.8
601.807,4249.9
602.303,4229.1
602.799,4143.3
603.295,4086.6
603.791,3984.8
604.287,3891.2
604.783,3882.1
605.279,3808.8
605.775,3713.3
606.271,3669.4
606.766,3621.2
607.262,3572.1
607.757,3525.6
608.253,3409.5
608.748,3373.6
609.243,3343.5
609.738,3286.1
610.233,3323.8
610.729,3305.5
611.223,3275.5
611.718,3187.6
612.213,3160.0
612.708,3124.5
613.202,3142.7
613.697,3071.7
614.192,3096.7
614.686,3078.4
615.18,3010.8
615.675,3017.0
616.169,3041.4
616.663,3041.6
617.157,3166.1
617.651,3156.8
618.145,3084.4
618.638,3125.6
619.132,3113.3
619.626,3164.0
620.119,3194.1
620.613,3226.3
621.106,3364.2
621.599,3621.5
622.093,4097.4
622.586,3834.3
623.079,3333.8
623.572,3140.9
624.065,3104.1
624.558,3101.7
625.05,3207.5
625.543,3323.1
626.036,3744.5
626.528,5861.4
627.02,17504.7
627.513,16063.5
628.005,13102.2
628.497,20383.7
628.989,14036.3
629.481,11858.4
629.973,9842.3
630.465,8991.1
630.957,6213.1
631.449,4362.9
631.94,3734.7
632.432,3394.5
632.923,3242.0
633.414,3119.7
633.906,3004.3
634.397,2933.9
634.888,2903.0
635.379,2868.2
635.87,2861.2
636.361,2856.5
636.852,2794.1
637.342,2770.5
637.833,2741.5
638.323,2746.4
638.814,2748.2
639.304,2761.8
639.794,2709.1
640.285,2731.7
640.775,2700.3
641.265,2763.1
641.755,2728.8
642.244,2769.2
642.734,2710.7
643.224,2753.3
643.713,2763.5
644.203,2714.8
644.692,2707.5
645.181,2768.7
645.671,2717.8
646.16,2727.8
646.649,2741.0
647.138,2710.7
647.627,2690.9
648.115,2764.6
648.604,2688.2
649.093,2674.2
649.581,2712.4
650.07,2704.3
650.558,2700.5
651.046,2693.6
651.534,2691.3
652.023,2679.2
652.511,2688.7
652.998,2675.7
653.486,2638.1
653.974,2674.2
654.462,2595.0
654.949,2644.8
655.437,2619.7
655.924,2610.5
656.411,2565.0
656.898,2593.7
657.385,2584.6
657.872,2581.9
658.359,2521.4
658.846,2516.2
659.333,2461.9
659.82,2456.8
660.306,2468.7
660.793,2421.1
661.036,2425.4