File: spectra/VLFR_08-PLA_bio_Raman_563df008.csv
nm,Intensity
526.495,829.6
527.042,829.34
527.589,829.52
528.136,829.98
528.682,829.56
529.229,828.84
529.775,829.2
530.321,829.96
530.867,830.08
531.413,829.26
531.959,841.48
532.505,831.86
533.051,828.86
533.596,830.82
534.141,990.74
534.687,974.82
535.232,946.92
535.777,931.14
536.321,914.5
536.866,904.3
537.41,896.98
537.955,892.26
538.499,890.06
539.043,888.02
539.587,886.44
540.131,884.68
540.675,887.08
541.219,887.06
541.762,886.38
542.305,885.54
542.849,884.8
543.392,889.14
543.935,890.86
544.478,890.14
545.02,888.38
545.563,890.08
546.106,889.9
546.648,889.8
547.19,892.6
547.732,893.1
548.274,891.58
548.816,893.64
549.358,895.8
549.9,893.94
550.441,894.92
550.983,897.7
551.524,896.18
552.065,898.0
552.606,898.7
553.147,899.7
553.688,901.86
554.229,902.44
554.769,901.84
555.31,902.24
555.85,901.6
556.391,903.68
556.931,905.32
557.471,913.02
558.011,919.28
558.551,912.02
559.09,909.44
559.63,909.56
560.169,913.56
560.709,910.98
561.248,910.98
561.787,908.86
562.326,914.6
562.865,915.52
563.404,917.44
563.943,920.72
564.481,918.26
565.02,920.28
565.558,920.82
566.096,926.52
566.634,919.22
567.172,918.08
567.71,920.22
568.248,920.5
568.786,925.06
569.324,925.72
569.861,930.2
570.399,929.86
570.936,934.18
571.473,937.72
572.01,938.44
572.547,937.18
573.084,937.28
573.621,935.34
574.158,933.88
574.694,937.02
575.231,936.46
575.767,936.5
576.303,947.22
576.84,953.46
577.376,940.72
577.912,933.98
578.448,930.16
578.984,933.28
579.519,935.32
580.055,933.92
580.59,935.76
581.126,935.3
581.661,934.66
582.196,939.0
582.731,941.88
583.267,954.5
583.801,948.84
584.336,938.28
584.871,934.1
585.406,928.64
585.94,929.08
586.475,929.54
587.009,935.46
587.543,933.72
588.078,931.8
588.612,930.1
589.146,927.78
589.68,928.88
590.214,929.18
590.747,929.62
591.281,928.88
591.815,927.7
592.348,929.5
592.881,930.0
593.415,931.28
593.948,929.14
594.481,930.1
595.014,931.84
595.547,932.28
596.08,933.5
596.613,933.82
597.146,933.28
597.678,932.5
598.211,933.0
598.743,936.24
599.276,934.6
599.808,933.38
600.34,934.64
600.872,934.02
601.404,934.76
601.936,935.78
602.468,935.56
603.0,937.12
603.532,935.84
604.064,937.36
604.595,936.98
605.127,935.78
605.658,934.76
606.189,933.92
606.721,933.14
607.252,935.72
607.783,935.3
608.314,938.06
608.845,937.78
609.376,936.6
609.907,936.42
610.438,937.26
610.968,936.84
611.499,937.62
612.029,938.56
612.56,940.86
613.09,941.46
613.621,942.72
614.151,942.52
614.681,943.72
615.211,943.8
615.741,940.62
616.271,942.24
616.801,944.0
617.331,943.76
617.861,943.62
618.39,943.78
618.92,943.32
619.45,944.96
619.979,943.88
620.509,944.86
621.038,942.9
621.567,944.7
622.096,946.56
622.626,950.38
623.155,948.0
623.684,946.66
624.213,947.46
624.742,946.56
625.271,944.62
625.799,946.06
626.328,948.92
626.857,961.8
627.386,991.74
627.914,991.24
628.443,1013.68
628.971,1012.5
629.5,1013.0
630.028,1021.58
630.556,1039.1
631.084,1059.76
631.613,1017.5
632.141,992.84
632.669,979.18
633.197,976.34
633.725,968.26
634.253,955.7
634.781,947.5
635.308,947.14
635.836,951.6
636.364,945.7
636.891,942.68
637.419,941.0
637.947,938.86
638.474,940.02
639.002,939.26
639.529,941.5
640.056,939.26
640.584,941.22
641.111,939.26
641.638,939.26
642.165,938.04
642.692,938.28
643.219,939.68
643.746,938.54
644.273,940.24
644.8,941.74
645.327,940.36
645.854,939.14
646.381,938.14
646.908,937.4
647.434,936.38
647.961,934.78
648.488,936.74
649.014,934.2
649.541,932.76
650.067,933.18
650.594,931.02
651.12,929.46
651.646,930.64
652.173,929.22
652.699,929.84
653.225,928.58
653.752,928.9
654.278,928.62
654.804,924.74
655.33,926.98
655.856,925.64
656.382,926.1
656.908,925.1
657.434,924.84
657.96,925.48
658.486,925.18
659.012,925.78
659.538,924.16
660.064,925.48
660.589,926.08
661.115,924.36
661.641,922.28
662.166,922.62
662.692,922.32
663.086,920.94