File: spectra/VLFR_07-PET_bio_Raman_5167b59f.csv
nm,Intensity
791.588,10239.0
792.685,9583.3
793.781,9254.3
794.878,9036.8
795.975,9015.1
797.071,8998.8
798.168,8958.3
799.264,9033.3
800.36,9008.3
801.456,8978.4
802.552,8992.4
803.648,8766.1
804.744,8692.0
805.84,8686.3
806.936,8525.2
808.031,8530.1
809.127,8508.7
810.222,8360.3
811.317,8255.8
812.412,8229.0
813.507,8140.1
814.602,8076.7
815.697,7996.7
816.792,7937.4
817.887,7788.6
818.981,7850.4
820.076,7806.7
821.17,7837.8
822.265,7674.1
823.359,7581.5
824.453,7566.1
825.547,7645.1
826.641,7564.1
827.735,7396.2
828.828,7383.3
829.922,7367.7
831.016,7403.5
832.109,7279.8
833.202,7237.8
834.295,7218.1
835.388,7077.7
836.481,7097.1
837.574,7106.3
838.667,7071.1
839.76,7036.0
840.852,7095.3
841.945,7092.3
843.037,6964.9
844.129,6881.1
845.221,6757.8
846.314,6713.8
847.405,6576.7
848.497,6595.8
849.589,6513.3
850.68,6484.4
851.772,6491.1
852.863,6423.8
853.955,6403.2
855.046,6401.3
856.137,6306.7
857.228,6340.8
858.318,6353.0
859.409,6374.7
860.5,6356.8
861.59,6299.5
862.681,6224.9
863.771,6174.0
864.861,6227.3
865.951,6093.1
867.041,6085.2
868.131,6060.7
869.22,6062.7
870.31,6053.5
871.399,6214.0
872.488,6262.6
873.578,6227.9
874.667,6110.0
875.756,6022.7
876.845,5985.8
877.933,5873.6
879.022,5892.0
880.11,5804.0
881.199,5855.9
882.287,5824.0
883.375,5754.5
884.463,5834.8
885.551,5748.8
886.639,5727.9
887.726,5686.4
888.814,5646.9
889.901,5599.6
890.988,5552.5
892.075,5538.5
893.162,5520.8
894.249,5470.0
895.336,5411.2
896.423,5412.7
897.509,5558.8
898.595,5773.4
899.682,5556.0
900.768,5267.1
901.854,5207.5
902.94,5228.1
904.025,5196.9
905.111,5176.9
906.196,5214.2
907.282,5386.1
908.367,5324.0
909.452,5169.0
910.537,5002.7
911.622,4965.5
912.706,4910.1
913.791,4881.5
914.875,4857.5
915.959,4794.5
917.044,4821.7
918.128,4764.5
919.211,4752.4
920.295,4724.0
921.379,4702.4
922.462,4677.6
923.546,4653.6
924.629,4634.3
925.712,4581.3
926.795,4555.1
927.877,4523.5
928.96,4491.4
930.043,4476.2
931.125,4451.0
932.207,4432.4
933.289,4401.4
934.371,4379.9
935.453,4349.9
936.535,4346.1
937.616,4336.2
938.697,4303.9
939.779,4300.6
940.86,4287.1
941.941,4257.8
943.022,4242.8
944.102,4239.7
945.183,4215.7
946.263,4204.3
947.343,4190.0
948.423,4172.3
949.503,4162.5
950.583,4154.7
951.663,4130.9
952.742,4116.4
953.822,4113.0
954.901,4101.8
955.98,4087.6
957.059,4097.3
958.137,4069.5
959.216,4048.9
960.294,4046.7
961.373,4039.2
962.451,4030.6
963.529,4024.9
964.607,4018.0
965.684,4014.0
966.762,4001.8
967.839,4004.5
968.917,3990.2
969.994,3990.6
971.071,3977.0
972.147,3970.2
973.224,3964.5
974.3,3955.6
975.377,3952.5
976.453,3940.0
977.529,3935.4
978.605,3928.2
979.68,3926.9
980.756,3921.8
981.831,3920.5
982.907,3921.1
983.982,3901.7
985.057,3903.0
986.131,3905.2
987.206,3897.3
988.28,3892.8
989.355,3890.5
990.429,3880.8
991.503,3872.8
992.576,3875.4
993.65,3872.0
994.723,3865.4
995.797,3859.5
996.87,3853.9
997.943,3855.7
999.016,3848.1
1000.09,3845.1
1001.16,3843.8
1002.23,3838.3
1003.31,3835.2
1004.38,3833.6
1005.45,3825.2
1006.52,3823.9
1007.59,3822.1
1008.66,3819.5
1009.73,3820.1
1010.81,3815.7
1011.88,3810.8
1012.95,3806.4
1014.02,3807.7
1015.09,3805.7
1016.16,3804.3
1017.23,3805.4
1018.3,3801.8
1019.37,3798.1
1020.44,3798.5
1021.51,3801.0
1022.58,3801.7
1023.64,3797.5
1024.71,3791.9
1025.78,3792.5
1026.85,3788.5
1027.92,3787.5
1028.99,3779.6
1030.05,3777.8
1031.12,3779.4
1032.19,3778.9
1033.26,3777.7
1034.32,3781.4
1035.39,3781.2
1036.46,3776.7
1037.52,3778.7
1038.59,3772.8
1039.66,3773.1
1040.72,3771.2
1041.79,3769.8
1042.86,3768.0
1043.92,3766.7
1044.99,3765.7
1046.05,3765.6
1047.12,3766.5
1048.18,3763.8
1049.25,3766.4
1050.31,3764.6
1051.37,3765.5
1052.44,3762.5
1053.5,3765.3
1054.57,3762.1
1055.63,3762.8
1056.69,3759.9
1057.76,3764.3
1058.82,3762.8
1059.88,3761.1
1060.95,3760.6
1062.01,3759.5
1063.07,3761.6
1064.13,3760.7
1065.19,3760.3
1066.26,3760.6
1067.32,3760.9
1068.11,3759.8