File: spectra/VLFR_07-PET_nobio_Raman_960a0e49.csv
nm,Intensity
791.588,6192.5
792.685,6033.7
793.781,5935.2
794.878,5904.7
795.975,5832.7
797.071,5852.2
798.168,5834.7
799.264,5838.4
800.36,5817.1
801.456,5757.8
802.552,5782.8
803.648,5734.0
804.744,5716.6
805.84,5691.5
806.936,5669.4
808.031,5655.4
809.127,5590.4
810.222,5570.1
811.317,5584.5
812.412,5496.3
813.507,5492.8
814.602,5469.1
815.697,5425.3
816.792,5404.4
817.887,5376.5
818.981,5337.4
820.076,5339.1
821.17,5331.3
822.265,5286.0
823.359,5276.2
824.453,5246.8
825.547,5254.5
826.641,5246.5
827.735,5174.3
828.828,5147.1
829.922,5167.2
831.016,5136.7
832.109,5115.6
833.202,5090.1
834.295,5057.3
835.388,5036.1
836.481,5035.0
837.574,5031.2
838.667,4998.8
839.76,5006.0
840.852,4996.0
841.945,4985.5
843.037,4964.3
844.129,4935.7
845.221,4905.9
846.314,4878.1
847.405,4884.1
848.497,4864.8
849.589,4840.0
850.681,4818.7
851.772,4802.9
852.863,4810.2
853.955,4780.9
855.046,4742.9
856.137,4771.9
857.228,4749.6
858.318,4740.6
859.409,4749.1
860.5,4733.1
861.59,4688.0
862.681,4696.7
863.771,4695.9
864.861,4664.9
865.951,4651.2
867.041,4649.2
868.131,4610.4
869.22,4637.8
870.31,4623.8
871.399,4621.6
872.488,4630.6
873.578,4610.7
874.667,4594.0
875.756,4583.2
876.845,4578.2
877.933,4533.6
879.022,4522.1
880.11,4515.9
881.199,4505.8
882.287,4509.1
883.375,4499.7
884.463,4484.2
885.551,4492.0
886.639,4460.3
887.726,4432.4
888.814,4439.2
889.901,4415.3
890.988,4426.9
892.075,4402.3
893.162,4397.1
894.249,4361.4
895.336,4340.0
896.423,4338.9
897.509,4363.1
898.595,4393.6
899.682,4331.5
900.768,4283.6
901.854,4282.5
902.94,4272.5
904.025,4257.0
905.111,4265.3
906.196,4242.7
907.282,4266.3
908.367,4240.2
909.452,4222.7
910.537,4190.7
911.622,4175.0
912.706,4159.9
913.791,4149.9
914.875,4133.1
915.959,4129.9
917.044,4123.6
918.128,4102.4
919.211,4107.8
920.295,4107.8
921.379,4083.7
922.462,4067.8
923.546,4065.7
924.629,4065.2
925.712,4048.1
926.795,4045.0
927.877,4029.6
928.96,4021.0
930.043,4006.2
931.125,3998.4
932.207,3986.1
933.289,3982.4
934.371,3972.1
935.453,3966.7
936.535,3959.9
937.616,3956.2
938.697,3948.0
939.779,3936.7
940.86,3942.9
941.941,3934.4
943.022,3927.1
944.102,3918.1
945.183,3915.4
946.263,3911.6
947.343,3907.7
948.423,3895.5
949.503,3900.2
950.583,3890.4
951.663,3883.7
952.742,3883.4
953.822,3876.4
954.901,3873.8
955.98,3872.5
957.059,3864.4
958.137,3865.4
959.216,3861.8
960.294,3854.4
961.373,3854.6
962.451,3852.8
963.529,3851.4
964.607,3849.5
965.684,3843.3
966.762,3840.7
967.839,3840.5
968.917,3837.3
969.994,3836.3
971.071,3833.9
972.147,3827.8
973.224,3827.0
974.3,3822.7
975.377,3823.7
976.453,3820.9
977.529,3817.7
978.605,3814.8
979.68,3813.7
980.756,3811.9
981.831,3812.5
982.907,3815.8
983.982,3809.0
985.057,3806.4
986.131,3804.3
987.206,3805.1
988.28,3805.1
989.355,3801.6
990.429,3798.5
991.503,3800.7
992.576,3795.6
993.65,3794.1
994.723,3793.2
995.797,3793.3
996.87,3789.0
997.943,3790.9
999.016,3786.9
1000.09,3789.7
1001.16,3785.6
1002.23,3784.6
1003.31,3784.6
1004.38,3784.5
1005.45,3782.0
1006.52,3779.4
1007.59,3783.2
1008.66,3781.0
1009.73,3779.6
1010.81,3778.8
1011.88,3777.1
1012.95,3774.6
1014.02,3774.2
1015.09,3776.7
1016.16,3774.2
1017.23,3773.2
1018.3,3772.1
1019.37,3771.0
1020.44,3771.2
1021.51,3771.7
1022.58,3770.2
1023.64,3769.7
1024.71,3768.8
1025.78,3767.3
1026.85,3766.1
1027.92,3765.9
1028.99,3762.9
1030.05,3765.7
1031.12,3764.5
1032.19,3764.4
1033.26,3763.3
1034.32,3764.7
1035.39,3764.7
1036.46,3761.1
1037.52,3762.4
1038.59,3763.8
1039.66,3760.9
1040.72,3761.7
1041.79,3761.4
1042.86,3759.7
1043.92,3762.9
1044.99,3758.3
1046.05,3758.8
1047.12,3762.6
1048.18,3760.9
1049.25,3759.6
1050.31,3757.4
1051.37,3758.8
1052.44,3760.1
1053.5,3759.0
1054.57,3757.4
1055.63,3757.8
1056.69,3757.9
1057.76,3757.9
1058.82,3757.9
1059.88,3758.0
1060.95,3756.9
1062.01,3759.2
1063.07,3756.9
1064.13,3759.0
1065.19,3756.6
1066.26,3758.9
1067.32,3758.0
1068.11,3756.5