File: spectra/VLFR_01-LDPE_bio_Raman_39ad75eb.csv
nm,Intensity
526.495,829.7
527.042,829.0
527.589,829.9
528.136,829.4
528.682,829.7
529.229,829.3
529.775,829.5
530.321,828.9
530.867,828.6
531.413,829.3
531.959,832.2
532.505,830.0
533.051,829.4
533.596,833.0
534.141,1211.0
534.687,1238.2
535.232,1233.2
535.777,1249.3
536.321,1266.1
536.866,1265.4
537.41,1274.9
537.955,1279.0
538.499,1288.8
539.043,1292.1
539.587,1301.5
540.131,1300.9
540.675,1304.8
541.219,1309.0
541.762,1320.3
542.305,1323.3
542.849,1336.8
543.392,1347.7
543.935,1356.3
544.478,1350.2
545.02,1366.5
545.563,1378.5
546.106,1389.8
546.648,1389.9
547.19,1406.7
547.732,1401.5
548.274,1418.3
548.816,1431.1
549.358,1437.7
549.9,1442.6
550.441,1443.6
550.983,1456.5
551.524,1468.1
552.065,1468.0
552.606,1479.1
553.147,1486.1
553.688,1493.0
554.229,1497.2
554.769,1508.6
555.31,1500.0
555.85,1509.3
556.391,1514.1
556.931,1520.9
557.471,1514.3
558.011,1510.0
558.551,1511.9
559.09,1524.5
559.63,1541.6
560.169,1551.2
560.709,1551.0
561.248,1559.4
561.787,1568.1
562.326,1575.2
562.865,1582.2
563.404,1591.2
563.943,1608.6
564.481,1624.8
565.02,1624.5
565.558,1627.4
566.096,1629.7
566.634,1639.4
567.172,1633.8
567.71,1639.5
568.248,1644.2
568.786,1662.6
569.324,1677.1
569.861,1686.6
570.399,1707.3
570.936,1703.9
571.473,1705.7
572.01,1721.6
572.547,1726.5
573.084,1743.3
573.621,1764.4
574.158,1758.5
574.694,1761.5
575.231,1769.7
575.767,1775.3
576.303,1802.7
576.84,1794.1
577.376,1808.6
577.912,1804.5
578.448,1816.3
578.984,1820.2
579.519,1822.6
580.055,1827.4
580.59,1834.0
581.126,1830.9
581.661,1855.8
582.196,1857.5
582.731,1848.0
583.267,1856.3
583.801,1855.0
584.336,1861.8
584.871,1835.1
585.406,1861.3
585.94,1868.4
586.475,1859.2
587.009,1877.1
587.543,1873.6
588.078,1877.1
588.612,1885.1
589.146,1879.7
589.68,1873.1
590.214,1886.1
590.747,1891.6
591.281,1867.0
591.815,1883.5
592.348,1880.4
592.881,1866.2
593.415,1854.4
593.948,1858.8
594.481,1858.9
595.014,1858.8
595.547,1889.0
596.08,1887.5
596.613,1880.3
597.146,1897.9
597.678,1883.2
598.211,1907.3
598.743,1903.9
599.276,1896.9
599.808,1894.8
600.34,1888.2
600.872,1878.2
601.404,1886.7
601.936,1890.9
602.468,1887.3
603.0,1883.3
603.532,1894.2
604.064,1890.7
604.595,1887.1
605.127,1867.4
605.658,1850.2
606.189,1846.6
606.721,1849.7
607.252,1846.6
607.783,1863.8
608.314,1863.1
608.845,1861.1
609.376,1869.5
609.907,1862.0
610.438,1865.4
610.968,1851.2
611.499,1880.6
612.029,1884.4
612.56,1895.2
613.09,1896.7
613.621,1905.8
614.151,1900.5
614.681,1897.2
615.211,1899.2
615.741,1884.5
616.271,1885.9
616.801,1895.9
617.331,1903.7
617.861,1901.6
618.39,1894.5
618.92,1879.8
619.45,1890.3
619.979,1901.9
620.509,1872.0
621.038,1877.5
621.567,1881.0
622.096,1888.5
622.626,1892.8
623.155,1886.7
623.684,1897.0
624.213,1882.4
624.742,1896.8
625.271,1888.6
625.799,1883.8
626.328,1878.0
626.857,1882.5
627.386,1892.0
627.914,1895.7
628.443,1880.0
628.971,1881.0
629.5,1873.8
630.028,1888.2
630.556,1879.2
631.084,1882.5
631.613,1879.8
632.141,1877.0
632.669,1865.5
633.197,1846.6
633.725,1855.3
634.253,1846.6
634.781,1848.3
635.308,1843.1
635.836,1854.8
636.364,1852.3
636.891,1853.9
637.419,1842.9
637.947,1848.3
638.474,1838.0
639.002,1838.0
639.529,1835.2
640.056,1818.9
640.584,1824.2
641.111,1833.8
641.638,1838.7
642.165,1817.9
642.692,1824.2
643.219,1807.2
643.746,1798.6
644.273,1790.7
644.8,1804.5
645.327,1791.5
645.854,1782.2
646.381,1799.2
646.908,1788.0
647.434,1786.2
647.961,1788.5
648.488,1773.0
649.014,1774.2
649.541,1786.3
650.067,1780.0
650.594,1780.8
651.12,1770.3
651.646,1768.6
652.173,1780.3
652.699,1765.4
653.225,1778.1
653.752,1768.4
654.278,1771.5
654.804,1761.3
655.33,1769.8
655.856,1763.2
656.382,1765.7
656.908,1764.9
657.434,1760.8
657.96,1768.8
658.486,1769.0
659.012,1766.1
659.538,1789.7
660.064,1778.7
660.589,1769.0
661.115,1780.0
661.641,1747.7
662.166,1767.6
662.692,1752.9
663.086,1756.5