File: spectra/VLFR_08-PLA_bio_Raman_a9f3b669.csv
nm,Intensity
526.532,834.3
527.079,832.7
527.625,833.6
528.172,833.55
528.718,833.15
529.265,833.2
529.811,833.2
530.357,832.85
530.903,833.5
531.449,832.95
531.994,840.9
532.54,833.6
533.085,833.55
533.63,834.05
534.176,930.65
534.721,921.3
535.266,916.35
535.81,913.3
536.355,915.45
536.9,915.85
537.444,916.6
537.988,917.6
538.533,915.95
539.077,919.5
539.621,920.0
540.165,919.7
540.708,923.2
541.252,921.8
541.795,926.5
542.339,924.5
542.882,926.8
543.425,933.9
543.968,932.7
544.511,933.1
545.054,934.1
545.597,932.45
546.139,931.45
546.682,935.85
547.224,936.5
547.766,936.1
548.308,937.8
548.85,942.25
549.392,939.8
549.934,943.8
550.475,941.0
551.017,942.7
551.558,947.3
552.1,949.05
552.641,950.55
553.182,949.4
553.723,949.55
554.264,952.7
554.804,954.8
555.345,952.25
555.885,950.6
556.426,952.25
556.966,954.0
557.506,959.25
558.046,983.9
558.586,959.9
559.126,961.2
559.665,960.4
560.205,960.35
560.745,959.8
561.284,961.85
561.823,957.3
562.362,961.85
562.901,963.4
563.44,972.85
563.979,971.5
564.518,970.35
565.056,976.6
565.595,973.75
566.133,983.6
566.671,974.15
567.21,973.7
567.748,969.75
568.285,975.25
568.823,975.05
569.361,974.75
569.899,973.55
570.436,977.8
570.974,979.95
571.511,979.45
572.048,983.9
572.585,985.2
573.122,983.0
573.659,985.4
574.196,983.7
574.733,986.25
575.269,979.4
575.806,986.05
576.342,986.2
576.878,1001.35
577.414,990.6
577.951,988.3
578.486,987.85
579.022,987.9
579.558,985.45
580.094,987.6
580.629,991.9
581.165,986.4
581.7,990.15
582.236,989.75
582.771,988.05
583.306,990.2
583.841,992.5
584.376,994.6
584.911,994.45
585.445,992.25
585.98,994.55
586.514,1000.15
587.049,1006.75
587.583,1009.0
588.117,1000.6
588.651,993.95
589.186,996.1
589.72,995.6
590.253,992.1
590.787,993.8
591.321,992.75
591.854,989.0
592.388,992.45
592.921,994.65
593.455,991.85
593.988,990.45
594.521,991.65
595.054,994.15
595.587,993.8
596.12,995.0
596.653,995.05
597.186,992.6
597.718,994.8
598.251,993.55
598.783,998.15
599.316,994.3
599.848,995.95
600.38,990.75
600.912,992.15
601.444,994.2
601.976,993.75
602.508,988.45
603.04,990.3
603.572,992.7
604.103,990.9
604.635,988.15
605.167,985.65
605.698,984.4
606.229,985.5
606.761,982.5
607.292,983.4
607.823,983.3
608.354,985.7
608.885,983.75
609.416,984.05
609.947,983.05
610.477,980.65
611.008,982.25
611.539,986.5
612.069,985.7
612.6,984.85
613.13,984.25
613.66,986.7
614.19,985.4
614.721,982.75
615.251,984.7
615.781,982.65
616.311,985.35
616.841,983.2
617.37,983.35
617.9,985.45
618.43,982.75
618.96,982.4
619.489,982.35
620.019,979.1
620.548,978.35
621.077,982.3
621.607,980.65
622.136,979.7
622.665,981.25
623.194,982.5
623.723,979.55
624.252,979.4
624.781,980.35
625.31,979.4
625.839,977.05
626.368,978.9
626.896,975.55
627.425,975.0
627.953,975.85
628.482,994.25
629.01,986.45
629.539,991.2
630.067,987.2
630.596,1007.05
631.124,1100.5
631.652,1030.5
632.18,999.95
632.708,998.9
633.236,1019.1
633.764,1011.5
634.292,984.35
634.82,971.95
635.348,967.6
635.876,967.8
636.403,962.9
636.931,966.75
637.459,963.1
637.986,964.05
638.514,963.65
639.041,962.85
639.568,963.3
640.096,962.95
640.623,960.3
641.15,963.35
641.678,964.2
642.205,961.35
642.732,962.1
643.259,957.4
643.786,957.5
644.313,953.15
644.84,952.85
645.367,954.3
645.894,951.75
646.421,949.65
646.948,953.3
647.474,950.95
648.001,954.15
648.528,949.3
649.054,951.25
649.581,945.9
650.108,948.05
650.634,946.55
651.161,945.95
651.687,944.6
652.214,944.3
652.74,941.85
653.266,944.65
653.793,945.0
654.319,943.9
654.845,946.15
655.371,945.45
655.897,945.15
656.424,937.4
656.95,939.1
657.476,939.95
658.002,938.0
658.528,937.85
659.054,939.3
659.58,938.2
660.106,941.0
660.631,937.0
661.157,936.75
661.683,934.55
662.209,931.55
662.735,933.6
663.129,933.9