File: spectra/VLFR_01-LDPE_bio_Raman_49a399cc.csv
nm,Intensity
528.65,1856.6
529.155,1855.55
529.66,1855.65
530.165,1855.3
530.67,1856.15
531.175,1856.25
531.68,1869.35
532.185,2559.5
532.69,1856.35
533.194,1855.05
533.699,1905.9
534.204,2053.5
534.708,2058.05
535.213,2070.25
535.717,2071.7
536.222,2054.75
536.726,2047.65
537.231,2067.5
537.735,2060.8
538.239,2069.0
538.743,2116.95
539.247,2134.1
539.751,2062.4
540.255,2051.75
540.759,2054.25
541.263,2064.1
541.767,2053.8
542.271,2062.7
542.775,2087.6
543.279,2079.3
543.782,2077.5
544.286,2083.55
544.789,2053.65
545.293,2058.8
545.796,2076.5
546.3,2230.35
546.803,2135.4
547.306,2076.75
547.81,2073.9
548.313,2066.05
548.816,2076.45
549.319,2086.55
549.822,2100.55
550.325,2137.95
550.828,2096.8
551.331,2097.5
551.834,2103.95
552.337,2080.95
552.839,2074.05
553.342,2080.1
553.844,2077.4
554.347,2074.65
554.849,2078.1
555.352,2072.75
555.854,2078.65
556.357,2075.7
556.859,2091.8
557.361,2079.05
557.863,2085.7
558.365,2083.2
558.867,2088.95
559.369,2079.65
559.871,2091.35
560.373,2092.65
560.875,2100.85
561.377,2125.5
561.878,2220.9
562.38,3146.1
562.881,2147.0
563.383,2130.95
563.884,2197.4
564.386,2159.55
564.887,2157.15
565.388,2140.85
565.89,2197.1
566.391,2268.35
566.892,2173.05
567.393,2166.7
567.894,2148.05
568.395,2156.5
568.896,2166.15
569.396,2169.25
569.897,2175.0
570.398,2203.0
570.898,2220.05
571.399,2341.4
571.9,2271.95
572.4,2247.1
572.9,2236.4
573.401,2230.5
573.901,2225.85
574.401,2225.1
574.901,2213.9
575.401,2238.85
575.901,2303.6
576.401,2380.2
576.901,2335.15
577.401,2257.05
577.901,2228.7
578.4,2219.3
578.9,2227.25
579.399,2227.25
579.899,2231.0
580.398,2237.1
580.898,2232.3
581.397,2241.1
581.896,2234.9
582.395,2233.25
582.895,2248.55
583.394,2234.85
583.893,2270.05
584.391,2256.7
584.89,2260.05
585.389,2253.05
585.888,2265.9
586.386,2256.4
586.885,2271.9
587.384,2288.05
587.882,2299.9
588.38,2296.8
588.879,2297.3
589.377,2290.6
589.875,2302.1
590.373,2306.45
590.871,2327.65
591.369,2327.6
591.867,2335.3
592.365,2335.65
592.863,2334.7
593.361,2338.9
593.858,2333.6
594.356,2354.2
594.853,2358.6
595.351,2392.3
595.848,2377.35
596.345,2411.45
596.843,2387.95
597.34,2422.0
597.837,2437.05
598.334,2424.4
598.831,2436.05
599.328,2437.6
599.824,2441.1
600.321,2457.8
600.818,2465.45
601.314,2445.4
601.811,2444.4
602.307,2437.2
602.804,2441.1
603.3,2427.55
603.796,2422.45
604.293,2400.95
604.789,2385.35
605.285,2381.95
605.781,2375.65
606.277,2365.0
606.772,2357.35
607.268,2346.6
607.764,2329.65
608.259,2327.7
608.755,2336.5
609.25,2326.75
609.746,2304.6
610.241,2313.05
610.736,2301.05
611.231,2308.8
611.727,2299.85
612.222,2295.9
612.716,2283.95
613.211,2293.75
613.706,2285.65
614.201,2289.45
614.695,2293.6
615.19,2279.05
615.684,2273.5
616.179,2288.1
616.673,2277.1
617.168,2278.8
617.662,2273.2
618.156,2279.85
618.65,2270.3
619.144,2280.3
619.638,2282.0
620.131,2285.1
620.625,2276.3
621.119,2294.95
621.612,2318.75
622.106,2337.05
622.599,2330.4
623.093,2294.05
623.586,2260.7
624.079,2263.8
624.572,2262.25
625.065,2260.55
625.558,2285.1
626.051,2305.75
626.544,2462.6
627.037,3342.6
627.529,3331.6
628.022,3060.65
628.514,3529.5
629.007,3121.7
629.499,2935.3
629.991,2786.1
630.483,2727.75
630.976,2498.85
631.468,2353.0
631.959,2284.75
632.451,2266.65
632.943,2243.6
633.435,2254.15
633.926,2219.75
634.418,2231.5
634.909,2223.8
635.401,2211.95
635.892,2215.95
636.383,2224.65
636.874,2215.05
637.365,2208.5
637.856,2214.8
638.347,2230.5
638.838,2208.35
639.329,2211.05
639.819,2200.45
640.31,2201.1
640.8,2195.55
641.291,2213.3
641.781,2197.0
642.271,2200.85
642.761,2211.95
643.251,2200.75
643.741,2204.45
644.231,2204.45
644.721,2202.15
645.211,2213.9
645.7,2209.15
646.19,2206.85
646.679,2212.95
647.169,2206.1
647.658,2210.15
648.147,2200.95
648.636,2213.05
649.125,2223.55
649.614,2276.9
650.103,2260.65
650.592,2243.3
651.08,2217.5
651.569,2208.6
652.058,2201.4
652.546,2191.2
653.034,2190.45
653.523,2171.1
654.011,2183.05
654.499,2183.75
654.987,2160.45
655.475,2167.8
655.963,2147.3
656.45,2146.25
656.938,2152.5
657.425,2135.8
657.913,2144.5
658.4,2120.4
658.888,2116.95
659.375,2106.05
659.862,2110.1
660.349,2090.6
660.836,2089.9
661.079,2091.0