File: spectra/VLFR_09-PET_bio_Raman_3a16bb78.csv
nm,Intensity
526.547,831.9
527.095,832.3
527.642,833.0
528.189,833.4
528.736,832.3
529.283,831.95
529.829,832.6
530.376,832.85
530.922,833.3
531.468,832.25
532.014,835.7
532.56,832.1
533.106,832.85
533.651,855.75
534.196,2397.95
534.742,2155.9
535.287,1905.2
535.832,1786.6
536.376,1693.8
536.921,1669.9
537.465,1656.9
538.01,1659.5
538.554,1665.75
539.098,1672.1
539.642,1704.0
540.186,1733.5
540.729,1704.4
541.273,1713.95
541.816,1717.95
542.36,1735.35
542.903,1746.95
543.446,1764.1
543.988,1776.6
544.531,1780.05
545.074,1801.95
545.616,1808.3
546.158,1825.5
546.701,1835.65
547.243,1847.25
547.785,1853.2
548.326,1864.1
548.868,1889.7
549.41,1887.75
549.951,1894.1
550.492,1951.65
551.034,1931.4
551.575,1935.9
552.116,1962.75
552.656,1979.15
553.197,1978.7
553.738,1997.75
554.278,1998.95
554.819,2023.45
555.359,2032.6
555.899,2074.95
556.439,2098.3
556.979,2131.7
557.519,2375.4
558.058,2172.5
558.598,2137.6
559.137,2122.45
559.677,2117.5
560.216,2139.1
560.755,2153.5
561.294,2176.7
561.833,2213.95
562.371,2248.9
562.91,2232.85
563.449,2247.4
563.987,2274.2
564.525,2316.5
565.064,2491.0
565.602,2451.55
566.14,2428.7
566.678,2341.1
567.216,2340.4
567.753,2423.3
568.291,2379.65
568.828,2387.35
569.366,2406.25
569.903,2443.5
570.44,2503.4
570.977,2727.65
571.514,2945.55
572.051,2643.6
572.588,2522.15
573.125,2494.8
573.661,2529.5
574.198,2561.1
574.734,2556.9
575.271,2619.1
575.807,2624.15
576.343,2608.1
576.879,2661.05
577.415,2646.15
577.951,2623.3
578.486,2643.3
579.022,2656.5
579.557,2660.15
580.093,2665.3
580.628,2691.7
581.164,2722.5
581.699,2913.05
582.234,4890.1
582.769,2846.5
583.304,2770.9
583.838,2770.4
584.373,2799.2
584.908,2804.75
585.442,2948.1
585.977,3814.65
586.511,3326.85
587.045,2924.5
587.58,2878.85
588.114,2854.8
588.648,2857.1
589.182,2849.35
589.715,2847.55
590.249,2856.7
590.783,2883.55
591.316,2892.55
591.85,2881.05
592.383,2898.85
592.917,2882.65
593.45,2888.75
593.983,2904.75
594.516,2901.95
595.049,2930.0
595.582,2943.4
596.115,2960.75
596.648,2963.25
597.18,2983.35
597.713,2988.45
598.245,3017.95
598.778,3025.5
599.31,3048.25
599.842,3040.75
600.375,3039.25
600.907,3033.95
601.439,3040.4
601.971,3049.95
602.503,3072.35
603.034,3096.85
603.566,3110.15
604.098,3104.35
604.629,3107.7
605.161,3101.7
605.692,3090.85
606.224,3096.5
606.755,3088.55
607.286,3132.8
607.817,3151.35
608.348,3200.4
608.879,3217.55
609.41,3228.45
609.941,3236.1
610.472,3257.7
611.002,3258.25
611.533,3291.35
612.063,3342.55
612.594,3383.35
613.124,3438.7
613.655,3470.4
614.185,3505.5
614.715,3502.05
615.245,3533.45
615.775,3542.35
616.305,3564.6
616.835,3617.75
617.365,3667.0
617.895,3697.6
618.425,3720.7
618.954,3752.35
619.484,3753.4
620.013,3789.75
620.543,3808.95
621.072,3833.35
621.602,3871.25
622.131,3894.8
622.66,3958.1
623.189,3993.0
623.718,4042.25
624.247,4083.05
624.776,4109.95
625.305,4122.45
625.834,4158.35
626.363,4181.75
626.891,4219.65
627.42,4234.25
627.949,4261.65
628.477,4319.3
629.006,4389.0
629.534,4450.05
630.062,4456.5
630.591,4485.45
631.119,4537.95
631.647,4674.35
632.175,4720.05
632.703,4654.3
633.231,4673.9
633.759,4651.45
634.287,4651.45
634.815,4674.25
635.343,4724.6
635.871,4833.9
636.398,5014.8
636.926,4976.7
637.454,4871.15
637.981,4850.5
638.509,4870.6
639.036,4895.8
639.564,4916.5
640.091,4949.2
640.618,4972.05
641.146,5012.7
641.673,5028.75
642.2,5040.85
642.727,5054.05
643.254,5024.4
643.781,5017.75
644.308,5005.35
644.835,5021.5
645.362,5027.3
645.889,5041.6
646.416,5056.7
646.942,5111.7
647.469,5112.0
647.996,5124.55
648.522,5114.45
649.049,5114.9
649.576,5114.85
650.102,5109.0
650.629,5128.3
651.155,5108.35
651.682,5116.4
652.208,5166.1
652.734,5172.95
653.261,5185.65
653.787,5186.85
654.313,5177.25
654.839,5171.9
655.365,5200.15
655.892,5195.15
656.418,5185.25
656.944,5206.75
657.47,5229.2
657.996,5193.45
658.522,5267.6
659.048,5229.1
659.574,5234.35
660.099,5228.35
660.625,5234.0
661.151,5178.6
661.677,5167.3
662.203,5145.65
662.728,5170.6
663.123,5155.55