File: spectra/VLFR_08-PLA_nobio_Raman_adae048e.csv
nm,Intensity
526.508,831.5
527.055,830.1
527.602,829.6
528.149,830.5
528.695,829.0
529.241,832.0
529.787,829.5
530.334,830.5
530.879,830.3
531.425,830.4
531.971,832.7
532.516,830.4
533.062,829.1
533.607,831.6
534.152,1075.6
534.697,1024.7
535.242,984.5
535.786,967.3
536.331,957.8
536.876,960.3
537.42,950.0
537.964,949.3
538.508,940.2
539.052,934.6
539.596,930.7
540.14,927.7
540.683,946.9
541.227,951.1
541.77,938.4
542.313,937.4
542.856,933.9
543.399,959.7
543.942,977.1
544.485,950.1
545.027,939.6
545.57,936.7
546.112,931.6
546.654,935.3
547.196,939.4
547.738,935.6
548.28,940.4
548.822,939.9
549.363,939.7
549.905,945.7
550.446,947.1
550.988,947.2
551.529,952.4
552.07,957.4
552.611,959.7
553.152,958.6
553.692,956.5
554.233,969.1
554.773,958.4
555.314,954.8
555.854,953.2
556.394,953.6
556.934,955.0
557.474,973.1
558.014,1098.9
558.553,996.0
559.093,969.7
559.632,972.2
560.172,960.3
560.711,960.0
561.25,957.9
561.789,961.3
562.328,956.6
562.867,977.2
563.406,1008.8
563.944,985.9
564.483,978.3
565.021,1001.8
565.559,993.9
566.098,1032.0
566.636,993.9
567.174,971.4
567.711,984.3
568.249,975.1
568.787,981.0
569.324,982.8
569.862,980.5
570.399,976.7
570.936,981.8
571.474,997.4
572.011,1012.0
572.548,995.8
573.084,996.7
573.621,1004.0
574.158,1001.3
574.694,1007.8
575.231,984.8
575.767,987.8
576.303,1011.4
576.84,1079.9
577.376,1012.9
577.912,990.5
578.447,990.6
578.983,990.7
579.519,994.7
580.054,991.8
580.59,998.4
581.125,990.5
581.661,989.9
582.196,994.3
582.731,997.1
583.266,999.5
583.801,998.8
584.336,997.7
584.87,997.9
585.405,998.9
585.94,1001.9
586.474,1013.6
587.008,1056.1
587.543,1081.3
588.077,1030.1
588.611,999.9
589.145,1004.1
589.679,997.9
590.213,998.5
590.747,998.2
591.28,1001.8
591.814,996.8
592.347,998.3
592.881,1001.3
593.414,998.6
593.947,996.9
594.48,997.6
595.014,1002.1
595.547,1002.2
596.079,1002.4
596.612,1000.1
597.145,1009.0
597.678,1004.5
598.21,1002.0
598.743,1012.9
599.275,1007.3
599.807,1008.3
600.34,1005.0
600.872,1005.0
601.404,1005.8
601.936,1007.0
602.468,1011.6
603.0,1009.8
603.532,1009.3
604.063,1009.7
604.595,1009.4
605.126,1010.2
605.658,1007.4
606.189,1011.2
606.721,1010.6
607.252,1007.9
607.783,1011.4
608.314,1008.9
608.845,1013.6
609.376,1020.6
609.907,1016.3
610.438,1015.9
610.968,1016.4
611.499,1020.0
612.03,1021.8
612.56,1020.3
613.091,1020.5
613.621,1026.7
614.151,1023.2
614.681,1026.9
615.212,1023.4
615.742,1032.0
616.272,1026.2
616.802,1026.4
617.332,1023.3
617.861,1030.8
618.391,1026.8
618.921,1025.8
619.45,1026.5
619.98,1032.0
620.509,1028.3
621.039,1027.2
621.568,1030.1
622.097,1031.4
622.627,1038.9
623.156,1046.1
623.685,1036.2
624.214,1034.3
624.743,1029.0
625.272,1029.7
625.801,1020.7
626.33,1028.7
626.858,1028.3
627.387,1028.3
627.916,1037.5
628.444,1117.8
628.973,1100.4
629.501,1094.7
630.029,1098.5
630.558,1172.4
631.086,1606.9
631.614,1321.7
632.142,1177.1
632.67,1145.3
633.198,1249.5
633.726,1215.3
634.254,1097.3
634.782,1041.1
635.31,1021.6
635.838,1017.4
636.365,1011.1
636.893,1014.0
637.421,1010.9
637.948,1009.8
638.476,1005.8
639.003,1011.1
639.531,1004.0
640.058,1008.0
640.585,1004.8
641.113,1004.6
641.64,996.1
642.167,1009.9
642.694,1005.5
643.221,994.2
643.748,992.7
644.275,988.2
644.802,989.0
645.329,989.4
645.856,990.6
646.382,984.9
646.909,985.8
647.436,986.8
647.962,983.3
648.489,979.8
649.016,980.9
649.542,980.7
650.069,984.3
650.595,973.4
651.121,979.0
651.648,979.3
652.174,973.7
652.7,977.6
653.227,972.8
653.753,977.7
654.279,974.9
654.805,974.0
655.331,973.8
655.857,974.1
656.383,968.1
656.909,974.2
657.435,964.9
657.961,973.0
658.487,973.9
659.013,966.0
659.538,964.1
660.064,964.4
660.59,967.9
661.116,954.0
661.641,958.4
662.167,958.0
662.692,963.9
663.087,963.8