File: spectra/VLFR_02-HDPE_bio_Raman_a1a4ddbc.csv
nm,Intensity
526.495,829.85
527.042,829.6
527.589,829.2
528.136,829.15
528.682,829.2
529.229,829.35
529.775,829.25
530.321,828.65
530.867,828.9
531.413,830.2
531.959,831.4
532.505,829.45
533.051,830.05
533.596,831.35
534.141,915.7
534.687,899.0
535.232,884.3
535.777,872.45
536.321,867.9
536.866,865.3
537.41,861.5
537.955,860.2
538.499,860.5
539.043,855.0
539.587,854.7
540.131,852.7
540.675,850.5
541.219,849.85
541.762,848.55
542.305,849.05
542.849,849.3
543.392,846.9
543.935,848.35
544.478,847.95
545.02,846.9
545.563,845.05
546.106,846.05
546.648,846.65
547.19,846.7
547.732,845.1
548.274,845.75
548.816,844.3
549.358,845.9
549.9,843.85
550.441,846.0
550.983,844.6
551.524,845.95
552.065,844.85
552.606,844.65
553.147,848.45
553.688,849.85
554.229,850.1
554.769,851.3
555.31,851.5
555.85,854.0
556.391,856.6
556.931,859.7
557.471,860.35
558.011,864.85
558.551,866.35
559.09,863.2
559.63,863.45
560.169,861.1
560.709,865.25
561.248,865.4
561.787,868.45
562.326,870.8
562.865,880.0
563.404,881.35
563.943,947.35
564.481,909.3
565.02,904.3
565.558,898.05
566.096,993.3
566.634,910.85
567.172,902.35
567.71,904.45
568.248,904.7
568.786,908.9
569.324,910.45
569.861,918.25
570.399,928.4
570.936,940.1
571.473,1050.75
572.01,983.3
572.547,967.2
573.084,964.5
573.621,979.95
574.158,999.25
574.694,998.85
575.231,1016.0
575.767,1092.4
576.303,1182.75
576.84,1159.95
577.376,1150.75
577.912,1144.9
578.448,1176.0
578.984,1208.05
579.519,1234.3
580.055,1273.6
580.59,1318.3
581.126,1353.4
581.661,1391.55
582.196,1432.1
582.731,1462.85
583.267,1490.95
583.801,1531.0
584.336,1553.2
584.871,1573.35
585.406,1591.15
585.94,1605.5
586.475,1638.05
587.009,1658.6
587.543,1673.2
588.078,1689.0
588.612,1697.8
589.146,1716.15
589.68,1727.3
590.214,1746.05
590.747,1768.35
591.281,1787.1
591.815,1792.9
592.348,1799.3
592.881,1790.65
593.415,1794.2
593.948,1795.85
594.481,1793.7
595.014,1799.65
595.547,1824.0
596.08,1818.4
596.613,1829.7
597.146,1832.95
597.678,1851.9
598.211,1872.7
598.743,1884.1
599.276,1893.0
599.808,1902.9
600.34,1901.65
600.872,1892.35
601.404,1899.3
601.936,1882.9
602.468,1861.85
603.0,1851.9
603.532,1813.8
604.064,1792.5
604.595,1745.85
605.127,1708.4
605.658,1673.15
606.189,1632.3
606.721,1607.15
607.252,1568.05
607.783,1547.0
608.314,1528.2
608.845,1503.5
609.376,1480.95
609.907,1461.1
610.438,1449.6
610.968,1433.55
611.499,1415.1
612.029,1399.8
612.56,1390.4
613.09,1380.95
613.621,1379.15
614.151,1363.35
614.681,1347.5
615.211,1338.75
615.741,1318.05
616.271,1307.9
616.801,1300.75
617.331,1300.1
617.861,1291.05
618.39,1289.2
618.92,1281.45
619.45,1271.35
619.979,1268.7
620.509,1264.2
621.038,1262.45
621.567,1268.2
622.096,1283.0
622.626,1284.95
623.155,1271.45
623.684,1263.95
624.213,1261.45
624.742,1266.85
625.271,1268.6
625.799,1280.05
626.328,1301.05
626.857,1490.25
627.386,1902.05
627.914,1665.35
628.443,1844.5
628.971,1776.65
629.5,1677.65
630.028,1586.95
630.556,1569.25
631.084,1449.85
631.613,1379.4
632.141,1358.8
632.669,1357.1
633.197,1353.8
633.725,1351.8
634.253,1357.15
634.781,1362.55
635.308,1365.05
635.836,1375.0
636.364,1375.75
636.891,1376.85
637.419,1374.95
637.947,1379.1
638.474,1378.75
639.002,1379.1
639.529,1381.95
640.056,1386.35
640.584,1390.05
641.111,1391.45
641.638,1385.9
642.165,1392.95
642.692,1396.65
643.219,1390.05
643.746,1387.5
644.273,1382.3
644.8,1378.65
645.327,1375.85
645.854,1386.7
646.381,1374.85
646.908,1372.5
647.434,1373.45
647.961,1372.45
648.488,1362.05
649.014,1359.2
649.541,1357.6
650.067,1351.9
650.594,1352.15
651.12,1345.6
651.646,1345.2
652.173,1347.65
652.699,1339.35
653.225,1342.4
653.752,1345.95
654.278,1342.35
654.804,1333.5
655.33,1330.05
655.856,1321.25
656.382,1316.85
656.908,1305.05
657.434,1294.0
657.96,1286.1
658.486,1276.0
659.012,1266.0
659.538,1253.35
660.064,1237.5
660.589,1225.0
661.115,1213.05
661.641,1199.25
662.166,1183.3
662.692,1171.9
663.086,1162.45