File: spectra/VLFR_09-PET_bio_Raman_1fa49f1a.csv
nm,Intensity
526.493,829.15
527.039,830.0
527.586,831.5
528.133,828.85
528.679,829.35
529.225,828.7
529.771,830.0
530.317,829.7
530.863,829.3
531.409,829.15
531.955,831.0
532.5,830.8
533.046,829.9
533.591,836.15
534.136,1663.15
534.681,1712.8
535.226,1670.25
535.771,1703.1
536.315,1702.65
536.86,1716.75
537.404,1714.7
537.948,1745.5
538.493,1749.45
539.037,1759.05
539.58,1779.2
540.124,1798.45
540.668,1798.75
541.211,1829.0
541.755,1839.1
542.298,1848.8
542.841,1864.8
543.384,1886.8
543.927,1907.25
544.47,1919.85
545.013,1942.2
545.555,2072.65
546.098,1976.05
546.64,1985.95
547.182,2001.1
547.724,2009.05
548.266,2022.3
548.808,2028.6
549.35,2045.05
549.892,2070.15
550.433,2076.85
550.974,2085.0
551.516,2110.2
552.057,2113.05
552.598,2132.2
553.139,2139.95
553.68,2152.75
554.22,2162.95
554.761,2180.15
555.301,2179.4
555.842,2190.05
556.382,2201.7
556.922,2221.95
557.462,2248.55
558.002,2242.65
558.542,2242.05
559.082,2257.25
559.621,2276.6
560.161,2304.85
560.7,2324.35
561.239,2323.4
561.778,2326.25
562.317,2354.45
562.856,2373.1
563.395,2384.8
563.934,2413.75
564.472,2425.05
565.011,2469.7
565.549,2466.5
566.088,2480.0
566.626,2484.3
567.164,2471.65
567.702,2490.45
568.24,2499.8
568.777,2527.8
569.315,2550.2
569.853,2567.9
570.39,2587.55
570.927,2589.25
571.465,2617.25
572.002,2606.05
572.539,2621.0
573.076,2652.05
573.612,2660.9
574.149,2669.2
574.686,2684.25
575.222,2692.45
575.759,2706.15
576.295,2721.2
576.831,2736.85
577.367,2756.75
577.903,2746.1
578.439,2772.95
578.975,2789.95
579.511,2803.5
580.046,2796.95
580.582,2798.5
581.117,2815.5
581.653,2825.2
582.188,2986.5
582.723,2870.5
583.258,2875.55
583.793,2879.45
584.328,2881.6
584.863,2883.55
585.398,2908.95
585.932,2974.7
586.467,2976.55
587.001,2958.4
587.535,2955.5
588.07,2947.0
588.604,2942.1
589.138,2929.3
589.672,2931.0
590.206,2948.8
590.739,2965.85
591.273,2982.0
591.807,2985.45
592.34,2985.35
592.873,2972.4
593.407,2967.65
593.94,2974.3
594.473,2981.1
595.006,3017.05
595.539,3026.25
596.072,3034.5
596.605,3054.45
597.138,3058.5
597.67,3061.15
598.203,3093.8
598.735,3106.7
599.268,3105.8
599.8,3105.95
600.332,3089.85
600.865,3102.1
601.397,3095.5
601.929,3095.75
602.46,3101.05
602.992,3117.6
603.524,3138.35
604.056,3135.2
604.587,3133.4
605.119,3099.25
605.65,3099.45
606.182,3086.5
606.713,3089.95
607.244,3095.75
607.775,3128.55
608.306,3130.65
608.837,3152.15
609.368,3152.35
609.899,3144.65
610.43,3150.75
610.961,3153.05
611.491,3164.85
612.022,3199.05
612.552,3229.35
613.083,3255.95
613.613,3278.6
614.143,3281.0
614.673,3280.2
615.203,3286.7
615.734,3278.25
616.263,3271.2
616.793,3285.65
617.323,3317.95
617.853,3318.1
618.383,3336.55
618.912,3334.95
619.442,3335.3
619.971,3332.0
620.501,3322.15
621.03,3338.05
621.56,3336.8
622.089,3349.5
622.618,3381.45
623.147,3394.45
623.676,3400.8
624.205,3414.05
624.734,3430.5
625.263,3422.95
625.792,3419.5
626.321,3426.9
626.849,3428.8
627.378,3440.8
627.906,3433.65
628.435,3440.2
628.963,3461.5
629.492,3453.15
630.02,3480.2
630.548,3495.45
631.077,3504.1
631.605,3499.35
632.133,3487.25
632.661,3482.45
633.189,3494.15
633.717,3470.95
634.245,3470.95
634.773,3463.25
635.3,3471.35
635.828,3499.9
636.356,3497.2
636.883,3518.15
637.411,3491.3
637.938,3492.95
638.466,3494.15
638.993,3491.25
639.521,3492.3
640.048,3507.65
640.575,3496.55
641.103,3500.75
641.63,3500.8
642.157,3499.35
642.684,3489.85
643.211,3459.55
643.738,3440.05
644.265,3422.8
644.792,3410.2
645.319,3409.9
645.845,3407.75
646.372,3391.25
646.899,3400.1
647.425,3418.6
647.952,3417.95
648.479,3388.2
649.005,3389.9
649.532,3374.65
650.058,3373.25
650.585,3350.45
651.111,3358.35
651.637,3363.75
652.164,3360.3
652.69,3352.85
653.216,3342.45
653.742,3357.65
654.268,3340.5
654.794,3341.0
655.32,3331.05
655.846,3318.4
656.372,3302.0
656.898,3333.3
657.424,3317.6
657.95,3314.95
658.476,3315.7
659.002,3298.9
659.528,3304.9
660.053,3319.75
660.579,3299.95
661.105,3282.4
661.63,3269.6
662.156,3253.6
662.681,3274.0
663.076,3257.4