File: spectra/VLFR_08-PLA_bio_Raman_0619c01f.csv
nm,Intensity
526.547,831.95
527.095,832.65
527.642,832.1
528.189,830.55
528.736,831.85
529.283,831.5
529.829,831.9
530.376,831.6
530.922,832.15
531.468,832.0
532.014,839.75
532.56,831.75
533.106,832.45
533.651,832.6
534.196,923.25
534.742,913.2
535.287,900.9
535.832,898.1
536.376,897.25
536.921,898.8
537.465,896.3
538.01,895.15
538.554,891.95
539.098,890.75
539.642,889.9
540.186,890.25
540.729,893.85
541.273,896.15
541.816,894.55
542.36,893.15
542.903,894.1
543.446,899.95
543.988,905.8
544.531,906.25
545.074,905.15
545.616,911.6
546.158,926.75
546.701,910.9
547.243,901.4
547.785,900.55
548.326,900.15
548.868,901.3
549.41,904.45
549.951,910.4
550.492,909.65
551.034,917.2
551.575,914.05
552.116,909.8
552.656,907.55
553.197,908.7
553.738,912.9
554.278,911.7
554.819,911.1
555.359,909.25
555.899,908.85
556.439,906.45
556.979,913.25
557.519,916.0
558.058,952.2
558.598,919.7
559.137,918.7
559.677,918.3
560.216,914.75
560.755,919.9
561.294,918.0
561.833,943.15
562.371,1090.65
562.91,949.0
563.449,935.95
563.987,929.15
564.525,928.85
565.064,932.7
565.602,934.35
566.14,950.3
566.678,938.95
567.216,930.45
567.753,930.25
568.291,931.95
568.828,932.0
569.366,933.75
569.903,932.0
570.44,931.6
570.977,932.1
571.514,936.3
572.051,938.95
572.588,936.25
573.125,937.1
573.661,941.25
574.198,941.45
574.734,943.6
575.271,938.05
575.807,937.0
576.343,945.65
576.879,960.55
577.415,944.8
577.951,938.65
578.486,941.45
579.022,939.7
579.557,943.1
580.093,941.6
580.628,941.4
581.164,938.45
581.699,943.9
582.234,943.2
582.769,945.75
583.304,943.05
583.838,949.9
584.373,947.25
584.908,945.15
585.442,948.5
585.977,945.6
586.511,955.05
587.045,968.5
587.58,972.85
588.114,958.2
588.648,950.75
589.182,953.65
589.715,948.05
590.249,953.6
590.783,950.85
591.316,951.6
591.85,954.0
592.383,952.25
592.917,948.5
593.45,950.25
593.983,953.05
594.516,956.25
595.049,956.5
595.582,953.2
596.115,954.3
596.648,959.45
597.18,955.7
597.713,954.75
598.245,959.4
598.778,957.1
599.31,956.1
599.842,953.9
600.375,956.9
600.907,955.4
601.439,956.95
601.971,954.8
602.503,957.75
603.034,957.95
603.566,957.1
604.098,961.55
604.629,957.9
605.161,959.15
605.692,956.75
606.224,952.7
606.755,955.25
607.286,954.75
607.817,956.55
608.348,956.25
608.879,957.4
609.41,955.35
609.941,957.15
610.472,956.65
611.002,954.85
611.533,957.05
612.063,957.55
612.594,957.1
613.124,963.05
613.655,961.4
614.185,959.25
614.715,959.8
615.245,960.05
615.775,959.55
616.305,960.9
616.835,960.95
617.365,959.35
617.895,960.8
618.425,960.0
618.954,962.5
619.484,960.45
620.013,959.1
620.543,960.0
621.072,959.55
621.602,957.6
622.131,962.8
622.66,963.45
623.189,966.55
623.718,965.2
624.247,963.9
624.776,962.5
625.305,958.95
625.834,959.65
626.363,961.15
626.891,961.2
627.42,961.25
627.949,963.65
628.477,993.15
629.006,981.05
629.534,981.0
630.062,987.25
630.591,1010.75
631.119,1156.75
631.647,1052.6
632.175,1005.85
632.703,1000.3
633.231,1031.0
633.759,1015.5
634.287,981.15
634.815,963.0
635.343,959.15
635.871,959.95
636.398,960.25
636.926,957.05
637.454,956.95
637.981,954.7
638.509,958.95
639.036,956.3
639.564,953.35
640.091,955.1
640.618,953.25
641.146,955.05
641.673,957.6
642.2,952.75
642.727,954.75
643.254,951.8
643.781,950.05
644.308,951.05
644.835,950.05
645.362,947.45
645.889,948.4
646.416,949.05
646.942,949.75
647.469,948.4
647.996,947.45
648.522,946.25
649.049,944.4
649.576,946.6
650.102,948.5
650.629,946.45
651.155,944.8
651.682,946.1
652.208,944.2
652.734,946.2
653.261,948.45
653.787,947.6
654.313,944.5
654.839,945.4
655.365,948.0
655.892,946.25
656.418,943.85
656.944,944.45
657.47,944.55
657.996,939.15
658.522,942.55
659.048,940.4
659.574,941.45
660.099,938.0
660.625,937.3
661.151,935.95
661.677,936.95
662.203,934.2
662.728,932.85
663.123,933.85