File: spectra/VLFR_06-PET_nobio_Raman_ab965163.csv
nm,Intensity
526.486,829.6
527.033,830.1
527.579,830.5
528.126,829.8
528.672,830.2
529.219,830.5
529.765,830.9
530.311,830.4
530.857,829.2
531.403,831.1
531.948,831.3
532.494,831.7
533.039,829.1
533.585,837.9
534.13,2089.5
534.675,1757.5
535.22,1414.9
535.764,1210.5
536.309,1082.5
536.854,1030.3
537.398,1009.3
537.942,1006.9
538.486,1010.0
539.03,1010.1
539.574,1020.4
540.118,1038.1
540.662,991.7
541.205,984.3
541.749,971.9
542.292,978.2
542.835,978.0
543.378,979.7
543.921,983.0
544.464,983.4
545.006,985.5
545.549,985.5
546.091,983.4
546.634,990.5
547.176,987.7
547.718,985.8
548.26,987.4
548.802,991.4
549.343,998.5
549.885,1002.4
550.426,1006.4
550.968,1024.7
551.509,1000.2
552.05,1005.2
552.591,1008.8
553.132,1035.1
553.673,1011.6
554.214,1008.0
554.754,1012.9
555.295,1024.6
555.835,1076.8
556.375,1081.2
556.915,1087.7
557.455,1221.4
557.995,1122.5
558.535,1116.2
559.075,1068.7
559.614,1042.6
560.154,1041.0
560.693,1046.8
561.232,1051.6
561.772,1058.9
562.311,1075.4
562.85,1077.2
563.388,1087.8
563.927,1083.2
564.466,1090.6
565.004,1125.9
565.543,1200.4
566.081,1205.6
566.619,1109.3
567.157,1090.7
567.695,1176.2
568.233,1114.8
568.771,1103.1
569.309,1102.3
569.846,1135.9
570.384,1179.7
570.921,1303.5
571.458,1435.5
571.995,1281.9
572.532,1175.8
573.069,1139.7
573.606,1148.1
574.143,1177.5
574.68,1167.3
575.216,1195.2
575.753,1177.1
576.289,1200.1
576.825,1219.6
577.361,1193.2
577.897,1175.6
578.433,1186.1
578.969,1190.3
579.505,1193.8
580.041,1200.7
580.576,1199.5
581.112,1231.0
581.647,1297.4
582.183,2462.3
582.718,1286.6
583.253,1234.9
583.788,1246.9
584.323,1240.1
584.858,1256.3
585.392,1352.5
585.927,1880.2
586.462,1664.3
586.996,1312.9
587.53,1268.6
588.065,1260.6
588.599,1260.6
589.133,1259.9
589.667,1256.2
590.201,1255.7
590.735,1259.1
591.268,1259.5
591.802,1253.8
592.335,1265.3
592.869,1264.4
593.402,1264.6
593.936,1262.6
594.469,1274.7
595.002,1282.3
595.535,1275.3
596.068,1278.2
596.601,1289.1
597.133,1289.1
597.666,1277.7
598.199,1297.5
598.731,1298.5
599.264,1298.3
599.796,1296.6
600.328,1304.0
600.86,1296.1
601.393,1294.7
601.925,1285.6
602.457,1299.8
602.988,1303.2
603.52,1298.5
604.052,1304.7
604.583,1291.8
605.115,1304.4
605.646,1295.7
606.178,1293.1
606.709,1287.6
607.24,1300.4
607.771,1290.5
608.302,1293.2
608.833,1301.8
609.364,1300.7
609.895,1306.8
610.426,1307.2
610.957,1304.3
611.487,1309.5
612.018,1313.3
612.548,1317.9
613.078,1322.8
613.609,1325.9
614.139,1338.7
614.669,1330.0
615.199,1330.8
615.729,1338.8
616.259,1333.7
616.789,1338.9
617.319,1348.1
617.849,1357.3
618.378,1361.0
618.908,1358.4
619.437,1356.6
619.967,1349.8
620.496,1359.8
621.025,1353.3
621.555,1367.5
622.084,1363.8
622.613,1374.0
623.142,1385.2
623.671,1383.4
624.2,1387.8
624.729,1407.2
625.258,1402.5
625.786,1400.3
626.315,1393.9
626.844,1419.0
627.372,1404.9
627.901,1409.3
628.429,1446.6
628.957,1476.5
629.486,1467.1
630.014,1465.8
630.542,1475.9
631.07,1524.8
631.598,1676.7
632.126,1681.9
632.654,1587.3
633.182,1577.3
633.71,1570.2
634.237,1530.6
634.765,1512.6
635.293,1541.5
635.82,1598.5
636.348,1714.3
636.875,1741.1
637.403,1591.5
637.93,1566.3
638.458,1549.9
638.985,1556.7
639.512,1565.1
640.039,1571.7
640.566,1571.5
641.093,1583.5
641.62,1591.7
642.147,1599.5
642.674,1606.6
643.201,1592.8
643.728,1593.8
644.255,1595.0
644.781,1597.9
645.308,1604.8
645.835,1601.3
646.361,1605.7
646.888,1624.8
647.414,1625.6
647.941,1632.7
648.467,1627.3
648.993,1633.5
649.52,1632.2
650.046,1634.7
650.572,1628.9
651.098,1640.6
651.625,1654.8
652.151,1639.0
652.677,1650.3
653.203,1647.1
653.729,1667.0
654.255,1660.9
654.78,1663.1
655.306,1663.5
655.832,1663.5
656.358,1665.3
656.884,1667.6
657.409,1665.0
657.935,1677.9
658.461,1660.3
658.986,1672.0
659.512,1670.4
660.037,1670.3
660.563,1666.2
661.088,1652.0
661.614,1663.1
662.139,1652.1
662.664,1657.5
663.058,1660.4