File: spectra/VLFR_01-LDPE_bio_Raman_3f62140c.csv
nm,Intensity
526.508,830.0
527.055,830.7
527.602,829.9
528.149,829.3
528.695,829.2
529.241,830.5
529.787,829.3
530.334,830.6
530.879,831.1
531.425,830.5
531.971,836.4
532.516,832.5
533.062,829.1
533.607,830.9
534.152,917.8
534.697,906.6
535.242,891.9
535.786,872.5
536.331,866.7
536.876,866.9
537.42,862.6
537.964,863.2
538.508,856.9
539.052,856.4
539.596,851.5
540.14,854.4
540.683,850.6
541.227,848.8
541.77,849.6
542.313,849.1
542.856,849.6
543.399,845.5
543.942,850.2
544.485,848.2
545.027,846.4
545.57,846.8
546.112,847.3
546.654,845.9
547.196,845.7
547.738,845.5
548.28,845.2
548.822,844.7
549.363,846.7
549.905,845.4
550.446,845.3
550.988,844.6
551.529,843.3
552.07,845.0
552.611,846.0
553.152,848.8
553.692,849.5
554.233,850.4
554.773,850.7
555.314,852.4
555.854,853.9
556.394,854.4
556.934,854.8
557.474,856.8
558.014,861.6
558.553,861.9
559.093,858.6
559.632,858.3
560.172,856.8
560.711,858.0
561.25,857.5
561.789,861.9
562.328,865.7
562.867,868.8
563.406,872.9
563.944,930.4
564.483,894.0
565.021,889.3
565.559,882.6
566.098,939.4
566.636,885.2
567.174,884.1
567.711,888.0
568.249,881.5
568.787,881.1
569.324,885.8
569.862,889.3
570.399,898.6
570.936,909.7
571.474,1004.0
572.011,945.5
572.548,917.9
573.084,920.3
573.621,927.4
574.158,937.4
574.694,935.0
575.231,949.0
575.767,997.8
576.303,1116.9
576.84,1068.8
577.376,1059.0
577.912,1026.8
578.447,1044.1
578.983,1055.4
579.519,1081.2
580.054,1104.9
580.59,1131.2
581.125,1159.9
581.661,1182.1
582.196,1201.9
582.731,1236.8
583.266,1257.2
583.801,1271.5
584.336,1296.7
584.87,1315.5
585.405,1333.5
585.94,1353.0
586.474,1384.1
587.008,1395.5
587.543,1429.2
588.077,1446.6
588.611,1467.4
589.145,1501.1
589.679,1523.9
590.213,1545.8
590.747,1577.8
591.28,1601.1
591.814,1626.0
592.347,1637.5
592.881,1657.0
593.414,1668.5
593.947,1694.2
594.48,1709.0
595.014,1740.9
595.547,1759.7
596.079,1791.7
596.612,1831.6
597.145,1850.7
597.678,1894.7
598.21,1921.3
598.743,1958.8
599.275,1977.5
599.807,1992.5
600.34,2006.1
600.872,1991.4
601.404,2005.4
601.936,1999.6
602.468,1986.4
603.0,1957.1
603.532,1938.0
604.063,1902.4
604.595,1858.6
605.126,1803.3
605.658,1746.9
606.189,1712.9
606.721,1665.4
607.252,1629.7
607.783,1606.1
608.314,1575.7
608.845,1542.0
609.376,1512.3
609.907,1504.4
610.438,1481.4
610.968,1456.0
611.499,1442.9
612.03,1422.8
612.56,1419.0
613.091,1405.9
613.621,1399.2
614.151,1377.9
614.681,1367.8
615.212,1354.1
615.742,1335.6
616.272,1327.5
616.802,1308.8
617.332,1313.6
617.861,1296.5
618.391,1290.8
618.921,1279.5
619.45,1272.5
619.98,1267.8
620.509,1262.1
621.039,1256.6
621.568,1269.8
622.097,1299.1
622.627,1301.9
623.156,1255.3
623.685,1242.1
624.214,1242.6
624.743,1238.1
625.272,1232.7
625.801,1241.5
626.33,1279.3
626.858,1565.6
627.387,2145.7
627.916,1789.2
628.444,2033.5
628.973,1832.5
629.501,1699.0
630.029,1574.6
630.558,1543.8
631.086,1391.3
631.614,1298.0
632.142,1267.6
632.67,1249.4
633.198,1249.7
633.726,1257.7
634.254,1245.2
634.782,1250.2
635.31,1252.0
635.838,1261.1
636.365,1264.1
636.893,1273.6
637.421,1272.5
637.948,1275.2
638.476,1276.4
639.003,1280.8
639.531,1281.6
640.058,1292.7
640.585,1294.4
641.113,1304.1
641.64,1310.9
642.167,1316.1
642.694,1318.0
643.221,1322.4
643.748,1333.3
644.275,1324.6
644.802,1332.2
645.329,1325.8
645.856,1342.4
646.382,1344.3
646.909,1332.0
647.436,1342.2
647.962,1344.3
648.489,1345.0
649.016,1339.7
649.542,1347.9
650.069,1353.7
650.595,1352.6
651.121,1350.5
651.648,1364.0
652.174,1358.5
652.7,1364.4
653.227,1368.1
653.753,1367.2
654.279,1361.7
654.805,1361.5
655.331,1360.1
655.857,1359.8
656.383,1350.8
656.909,1341.6
657.435,1340.3
657.961,1321.5
658.487,1311.2
659.013,1295.7
659.538,1285.5
660.064,1272.2
660.59,1253.2
661.116,1235.4
661.641,1219.5
662.167,1206.3
662.692,1191.7
663.087,1178.3