File: spectra/VLFR_01-LDPE_bio_Raman_5af6045f.csv
nm,Intensity
526.508,830.8
527.055,830.0
527.602,829.6
528.149,828.9
528.695,830.0
529.241,830.6
529.787,829.5
530.334,831.3
530.879,828.9
531.425,830.4
531.971,839.8
532.516,832.1
533.062,828.8
533.607,829.5
534.152,887.5
534.697,885.1
535.242,878.5
535.786,880.1
536.331,871.0
536.876,871.4
537.42,869.9
537.964,872.7
538.508,869.7
539.052,873.6
539.596,869.3
540.14,864.0
540.683,863.0
541.227,866.8
541.77,867.6
542.313,865.7
542.856,868.7
543.399,867.1
543.942,874.4
544.485,891.3
545.027,886.1
545.57,871.6
546.112,875.8
546.654,871.4
547.196,868.1
547.738,865.0
548.28,867.0
548.822,865.4
549.363,869.6
549.905,872.0
550.446,876.9
550.988,884.7
551.529,888.0
552.07,871.0
552.611,870.3
553.152,867.2
553.692,870.3
554.233,871.9
554.773,871.1
555.314,868.3
555.854,871.0
556.394,870.6
556.934,871.8
557.474,871.7
558.014,870.9
558.553,875.4
559.093,876.6
559.632,874.4
560.172,873.5
560.711,872.8
561.25,878.3
561.789,902.2
562.328,1080.1
562.867,922.8
563.406,881.6
563.944,894.8
564.483,894.3
565.021,889.7
565.559,890.0
566.098,907.8
566.636,898.4
567.174,899.5
567.711,893.2
568.249,886.8
568.787,890.7
569.324,884.9
569.862,887.9
570.399,889.6
570.936,892.6
571.474,916.9
572.011,899.1
572.548,893.8
573.084,892.9
573.621,890.6
574.158,894.3
574.694,894.3
575.231,889.9
575.767,906.9
576.303,934.6
576.84,924.5
577.376,913.3
577.912,898.9
578.447,898.7
578.983,903.8
579.519,901.6
580.054,900.3
580.59,909.7
581.125,908.0
581.661,912.6
582.196,915.6
582.731,920.4
583.266,922.7
583.801,925.5
584.336,932.2
584.87,938.8
585.405,941.5
585.94,946.6
586.474,954.7
587.008,961.2
587.543,969.4
588.077,972.6
588.611,987.7
589.145,992.2
589.679,998.7
590.213,1005.0
590.747,1021.0
591.28,1025.3
591.814,1026.4
592.347,1033.9
592.881,1037.1
593.414,1042.7
593.947,1050.3
594.48,1053.6
595.014,1065.2
595.547,1072.1
596.079,1082.3
596.612,1096.1
597.145,1102.8
597.678,1113.2
598.21,1130.9
598.743,1134.7
599.275,1147.1
599.807,1156.0
600.34,1164.5
600.872,1158.7
601.404,1160.6
601.936,1154.4
602.468,1149.5
603.0,1142.3
603.532,1136.4
604.063,1125.9
604.595,1110.8
605.126,1094.9
605.658,1086.3
606.189,1074.2
606.721,1069.4
607.252,1057.6
607.783,1052.4
608.314,1045.7
608.845,1044.4
609.376,1035.4
609.907,1028.8
610.438,1023.1
610.968,1017.1
611.499,1016.6
612.03,1016.6
612.56,1011.1
613.091,1014.8
613.621,1006.8
614.151,1008.0
614.681,1005.1
615.212,999.2
615.742,991.6
616.272,998.6
616.802,986.9
617.332,991.8
617.861,986.5
618.391,987.2
618.921,985.5
619.45,984.1
619.98,978.1
620.509,980.7
621.039,976.2
621.568,983.0
622.097,985.2
622.627,981.9
623.156,973.1
623.685,968.8
624.214,971.6
624.743,965.2
625.272,965.4
625.801,970.3
626.33,973.6
626.858,1040.9
627.387,1187.1
627.916,1091.7
628.444,1158.4
628.973,1111.6
629.501,1082.9
630.029,1044.6
630.558,1035.6
631.086,993.5
631.614,971.4
632.142,959.7
632.67,953.3
633.198,958.1
633.726,953.6
634.254,955.0
634.782,959.2
635.31,955.8
635.838,953.6
636.365,953.8
636.893,955.7
637.421,956.4
637.948,961.7
638.476,965.4
639.003,963.4
639.531,963.1
640.058,966.0
640.585,969.2
641.113,970.6
641.64,972.8
642.167,970.4
642.694,973.9
643.221,972.7
643.748,976.4
644.275,977.5
644.802,975.5
645.329,975.1
645.856,975.2
646.382,981.8
646.909,985.5
647.436,986.1
647.962,982.0
648.489,985.2
649.016,985.4
649.542,984.5
650.069,988.7
650.595,992.9
651.121,988.3
651.648,993.0
652.174,997.1
652.7,997.6
653.227,996.8
653.753,999.3
654.279,1004.7
654.805,997.5
655.331,998.2
655.857,995.9
656.383,996.1
656.909,989.9
657.435,982.5
657.961,982.2
658.487,980.6
659.013,976.8
659.538,975.7
660.064,970.4
660.59,964.5
661.116,955.3
661.641,948.8
662.167,951.7
662.692,945.3
663.087,944.1