File: spectra/VLFR_06-PET_nobio_Raman_10638762.csv
nm,Intensity
526.508,830.0
527.055,830.2
527.602,829.3
528.149,830.7
528.695,829.6
529.241,829.3
529.787,829.4
530.334,829.5
530.879,830.7
531.425,830.3
531.971,835.2
532.516,830.7
533.062,829.1
533.607,838.6
534.152,1844.6
534.697,1574.4
535.242,1305.2
535.786,1143.5
536.331,1044.9
536.876,994.9
537.42,987.6
537.964,978.8
538.508,986.9
539.052,980.9
539.596,1004.6
540.14,1004.2
540.683,975.2
541.227,966.3
541.77,960.9
542.313,965.4
542.856,970.0
543.399,967.0
543.942,977.6
544.485,975.1
545.027,981.8
545.57,985.3
546.112,989.0
546.654,984.9
547.196,990.5
547.738,993.2
548.28,1000.8
548.822,1003.1
549.363,1001.9
549.905,1000.4
550.446,1022.9
550.988,1027.3
551.529,1021.6
552.07,1026.0
552.611,1029.1
553.152,1051.1
553.692,1030.3
554.233,1032.9
554.773,1037.6
555.314,1047.7
555.854,1088.8
556.394,1094.3
556.934,1111.1
557.474,1222.5
558.014,1134.5
558.553,1122.6
559.093,1098.7
559.632,1076.9
560.172,1078.7
560.711,1084.7
561.25,1089.7
561.789,1090.3
562.328,1105.8
562.867,1121.3
563.406,1121.7
563.944,1117.0
564.483,1124.4
565.021,1171.9
565.559,1229.4
566.098,1225.0
566.636,1161.5
567.174,1141.9
567.711,1216.8
568.249,1151.3
568.787,1158.1
569.324,1170.2
569.862,1189.4
570.399,1236.4
570.936,1334.9
571.474,1423.6
572.011,1313.9
572.548,1223.0
573.084,1202.6
573.621,1210.1
574.158,1243.8
574.694,1227.8
575.231,1259.5
575.767,1235.6
576.303,1253.8
576.84,1274.1
577.376,1252.1
577.912,1249.6
578.447,1255.0
578.983,1256.6
579.519,1271.1
580.054,1263.0
580.59,1270.0
581.125,1296.2
581.661,1370.1
582.196,2368.9
582.731,1345.4
583.266,1317.7
583.801,1304.4
584.336,1316.6
584.87,1336.9
585.405,1411.9
585.94,1870.5
586.474,1667.1
587.008,1390.9
587.543,1350.4
588.077,1344.2
588.611,1340.8
589.145,1336.8
589.679,1342.0
590.213,1337.5
590.747,1345.5
591.28,1353.7
591.814,1345.5
592.347,1348.9
592.881,1363.3
593.414,1359.6
593.947,1352.2
594.48,1363.3
595.014,1376.5
595.547,1383.1
596.079,1382.9
596.612,1383.1
597.145,1390.1
597.678,1390.0
598.21,1401.0
598.743,1391.2
599.275,1404.2
599.807,1412.7
600.34,1399.0
600.872,1398.0
601.404,1392.5
601.936,1403.2
602.468,1408.3
603.0,1412.4
603.532,1417.2
604.063,1415.6
604.595,1410.3
605.126,1410.4
605.658,1403.5
606.189,1401.4
606.721,1408.0
607.252,1405.8
607.783,1409.1
608.314,1412.7
608.845,1418.7
609.376,1420.7
609.907,1413.9
610.438,1429.4
610.968,1424.7
611.499,1420.7
612.03,1423.6
612.56,1441.6
613.091,1454.5
613.621,1443.8
614.151,1456.9
614.681,1455.8
615.212,1452.0
615.742,1460.7
616.272,1456.3
616.802,1460.4
617.332,1461.1
617.861,1480.7
618.391,1487.8
618.921,1492.0
619.45,1485.2
619.98,1490.2
620.509,1485.8
621.039,1482.2
621.568,1485.0
622.097,1489.4
622.627,1501.6
623.156,1501.5
623.685,1525.0
624.214,1516.5
624.743,1536.2
625.272,1542.3
625.801,1535.9
626.33,1541.3
626.858,1549.0
627.387,1557.0
627.916,1557.3
628.444,1584.1
628.973,1621.3
629.501,1602.4
630.029,1609.4
630.558,1614.2
631.086,1680.3
631.614,1809.0
632.142,1787.3
632.67,1730.3
633.198,1713.3
633.726,1699.7
634.254,1685.0
634.782,1674.0
635.31,1703.4
635.838,1753.7
636.365,1869.0
636.893,1886.3
637.421,1758.8
637.948,1728.5
638.476,1735.0
639.003,1727.3
639.531,1738.6
640.058,1748.9
640.585,1753.3
641.113,1760.5
641.64,1765.0
642.167,1772.6
642.694,1783.5
643.221,1774.7
643.748,1769.3
644.275,1765.8
644.802,1776.5
645.329,1774.4
645.856,1782.7
646.382,1784.1
646.909,1808.3
647.436,1813.5
647.962,1818.7
648.489,1805.8
649.016,1813.7
649.542,1817.6
650.069,1812.2
650.595,1818.7
651.121,1819.1
651.648,1822.2
652.174,1837.5
652.7,1830.5
653.227,1836.5
653.753,1842.9
654.279,1842.0
654.805,1855.6
655.331,1853.4
655.857,1847.0
656.383,1847.7
656.909,1858.4
657.435,1854.6
657.961,1854.7
658.487,1878.4
659.013,1870.5
659.538,1864.6
660.064,1855.3
660.59,1852.4
661.116,1854.4
661.641,1844.3
662.167,1850.3
662.692,1851.3
663.087,1846.4