File: spectra/VLFR_08-PLA_bio_Raman_c72bba27.csv
nm,Intensity
526.495,827.7
527.042,827.7
527.589,828.5
528.136,828.7
528.682,828.1
529.229,829.7
529.775,829.0
530.321,829.5
530.867,829.4
531.413,830.0
531.959,829.8
532.505,829.5
533.051,828.7
533.596,829.1
534.141,980.2
534.687,951.2
535.232,925.4
535.777,915.4
536.321,908.7
536.866,905.5
537.41,905.1
537.955,903.0
538.499,895.8
539.043,892.1
539.587,896.4
540.131,889.4
540.675,899.4
541.219,900.6
541.762,895.8
542.305,895.7
542.849,896.7
543.392,909.9
543.935,915.6
544.478,902.4
545.02,896.5
545.563,893.8
546.106,895.0
546.648,893.9
547.19,894.6
547.732,896.3
548.274,896.0
548.816,895.4
549.358,900.0
549.9,898.7
550.441,899.3
550.983,901.7
551.524,905.9
552.065,903.0
552.606,907.5
553.147,907.8
553.688,905.0
554.229,914.6
554.769,909.5
555.31,905.2
555.85,903.8
556.391,900.5
556.931,903.3
557.471,917.1
558.011,996.2
558.551,928.4
559.09,917.9
559.63,915.0
560.169,914.0
560.709,911.6
561.248,905.2
561.787,906.3
562.326,909.1
562.865,918.7
563.404,943.2
563.943,926.9
564.481,917.8
565.02,934.3
565.558,931.4
566.096,954.6
566.634,931.2
567.172,916.6
567.71,924.1
568.248,919.0
568.786,921.5
569.324,921.9
569.861,919.1
570.399,923.2
570.936,921.3
571.473,935.5
572.01,941.9
572.547,934.6
573.084,938.0
573.621,937.7
574.158,932.1
574.694,940.0
575.231,929.7
575.767,926.1
576.303,939.4
576.84,982.2
577.376,946.0
577.912,931.0
578.448,929.6
578.984,932.7
579.519,929.8
580.055,928.3
580.59,925.5
581.126,927.1
581.661,925.3
582.196,928.5
582.731,931.6
583.267,933.1
583.801,932.1
584.336,929.6
584.871,935.1
585.406,933.4
585.94,931.5
586.475,944.5
587.009,966.1
587.543,980.2
588.078,953.8
588.612,933.5
589.146,934.4
589.68,932.4
590.214,933.6
590.747,934.0
591.281,933.1
591.815,938.9
592.348,935.3
592.881,937.2
593.415,932.3
593.948,934.2
594.481,940.5
595.014,934.6
595.547,937.8
596.08,935.0
596.613,937.5
597.146,934.5
597.678,934.9
598.211,940.4
598.743,938.4
599.276,940.0
599.808,939.6
600.34,940.9
600.872,937.5
601.404,938.7
601.936,943.2
602.468,937.5
603.0,941.7
603.532,944.2
604.064,943.3
604.595,945.3
605.127,945.9
605.658,939.6
606.189,937.0
606.721,938.7
607.252,940.0
607.783,942.3
608.314,939.0
608.845,941.1
609.376,940.7
609.907,943.5
610.438,942.5
610.968,943.3
611.499,941.9
612.029,942.2
612.56,944.6
613.09,948.6
613.621,951.7
614.151,948.0
614.681,949.0
615.211,948.6
615.741,949.5
616.271,954.4
616.801,950.1
617.331,951.0
617.861,950.6
618.39,950.9
618.92,955.3
619.45,955.5
619.979,953.3
620.509,950.4
621.038,949.6
621.567,952.6
622.096,949.3
622.626,956.1
623.155,965.5
623.684,962.8
624.213,957.1
624.742,952.7
625.271,951.7
625.799,951.4
626.328,949.4
626.857,952.3
627.386,953.5
627.914,957.7
628.443,1003.1
628.971,997.8
629.5,992.8
630.028,1002.8
630.556,1034.5
631.084,1300.1
631.613,1127.7
632.141,1035.7
632.669,1021.7
633.197,1084.2
633.725,1062.8
634.253,994.5
634.781,963.3
635.308,951.1
635.836,948.6
636.364,943.9
636.891,942.8
637.419,946.7
637.947,944.0
638.474,936.8
639.002,936.5
639.529,935.9
640.056,934.6
640.584,939.3
641.111,941.4
641.638,937.3
642.165,936.6
642.692,933.3
643.219,935.0
643.746,926.6
644.273,928.0
644.8,928.0
645.327,923.0
645.854,926.2
646.381,925.0
646.908,921.4
647.434,925.9
647.961,919.4
648.488,922.6
649.014,922.9
649.541,918.2
650.067,920.5
650.594,917.9
651.12,918.6
651.646,917.6
652.173,922.0
652.699,917.9
653.225,914.9
653.752,917.3
654.278,917.6
654.804,913.4
655.33,913.6
655.856,918.6
656.382,912.4
656.908,914.7
657.434,912.0
657.96,914.4
658.486,913.0
659.012,912.5
659.538,910.4
660.064,909.5
660.589,909.8
661.115,910.9
661.641,909.8
662.166,909.8
662.692,907.4
663.086,907.0