File: spectra/VLFR_07-PET_bio_Raman_f2051e07.csv
nm,Intensity
791.588,9735.0
792.685,9195.5
793.781,8961.1
794.878,8896.0
795.975,8797.7
797.071,8764.0
798.168,8727.4
799.264,8741.0
800.36,8633.1
801.456,8757.3
802.552,8654.0
803.648,8528.6
804.744,8415.4
805.84,8391.6
806.936,8300.7
808.031,8190.9
809.127,8214.8
810.222,8053.7
811.317,8005.9
812.412,8083.5
813.507,7892.6
814.602,7843.4
815.697,7788.9
816.792,7745.6
817.887,7704.8
818.981,7675.1
820.076,7650.1
821.17,7496.4
822.265,7445.4
823.359,7396.6
824.453,7406.4
825.547,7387.3
826.641,7322.1
827.735,7269.3
828.828,7128.3
829.922,7138.4
831.016,7167.5
832.109,6985.5
833.202,6961.9
834.295,6926.9
835.388,6832.8
836.481,6843.3
837.574,6840.2
838.667,6805.5
839.76,6747.4
840.852,6844.2
841.945,6828.0
843.037,6636.4
844.129,6582.0
845.221,6474.5
846.314,6454.3
847.405,6386.3
848.497,6346.3
849.589,6251.9
850.68,6239.8
851.772,6249.8
852.863,6206.5
853.955,6182.6
855.046,6180.8
856.137,6105.4
857.228,6079.2
858.318,6130.4
859.409,6182.9
860.5,6144.6
861.59,6010.7
862.681,6020.8
863.771,5961.5
864.861,5981.0
865.951,5900.5
867.041,5885.6
868.131,5836.4
869.22,5885.9
870.31,5872.0
871.399,5981.0
872.488,6004.4
873.578,5947.1
874.667,5875.7
875.756,5809.9
876.845,5776.3
877.933,5665.3
879.022,5635.1
880.11,5616.4
881.199,5626.8
882.287,5623.9
883.375,5592.7
884.463,5579.9
885.551,5580.1
886.639,5550.9
887.726,5465.5
888.814,5447.0
889.901,5438.4
890.988,5405.3
892.075,5410.7
893.162,5351.2
894.249,5320.4
895.336,5259.3
896.423,5255.7
897.509,5427.6
898.595,5590.9
899.682,5344.8
900.768,5178.2
901.854,5103.7
902.94,5046.8
904.025,5064.9
905.111,5057.7
906.196,5121.5
907.282,5222.7
908.367,5183.9
909.452,5058.9
910.537,4933.9
911.622,4846.7
912.706,4831.2
913.791,4804.1
914.875,4758.3
915.959,4716.1
917.044,4712.6
918.128,4695.6
919.211,4672.2
920.295,4641.5
921.379,4632.8
922.462,4581.0
923.546,4571.7
924.629,4552.7
925.712,4524.8
926.795,4509.1
927.877,4454.7
928.96,4449.7
930.043,4425.1
931.125,4395.9
932.207,4369.7
933.289,4355.3
934.371,4336.0
935.453,4335.1
936.535,4301.5
937.616,4266.6
938.697,4282.5
939.779,4248.7
940.86,4243.7
941.941,4213.1
943.022,4205.5
944.102,4187.0
945.183,4181.6
946.263,4179.6
947.343,4156.0
948.423,4130.9
949.503,4135.0
950.583,4111.1
951.663,4096.6
952.742,4086.4
953.822,4084.4
954.901,4066.7
955.98,4061.2
957.059,4050.3
958.137,4052.4
959.216,4023.2
960.294,4026.0
961.373,4012.6
962.451,3996.2
963.529,3982.3
964.607,3992.7
965.684,3986.6
966.762,3969.9
967.839,3963.2
968.917,3955.1
969.994,3939.2
971.071,3954.4
972.147,3935.2
973.224,3928.9
974.3,3929.6
975.377,3923.9
976.453,3908.3
977.529,3907.3
978.605,3902.5
979.68,3897.0
980.756,3896.1
981.831,3889.5
982.907,3884.1
983.982,3875.1
985.057,3869.1
986.131,3866.9
987.206,3869.0
988.28,3864.1
989.355,3859.7
990.429,3854.2
991.503,3848.2
992.576,3845.3
993.65,3845.9
994.723,3836.9
995.797,3832.8
996.87,3834.1
997.943,3826.4
999.016,3824.2
1000.09,3819.9
1001.16,3816.2
1002.23,3817.4
1003.31,3810.4
1004.38,3809.4
1005.45,3808.6
1006.52,3803.9
1007.59,3801.2
1008.66,3802.6
1009.73,3795.6
1010.81,3793.1
1011.88,3790.7
1012.95,3792.9
1014.02,3790.3
1015.09,3787.9
1016.16,3785.4
1017.23,3786.0
1018.3,3780.9
1019.37,3781.9
1020.44,3783.8
1021.51,3779.9
1022.58,3782.9
1023.64,3780.0
1024.71,3779.8
1025.78,3777.2
1026.85,3772.8
1027.92,3770.8
1028.99,3770.4
1030.05,3768.1
1031.12,3765.6
1032.19,3765.6
1033.26,3767.2
1034.32,3765.9
1035.39,3765.6
1036.46,3766.2
1037.52,3762.3
1038.59,3758.3
1039.66,3759.2
1040.72,3758.3
1041.79,3755.7
1042.86,3755.2
1043.92,3757.2
1044.99,3757.2
1046.05,3754.0
1047.12,3753.4
1048.18,3753.5
1049.25,3753.3
1050.31,3753.9
1051.37,3751.6
1052.44,3753.5
1053.5,3751.7
1054.57,3750.5
1055.63,3752.6
1056.69,3752.5
1057.76,3750.8
1058.82,3750.0
1059.88,3752.6
1060.95,3752.1
1062.01,3750.0
1063.07,3749.3
1064.13,3750.0
1065.19,3750.4
1066.26,3750.1
1067.32,3746.7
1068.11,3749.9