File: spectra/VLFR_06-PET_bio_Raman_6ac0cbb0.csv
nm,Intensity
528.65,1848.35
529.155,1849.4
529.66,1849.85
530.165,1849.35
530.67,1849.15
531.175,1849.35
531.68,1863.45
532.185,2509.25
532.69,1851.05
533.194,1851.3
533.699,2016.05
534.204,2401.75
534.708,2325.25
535.213,2263.5
535.717,2215.2
536.222,2186.3
536.726,2183.45
537.231,2193.65
537.735,2209.2
538.239,2194.2
538.743,2223.35
539.247,2225.05
539.751,2253.95
540.255,2229.7
540.759,2250.65
541.263,2235.35
541.767,2241.25
542.271,2268.2
542.775,2270.05
543.279,2293.8
543.782,2293.45
544.286,2300.0
544.789,2285.9
545.293,2299.45
545.796,2285.25
546.3,2305.4
546.803,2322.85
547.306,2312.95
547.81,2327.6
548.313,2330.0
548.816,2309.65
549.319,2333.75
549.822,2341.15
550.325,2336.8
550.828,2377.9
551.331,2348.8
551.834,2361.55
552.337,2355.75
552.839,2388.15
553.342,2382.7
553.844,2361.55
554.347,2390.2
554.849,2386.05
555.352,2386.5
555.854,2416.05
556.357,2442.3
556.859,2452.05
557.361,2494.7
557.863,2451.8
558.365,2460.2
558.867,2442.75
559.369,2457.8
559.871,2456.5
560.373,2461.0
560.875,2466.55
561.377,2475.6
561.878,2488.9
562.38,2507.25
562.881,2513.25
563.383,2493.85
563.884,2515.1
564.386,2526.65
564.887,2558.8
565.388,2595.65
565.89,2622.55
566.391,2593.1
566.892,2595.0
567.393,2619.95
567.894,2598.95
568.395,2632.25
568.896,2624.25
569.396,2646.4
569.897,2658.35
570.398,2680.95
570.898,2727.4
571.399,2831.6
571.9,2726.75
572.4,2729.55
572.9,2716.45
573.401,2750.1
573.901,2742.1
574.401,2747.7
574.901,2724.65
575.401,2793.9
575.901,2808.6
576.401,2784.45
576.901,2818.95
577.401,2804.05
577.901,2817.1
578.4,2796.95
578.9,2829.05
579.399,2872.15
579.899,2812.35
580.398,2873.1
580.898,2860.9
581.397,2872.15
581.896,3146.8
582.395,3132.5
582.895,2880.0
583.394,2878.25
583.893,2917.2
584.391,2921.35
584.89,2929.65
585.389,2986.5
585.888,3160.05
586.386,3071.3
586.885,2936.4
587.384,2905.95
587.882,2947.75
588.38,2935.65
588.879,2951.35
589.377,2906.15
589.875,2933.7
590.373,2899.45
590.871,2957.6
591.369,2945.8
591.867,2953.5
592.365,2970.4
592.863,2956.75
593.361,2970.3
593.858,2960.65
594.356,2929.4
594.853,2956.1
595.351,2922.0
595.848,2974.0
596.345,2958.3
596.843,2948.6
597.34,3004.75
597.837,2990.9
598.334,2967.65
598.831,2944.8
599.328,3000.3
599.824,2996.95
600.321,2994.75
600.818,2996.25
601.314,2994.95
601.811,3040.65
602.307,2992.65
602.804,2977.95
603.3,3004.45
603.796,2983.05
604.293,3026.1
604.789,2997.5
605.285,2947.5
605.781,2993.25
606.277,2977.15
606.772,2985.9
607.268,2984.1
607.764,2993.2
608.259,2985.9
608.755,2999.25
609.25,2997.25
609.746,2996.55
610.241,2982.6
610.736,2996.3
611.231,3030.4
611.727,3031.55
612.222,2978.4
612.716,3019.25
613.211,3043.8
613.706,2975.25
614.201,2992.15
614.695,3017.45
615.19,3005.9
615.684,2984.05
616.179,3044.65
616.673,2995.7
617.168,3003.95
617.662,2996.25
618.156,3055.1
618.65,3087.85
619.144,3072.95
619.638,2988.35
620.131,3034.35
620.625,3012.15
621.119,3001.5
621.612,3038.35
622.106,3032.1
622.599,3035.85
623.093,3018.05
623.586,3043.6
624.079,3020.6
624.572,3032.75
625.065,3039.05
625.558,3046.75
626.051,3044.75
626.544,3090.2
627.037,3081.05
627.529,3047.1
628.022,3069.65
628.514,3141.75
629.007,3119.55
629.499,3104.6
629.991,3092.9
630.483,3117.35
630.976,3174.0
631.468,3180.25
631.959,3174.9
632.451,3198.05
632.943,3155.3
633.435,3182.85
633.926,3163.65
634.418,3169.7
634.909,3116.65
635.401,3183.15
635.892,3132.25
636.383,3308.05
636.874,3218.4
637.365,3175.65
637.856,3181.95
638.347,3178.9
638.838,3151.2
639.329,3133.85
639.819,3138.25
640.31,3162.8
640.8,3160.7
641.291,3071.35
641.781,3138.85
642.271,3179.05
642.761,3162.6
643.251,3131.2
643.741,3126.2
644.231,3162.8
644.721,3153.9
645.211,3186.2
645.7,3103.05
646.19,3143.85
646.679,3100.25
647.169,3124.8
647.658,3068.95
648.147,3154.8
648.636,3089.4
649.125,3107.6
649.614,3115.95
650.103,3090.05
650.592,3065.75
651.08,3066.55
651.569,2987.6
652.058,3044.6
652.546,3056.85
653.034,2979.2
653.523,3022.45
654.011,3048.6
654.499,2986.95
654.987,3010.3
655.475,2971.4
655.963,2975.05
656.45,2973.1
656.938,2936.05
657.425,2916.6
657.913,2950.0
658.4,2833.35
658.888,2834.95
659.375,2842.95
659.862,2851.4
660.349,2827.45
660.836,2799.4
661.079,2799.6