File: spectra/VLFR_09-PET_bio_Raman_2ce8dcd6.csv
nm,Intensity
526.549,831.95
527.096,831.6
527.643,831.45
528.19,831.35
528.737,833.1
529.283,831.9
529.83,832.1
530.376,833.15
530.922,831.65
531.468,832.65
532.014,844.0
532.559,832.55
533.105,832.05
533.65,838.35
534.196,1346.95
534.741,1347.3
535.286,1325.15
535.83,1348.05
536.375,1336.4
536.92,1344.85
537.464,1360.75
538.008,1367.2
538.553,1377.0
539.097,1380.3
539.641,1398.7
540.184,1411.3
540.728,1415.85
541.271,1424.05
541.815,1430.8
542.358,1434.8
542.901,1446.65
543.444,1464.05
543.987,1464.95
544.53,1480.25
545.072,1487.25
545.615,1494.85
546.157,1502.4
546.699,1509.95
547.242,1517.3
547.784,1522.2
548.325,1533.65
548.867,1541.25
549.409,1542.05
549.95,1552.05
550.492,1563.05
551.033,1566.2
551.574,1572.4
552.115,1586.9
552.656,1594.5
553.197,1601.05
553.737,1602.3
554.278,1617.3
554.818,1618.0
555.358,1621.8
555.899,1633.0
556.439,1645.5
556.979,1654.9
557.518,1681.65
558.058,1663.05
558.598,1668.1
559.137,1668.85
559.677,1678.75
560.216,1697.45
560.755,1699.8
561.294,1707.45
561.833,1723.95
562.372,1728.15
562.91,1728.4
563.449,1749.55
563.987,1768.6
564.526,1785.65
565.064,1804.6
565.602,1810.2
566.14,1809.8
566.678,1802.9
567.216,1809.4
567.754,1820.45
568.291,1818.3
568.829,1838.4
569.366,1851.45
569.904,1869.4
570.441,1869.9
570.978,1903.15
571.515,1915.35
572.052,1897.55
572.589,1897.3
573.125,1904.4
573.662,1920.3
574.199,1925.15
574.735,1934.8
575.271,1948.55
575.807,1949.65
576.344,1958.25
576.88,1968.3
577.415,1977.55
577.951,1965.65
578.487,1991.65
579.023,1983.65
579.558,1987.7
580.094,2011.1
580.629,2010.6
581.164,2000.45
581.699,2042.3
582.234,2232.55
582.769,2031.1
583.304,2049.35
583.839,2058.45
584.374,2047.5
584.908,2060.1
585.443,2072.75
585.977,2166.95
586.511,2139.1
587.046,2092.4
587.58,2100.6
588.114,2092.1
588.648,2079.05
589.182,2084.5
589.716,2085.5
590.249,2090.75
590.783,2092.9
591.316,2105.65
591.85,2090.9
592.383,2104.1
592.917,2094.95
593.45,2093.6
593.983,2099.4
594.516,2101.7
595.049,2110.55
595.582,2116.05
596.115,2118.8
596.647,2132.3
597.18,2134.45
597.712,2133.2
598.245,2153.7
598.777,2150.95
599.31,2166.85
599.842,2162.95
600.374,2151.8
600.906,2156.1
601.438,2151.55
601.97,2148.05
602.502,2162.85
603.034,2155.25
603.565,2185.45
604.097,2177.5
604.628,2174.0
605.16,2173.15
605.691,2154.8
606.223,2156.5
606.754,2155.25
607.285,2169.9
607.816,2198.9
608.347,2191.9
608.878,2221.2
609.409,2211.45
609.94,2213.4
610.47,2227.5
611.001,2222.65
611.532,2240.45
612.062,2266.3
612.593,2273.1
613.123,2322.2
613.653,2325.15
614.184,2337.2
614.714,2352.8
615.244,2342.85
615.774,2365.55
616.304,2364.0
616.834,2386.3
617.364,2388.3
617.894,2418.0
618.423,2437.75
618.953,2426.95
619.482,2452.7
620.012,2448.4
620.541,2467.4
621.071,2467.15
621.6,2481.35
622.13,2497.45
622.659,2504.3
623.188,2544.9
623.717,2538.15
624.246,2572.9
624.775,2566.2
625.304,2589.25
625.833,2589.65
626.362,2586.2
626.89,2612.15
627.419,2603.05
627.948,2609.65
628.476,2621.2
629.005,2642.7
629.533,2643.2
630.061,2660.1
630.59,2660.75
631.118,2678.55
631.646,2698.25
632.175,2701.15
632.703,2689.65
633.231,2679.8
633.759,2696.3
634.287,2674.35
634.815,2699.1
635.342,2687.1
635.87,2729.7
636.398,2736.9
636.926,2722.15
637.453,2713.35
637.981,2741.85
638.509,2733.6
639.036,2718.35
639.563,2734.85
640.091,2721.35
640.618,2742.55
641.146,2731.95
641.673,2744.8
642.2,2737.05
642.727,2728.2
643.254,2714.05
643.781,2703.85
644.309,2698.6
644.836,2683.1
645.362,2688.2
645.889,2681.35
646.416,2695.9
646.943,2691.75
647.47,2703.35
647.997,2686.85
648.523,2683.6
649.05,2682.0
649.577,2664.15
650.103,2658.6
650.63,2655.1
651.156,2654.85
651.683,2647.8
652.209,2653.55
652.735,2650.2
653.262,2642.45
653.788,2649.25
654.314,2644.0
654.841,2630.7
655.367,2615.75
655.893,2612.05
656.419,2614.15
656.945,2613.65
657.471,2619.5
657.997,2607.55
658.523,2613.05
659.049,2589.55
659.575,2603.6
660.101,2598.05
660.627,2602.6
661.153,2567.8
661.679,2553.4
662.205,2558.2
662.731,2555.05
663.125,2539.1