File: spectra/VLFR_02-HDPE_nobio_Raman_342c38dc.csv
nm,Intensity
526.486,830.5
527.033,830.5
527.579,830.5
528.126,830.4
528.672,831.2
529.219,829.6
529.765,829.8
530.311,830.2
530.857,829.4
531.403,829.1
531.948,831.9
532.494,830.6
533.039,828.0
533.585,829.5
534.13,849.4
534.675,847.0
535.22,844.5
535.764,843.0
536.309,842.6
536.854,841.9
537.398,839.3
537.942,842.2
538.486,844.0
539.03,849.6
539.574,846.0
540.118,841.1
540.662,840.9
541.205,838.7
541.749,840.7
542.292,842.2
542.835,841.6
543.378,843.6
543.921,843.1
544.464,840.6
545.006,840.4
545.549,840.4
546.091,840.3
546.634,841.7
547.176,840.6
547.718,840.7
548.26,841.5
548.802,840.8
549.343,841.6
549.885,841.9
550.426,842.0
550.968,845.0
551.509,843.3
552.05,845.5
552.591,842.7
553.132,840.9
553.673,841.4
554.214,841.6
554.754,842.1
555.295,842.5
555.835,841.7
556.375,840.8
556.915,841.1
557.455,840.9
557.995,842.4
558.535,842.3
559.075,842.9
559.614,841.4
560.154,842.1
560.693,840.4
561.232,843.1
561.772,843.1
562.311,842.1
562.85,843.7
563.388,844.8
563.927,855.6
564.466,846.7
565.004,848.1
565.543,847.3
566.081,872.7
566.619,847.6
567.157,845.1
567.695,843.9
568.233,845.7
568.771,844.2
569.309,845.2
569.846,845.6
570.384,846.9
570.921,850.2
571.458,868.0
571.995,854.9
572.532,848.3
573.069,848.1
573.606,846.8
574.143,848.0
574.68,842.9
575.216,846.2
575.753,864.9
576.289,860.6
576.825,858.4
577.361,850.9
577.897,844.1
578.433,843.6
578.969,843.3
579.505,841.2
580.041,841.9
580.576,842.1
581.112,844.7
581.647,841.4
582.183,841.8
582.718,843.2
583.253,843.7
583.788,841.6
584.323,840.5
584.858,843.1
585.392,844.3
585.927,842.8
586.462,844.4
586.996,842.1
587.53,841.9
588.065,842.1
588.599,842.5
589.133,842.8
589.667,842.9
590.201,842.7
590.735,842.4
591.268,841.5
591.802,842.4
592.335,841.3
592.869,842.6
593.402,842.7
593.936,842.3
594.469,843.4
595.002,842.6
595.535,845.4
596.068,840.9
596.601,844.8
597.133,841.4
597.666,841.7
598.199,843.7
598.731,842.6
599.264,846.7
599.796,845.5
600.328,842.4
600.86,843.7
601.393,843.4
601.925,843.3
602.457,842.4
602.988,843.4
603.52,843.7
604.052,843.2
604.583,842.9
605.115,841.9
605.646,842.6
606.178,840.1
606.709,841.4
607.24,842.7
607.771,842.4
608.302,840.9
608.833,842.0
609.364,843.2
609.895,841.6
610.426,842.3
610.957,843.4
611.487,840.3
612.018,840.8
612.548,844.4
613.078,842.2
613.609,841.3
614.139,841.8
614.669,841.9
615.199,840.3
615.729,842.5
616.259,840.4
616.789,840.7
617.319,841.7
617.849,842.5
618.378,842.4
618.908,843.3
619.437,842.1
619.967,842.7
620.496,843.6
621.025,842.6
621.555,844.3
622.084,848.6
622.613,845.4
623.142,845.9
623.671,844.1
624.2,842.7
624.729,844.3
625.258,844.3
625.786,843.0
626.315,849.9
626.844,873.2
627.372,939.5
627.901,896.8
628.429,913.5
628.957,906.3
629.486,898.3
630.014,882.5
630.542,879.2
631.07,859.1
631.598,848.4
632.126,844.7
632.654,846.1
633.182,842.9
633.71,843.1
634.237,844.3
634.765,842.5
635.293,843.8
635.82,844.1
636.348,840.9
636.875,844.2
637.403,843.8
637.93,844.3
638.458,841.4
638.985,843.1
639.512,841.2
640.039,839.3
640.566,839.6
641.093,842.5
641.62,842.4
642.147,841.8
642.674,842.8
643.201,841.1
643.728,842.9
644.255,841.1
644.781,843.2
645.308,842.3
645.835,841.3
646.361,841.1
646.888,840.5
647.414,840.6
647.941,839.7
648.467,842.1
648.993,841.3
649.52,840.2
650.046,841.2
650.572,840.9
651.098,839.5
651.625,840.0
652.151,839.4
652.677,840.3
653.203,840.3
653.729,839.9
654.255,839.4
654.78,840.0
655.306,839.5
655.832,839.9
656.358,840.6
656.884,840.0
657.409,838.5
657.935,839.0
658.461,839.9
658.986,840.1
659.512,837.7
660.037,839.5
660.563,839.0
661.088,839.8
661.614,838.4
662.139,838.5
662.664,838.9
663.058,838.8