File: spectra/VLFR_07-PET_bio_Raman_5ffb7aa3.csv
nm,Intensity
791.75,6690.7
792.846,6444.95
793.942,6425.05
795.037,6325.75
796.133,6303.3
797.228,6349.85
798.324,6286.3
799.419,6321.5
800.514,6274.15
801.61,6272.9
802.705,6241.95
803.8,6242.1
804.894,6167.8
805.989,6148.95
807.084,6124.05
808.178,6058.2
809.273,6036.35
810.367,5980.7
811.461,5941.35
812.556,5870.8
813.65,5819.5
814.744,5781.6
815.837,5745.85
816.931,5686.9
818.025,5664.7
819.118,5635.85
820.212,5578.05
821.305,5553.4
822.398,5502.1
823.491,5482.45
824.585,5435.75
825.677,5468.9
826.77,5366.25
827.863,5340.3
828.956,5341.1
830.048,5254.5
831.14,5309.7
832.233,5246.55
833.325,5193.0
834.417,5209.2
835.509,5172.35
836.601,5188.65
837.692,5172.95
838.784,5147.55
839.876,5146.3
840.967,5104.05
842.058,5092.95
843.149,5078.55
844.24,5006.0
845.331,4975.45
846.422,4997.8
847.513,4944.75
848.604,4945.8
849.694,4930.9
850.784,4874.15
851.875,4900.1
852.965,4868.2
854.055,4804.1
855.145,4829.0
856.235,4813.6
857.324,4775.65
858.414,4805.75
859.503,4791.9
860.593,4791.4
861.682,4710.35
862.771,4721.95
863.86,4714.05
864.949,4723.4
866.038,4698.55
867.126,4649.25
868.215,4663.1
869.303,4632.75
870.391,4673.55
871.479,4703.35
872.567,4667.2
873.655,4659.2
874.743,4628.35
875.831,4580.7
876.918,4581.4
878.006,4590.35
879.093,4557.4
880.18,4548.0
881.267,4547.0
882.354,4544.5
883.441,4535.4
884.527,4503.3
885.614,4506.3
886.7,4493.75
887.786,4483.8
888.872,4459.35
889.958,4436.85
891.044,4444.75
892.13,4404.45
893.216,4434.8
894.301,4407.65
895.386,4343.8
896.472,4382.3
897.557,4401.1
898.642,4439.9
899.726,4361.65
900.811,4327.45
901.896,4313.2
902.98,4302.45
904.064,4281.75
905.148,4277.4
906.232,4303.05
907.316,4318.7
908.4,4287.65
909.484,4263.95
910.567,4207.7
911.65,4208.35
912.734,4190.15
913.817,4166.0
914.9,4148.8
915.982,4169.5
917.065,4145.2
918.147,4131.6
919.23,4125.75
920.312,4123.15
921.394,4090.55
922.476,4097.6
923.558,4072.35
924.639,4070.9
925.721,4071.05
926.802,4047.65
927.884,4034.85
928.965,4010.75
930.046,4019.85
931.126,4002.05
932.207,3995.0
933.288,3977.35
934.368,3969.8
935.448,3975.5
936.528,3956.05
937.608,3952.35
938.688,3951.85
939.767,3937.0
940.847,3936.0
941.926,3927.15
943.005,3916.4
944.084,3913.45
945.163,3911.1
946.242,3904.4
947.321,3898.45
948.399,3894.0
949.477,3888.85
950.556,3883.1
951.634,3877.75
952.711,3872.6
953.789,3869.25
954.867,3863.55
955.944,3854.2
957.021,3854.4
958.098,3854.5
959.175,3850.3
960.252,3839.95
961.328,3836.7
962.405,3839.8
963.481,3839.9
964.557,3833.9
965.633,3825.7
966.709,3826.3
967.785,3828.75
968.86,3822.0
969.936,3820.6
971.011,3819.25
972.086,3814.35
973.161,3813.5
974.235,3808.55
975.31,3806.55
976.384,3807.8
977.459,3803.55
978.533,3800.4
979.607,3796.25
980.68,3796.15
981.754,3799.45
982.827,3792.05
983.901,3793.8
984.974,3788.6
986.047,3793.2
987.119,3789.25
988.192,3787.35
989.264,3785.1
990.337,3783.5
991.409,3784.8
992.481,3779.9
993.553,3780.9
994.624,3778.65
995.696,3777.5
996.767,3777.45
997.838,3775.0
998.909,3774.45
999.98,3773.15
1001.05,3770.95
1002.12,3770.2
1003.19,3769.3
1004.26,3765.35
1005.33,3766.9
1006.4,3766.55
1007.47,3765.9
1008.54,3764.15
1009.61,3761.9
1010.68,3763.85
1011.75,3761.4
1012.82,3761.65
1013.88,3759.5
1014.95,3758.55
1016.02,3758.5
1017.09,3757.2
1018.16,3755.25
1019.22,3757.1
1020.29,3755.75
1021.36,3755.15
1022.43,3756.95
1023.49,3757.4
1024.56,3753.6
1025.63,3753.6
1026.69,3752.55
1027.76,3751.85
1028.83,3750.5
1029.89,3749.3
1030.96,3748.85
1032.02,3749.4
1033.09,3747.6
1034.15,3748.35
1035.22,3748.75
1036.28,3749.9
1037.35,3747.65
1038.41,3746.25
1039.48,3746.3
1040.54,3745.0
1041.6,3744.15
1042.67,3744.3
1043.73,3743.05
1044.79,3744.15
1045.86,3742.85
1046.92,3742.8
1047.98,3743.75
1049.05,3743.45
1050.11,3741.2
1051.17,3742.1
1052.23,3741.5
1053.29,3741.3
1054.36,3743.2
1055.42,3742.7
1056.48,3741.3
1057.54,3742.9
1058.6,3741.4
1059.66,3742.15
1060.72,3740.75
1061.78,3740.3
1062.84,3740.2
1063.9,3740.75
1064.96,3741.65
1066.02,3740.05
1067.08,3739.85
1067.88,3739.95