File: spectra/VLFR_01-LDPE_nobio_Raman_295679de.csv
nm,Intensity
526.486,831.5
527.033,831.9
527.579,830.1
528.126,829.9
528.672,830.4
529.219,830.1
529.765,830.3
530.311,829.0
530.857,830.7
531.403,830.0
531.948,833.0
532.494,832.5
533.039,831.0
533.585,830.7
534.13,928.2
534.675,917.8
535.22,898.7
535.764,882.0
536.309,872.4
536.854,869.8
537.398,866.1
537.942,865.6
538.486,864.2
539.03,859.3
539.574,858.3
540.118,858.8
540.662,852.7
541.205,852.2
541.749,852.3
542.292,853.0
542.835,851.1
543.378,852.2
543.921,852.6
544.464,851.6
545.006,850.5
545.549,848.5
546.091,850.1
546.634,848.3
547.176,848.1
547.718,848.4
548.26,847.3
548.802,846.9
549.343,847.0
549.885,846.4
550.426,846.3
550.968,846.9
551.509,848.4
552.05,845.3
552.591,847.4
553.132,847.6
553.673,849.5
554.214,851.3
554.754,852.5
555.295,852.4
555.835,854.2
556.375,855.8
556.915,857.5
557.455,862.1
557.995,863.5
558.535,862.2
559.075,861.4
559.614,858.9
560.154,856.4
560.693,858.4
561.232,859.1
561.772,860.3
562.311,861.9
562.85,868.0
563.388,869.6
563.927,927.1
564.466,896.7
565.004,886.1
565.543,877.2
566.081,934.4
566.619,888.1
567.157,877.8
567.695,882.9
568.233,872.7
568.771,873.8
569.309,873.0
569.846,878.6
570.384,883.3
570.921,896.2
571.458,987.7
571.995,935.2
572.532,905.5
573.069,902.0
573.606,905.7
574.143,918.3
574.68,910.0
575.216,919.9
575.753,972.0
576.289,1102.4
576.825,1051.9
577.361,1023.5
577.897,982.2
578.433,992.3
578.969,1005.9
579.505,1028.7
580.041,1041.1
580.576,1066.1
581.112,1087.4
581.647,1110.5
582.183,1121.7
582.718,1149.7
583.253,1160.3
583.788,1173.4
584.323,1187.8
584.858,1192.5
585.392,1199.9
585.927,1205.0
586.462,1200.6
586.996,1207.7
587.53,1210.6
588.065,1204.9
588.599,1209.4
589.133,1205.4
589.667,1212.9
590.201,1218.5
590.735,1224.1
591.268,1235.6
591.802,1238.7
592.335,1251.8
592.869,1248.2
593.402,1263.9
593.936,1280.8
594.469,1289.3
595.002,1309.3
595.535,1330.3
596.068,1364.9
596.601,1377.6
597.133,1413.3
597.666,1427.8
598.199,1458.9
598.731,1489.3
599.264,1508.6
599.796,1517.8
600.328,1532.5
600.86,1533.2
601.393,1533.1
601.925,1528.4
602.457,1522.5
602.988,1505.6
603.52,1490.1
604.052,1460.1
604.583,1429.3
605.115,1405.1
605.646,1378.9
606.178,1339.7
606.709,1322.2
607.24,1297.0
607.771,1288.7
608.302,1275.0
608.833,1252.5
609.364,1231.4
609.895,1230.0
610.426,1205.5
610.957,1203.0
611.487,1188.9
612.018,1179.6
612.548,1184.5
613.078,1176.8
613.609,1161.3
614.139,1153.4
614.669,1144.6
615.199,1142.0
615.729,1132.8
616.259,1118.6
616.789,1126.5
617.319,1117.7
617.849,1114.3
618.378,1114.6
618.908,1106.3
619.437,1101.9
619.967,1106.8
620.496,1107.3
621.025,1102.3
621.555,1118.2
622.084,1143.9
622.613,1143.2
623.142,1105.7
623.671,1093.7
624.2,1093.1
624.729,1093.1
625.258,1097.8
625.786,1102.4
626.315,1132.6
626.844,1413.6
627.372,2015.1
627.901,1649.4
628.429,1883.4
628.957,1721.1
629.486,1572.8
630.014,1439.0
630.542,1407.2
631.07,1260.1
631.598,1159.2
632.126,1134.0
632.654,1125.4
633.182,1122.2
633.71,1111.5
634.237,1114.3
634.765,1105.8
635.293,1115.4
635.82,1104.1
636.348,1111.7
636.875,1113.1
637.403,1101.8
637.93,1098.8
638.458,1097.7
638.985,1091.5
639.512,1092.8
640.039,1099.6
640.566,1089.1
641.093,1077.0
641.62,1086.9
642.147,1089.2
642.674,1086.8
643.201,1081.5
643.728,1081.0
644.255,1081.5
644.781,1080.5
645.308,1081.2
645.835,1087.1
646.361,1085.4
646.888,1080.6
647.414,1088.4
647.941,1084.9
648.467,1088.6
648.993,1086.9
649.52,1094.0
650.046,1094.8
650.572,1098.5
651.098,1095.7
651.625,1105.6
652.151,1108.0
652.677,1113.0
653.203,1105.1
653.729,1106.6
654.255,1108.9
654.78,1109.7
655.306,1101.5
655.832,1102.6
656.358,1102.3
656.884,1096.3
657.409,1085.5
657.935,1085.4
658.461,1078.4
658.986,1070.9
659.512,1065.5
660.037,1054.0
660.563,1050.4
661.088,1043.3
661.614,1028.5
662.139,1018.7
662.664,1019.4
663.058,1008.4