File: spectra/VLFR_06-PET_nobio_Raman_ae96dcf8.csv
nm,Intensity
526.532,833.4
527.079,834.25
527.625,834.0
528.172,833.15
528.718,833.95
529.265,833.7
529.811,834.35
530.357,834.0
530.903,833.75
531.449,834.2
531.994,840.55
532.54,833.05
533.085,833.85
533.63,860.0
534.176,2578.95
534.721,2048.6
535.266,1579.95
535.81,1295.15
536.355,1131.2
536.9,1068.85
537.444,1041.3
537.988,1027.8
538.533,1039.55
539.077,1030.45
539.621,1054.85
540.165,1057.85
540.708,1009.1
541.252,991.35
541.795,986.8
542.339,984.9
542.882,986.3
543.425,988.85
543.968,997.05
544.511,992.4
545.054,995.95
545.597,996.65
546.139,1002.25
546.682,1002.8
547.224,1006.7
547.766,1010.15
548.308,1011.2
548.85,1013.65
549.392,1019.8
549.934,1025.05
550.475,1066.65
551.017,1047.05
551.558,1037.0
552.1,1042.0
552.641,1064.25
553.182,1066.6
553.723,1058.6
554.264,1052.25
554.804,1058.2
555.345,1086.65
555.885,1145.25
556.426,1167.85
556.966,1179.8
557.506,1395.2
558.046,1206.65
558.586,1201.85
559.126,1141.9
559.665,1107.6
560.205,1111.15
560.745,1113.9
561.284,1120.3
561.823,1133.5
562.362,1149.75
562.901,1178.7
563.44,1177.15
563.979,1161.8
564.518,1182.35
565.056,1259.15
565.595,1341.85
566.133,1326.0
566.671,1210.15
567.21,1191.7
567.748,1312.0
568.285,1214.35
568.823,1205.15
569.361,1217.7
569.899,1262.95
570.436,1335.5
570.974,1521.8
571.511,1650.65
572.048,1438.3
572.585,1293.7
573.122,1259.6
573.659,1276.75
574.196,1315.45
574.733,1290.9
575.269,1346.1
575.806,1302.55
576.342,1346.5
576.878,1369.1
577.414,1325.9
577.951,1313.65
578.486,1324.0
579.022,1326.85
579.558,1328.5
580.094,1337.2
580.629,1354.8
581.165,1379.8
581.7,1526.4
582.236,3147.4
582.771,1441.3
583.306,1390.15
583.841,1386.15
584.376,1398.5
584.911,1426.15
585.445,1602.25
585.98,2312.7
586.514,1887.4
587.049,1487.05
587.583,1442.2
588.117,1431.75
588.651,1425.85
589.186,1431.8
589.72,1427.85
590.253,1434.55
590.787,1440.55
591.321,1439.1
591.854,1439.05
592.388,1445.45
592.921,1439.15
593.455,1448.95
593.988,1449.55
594.521,1454.2
595.054,1455.15
595.587,1466.35
596.12,1478.05
596.653,1475.55
597.186,1479.6
597.718,1486.55
598.251,1490.75
598.783,1499.25
599.316,1496.5
599.848,1502.6
600.38,1498.95
600.912,1497.9
601.444,1492.65
601.976,1497.75
602.508,1502.45
603.04,1514.4
603.572,1518.9
604.103,1510.1
604.635,1509.7
605.167,1496.55
605.698,1500.65
606.229,1494.45
606.761,1502.25
607.292,1508.4
607.823,1510.85
608.354,1517.5
608.885,1522.65
609.416,1523.65
609.947,1526.7
610.477,1517.8
611.008,1521.3
611.539,1527.95
612.069,1529.15
612.6,1543.95
613.13,1554.25
613.66,1555.85
614.19,1566.0
614.721,1560.95
615.251,1560.3
615.781,1566.8
616.311,1568.3
616.841,1584.45
617.37,1591.65
617.9,1597.6
618.43,1605.35
618.96,1599.85
619.489,1594.4
620.019,1598.45
620.548,1594.35
621.077,1597.05
621.607,1609.0
622.136,1613.5
622.665,1613.8
623.194,1639.05
623.723,1650.6
624.252,1647.35
624.781,1661.35
625.31,1665.1
625.839,1676.7
626.368,1666.95
626.896,1676.75
627.425,1676.25
627.953,1704.75
628.482,1719.5
629.01,1760.15
629.539,1765.5
630.067,1758.75
630.596,1770.2
631.124,1863.7
631.652,2037.9
632.18,2001.1
632.708,1899.35
633.236,1893.8
633.764,1869.9
634.292,1839.7
634.82,1835.45
635.348,1858.25
635.876,1943.35
636.403,2126.2
636.931,2093.8
637.459,1911.3
637.986,1894.4
638.514,1884.2
639.041,1885.15
639.568,1894.25
640.096,1899.7
640.623,1903.45
641.15,1925.95
641.678,1927.5
642.205,1952.35
642.732,1953.1
643.259,1936.25
643.786,1931.15
644.313,1937.35
644.84,1942.45
645.367,1941.65
645.894,1955.7
646.421,1954.6
646.948,1967.0
647.474,1982.9
648.001,1988.15
648.528,1979.45
649.054,1972.6
649.581,1979.2
650.108,1990.0
650.634,1988.7
651.161,1985.45
651.687,2004.25
652.214,2002.0
652.74,2002.45
653.266,2003.15
653.793,2018.05
654.319,2016.05
654.845,2012.85
655.371,2004.75
655.897,2010.5
656.424,2019.5
656.95,2027.7
657.476,2009.1
658.002,2013.55
658.528,2027.8
659.054,2012.75
659.58,2029.55
660.106,2020.65
660.631,2020.35
661.157,2006.9
661.683,1999.4
662.209,2004.55
662.735,2003.35
663.129,2007.0