File: spectra/VLFR_07-PET_bio_Raman_a9957276.csv
nm,Intensity
791.588,7781.6
792.685,7365.3
793.781,7145.9
794.878,7079.6
795.975,7043.7
797.071,7026.5
798.168,7022.9
799.264,7098.6
800.36,6983.9
801.456,6934.4
802.552,6946.8
803.648,6925.1
804.744,6808.1
805.84,6767.8
806.936,6686.2
808.031,6630.0
809.127,6664.3
810.222,6583.9
811.317,6534.5
812.412,6462.3
813.507,6440.1
814.602,6337.2
815.697,6290.9
816.792,6261.5
817.887,6275.6
818.981,6226.5
820.076,6200.6
821.17,6222.2
822.265,6123.5
823.359,6048.8
824.453,6111.0
825.547,6114.0
826.641,6094.9
827.735,5973.2
828.828,5958.7
829.922,5965.5
831.016,5965.1
832.109,5894.9
833.202,5868.7
834.295,5841.7
835.388,5813.4
836.481,5800.1
837.574,5807.8
838.667,5772.9
839.76,5760.8
840.852,5787.9
841.945,5824.6
843.037,5690.4
844.129,5625.7
845.221,5550.7
846.314,5540.8
847.405,5513.2
848.497,5451.4
849.589,5456.8
850.68,5414.1
851.772,5424.9
852.863,5392.1
853.955,5380.2
855.046,5340.0
856.137,5324.9
857.228,5339.0
858.318,5348.0
859.409,5355.2
860.5,5390.0
861.59,5288.3
862.681,5254.4
863.771,5259.9
864.861,5242.4
865.951,5229.7
867.041,5136.3
868.131,5163.3
869.22,5160.4
870.31,5167.5
871.399,5281.1
872.488,5242.5
873.578,5258.4
874.667,5203.2
875.756,5096.1
876.845,5063.2
877.933,5031.6
879.022,5059.6
880.11,5020.6
881.199,4991.8
882.287,5008.5
883.375,4978.2
884.463,4998.1
885.551,4983.1
886.639,4926.9
887.726,4888.7
888.814,4875.1
889.901,4839.9
890.988,4858.0
892.075,4817.4
893.162,4798.3
894.249,4777.6
895.336,4720.2
896.423,4704.4
897.509,4838.3
898.595,4924.0
899.682,4802.4
900.768,4650.2
901.854,4606.4
902.94,4593.7
904.025,4588.0
905.111,4597.9
906.196,4607.1
907.282,4729.0
908.367,4719.2
909.452,4577.6
910.537,4462.3
911.622,4449.4
912.706,4441.7
913.791,4400.6
914.875,4358.0
915.959,4361.1
917.044,4347.3
918.128,4340.7
919.211,4318.6
920.295,4310.5
921.379,4292.4
922.462,4265.7
923.546,4267.3
924.629,4251.6
925.712,4235.1
926.795,4216.7
927.877,4183.0
928.96,4177.9
930.043,4156.7
931.125,4150.3
932.207,4128.4
933.289,4099.5
934.371,4090.7
935.453,4089.7
936.535,4070.7
937.616,4075.9
938.697,4060.0
939.779,4043.9
940.86,4041.8
941.941,4015.1
943.022,4023.1
944.102,4003.5
945.183,4001.0
946.263,3993.3
947.343,3990.2
948.423,3983.8
949.503,3970.0
950.583,3975.7
951.663,3953.3
952.742,3956.1
953.822,3949.1
954.901,3930.4
955.98,3933.6
957.059,3923.6
958.137,3922.7
959.216,3914.9
960.294,3907.7
961.373,3903.0
962.451,3899.4
963.529,3890.6
964.607,3891.3
965.684,3888.0
966.762,3883.5
967.839,3880.3
968.917,3876.9
969.994,3872.8
971.071,3875.0
972.147,3865.3
973.224,3861.9
974.3,3850.5
975.377,3850.4
976.453,3844.7
977.529,3846.3
978.605,3838.0
979.68,3837.0
980.756,3836.2
981.831,3832.4
982.907,3833.9
983.982,3824.3
985.057,3822.9
986.131,3824.8
987.206,3816.3
988.28,3815.9
989.355,3819.2
990.429,3809.4
991.503,3813.3
992.576,3810.2
993.65,3802.9
994.723,3802.0
995.797,3800.9
996.87,3795.6
997.943,3794.6
999.016,3792.5
1000.09,3793.1
1001.16,3785.1
1002.23,3784.0
1003.31,3784.8
1004.38,3781.3
1005.45,3783.0
1006.52,3776.6
1007.59,3776.6
1008.66,3776.3
1009.73,3777.0
1010.81,3771.8
1011.88,3770.0
1012.95,3769.2
1014.02,3767.5
1015.09,3766.4
1016.16,3766.4
1017.23,3766.5
1018.3,3760.8
1019.37,3762.3
1020.44,3764.4
1021.51,3763.3
1022.58,3764.2
1023.64,3764.0
1024.71,3760.9
1025.78,3754.5
1026.85,3753.4
1027.92,3755.2
1028.99,3750.2
1030.05,3750.5
1031.12,3751.2
1032.19,3752.4
1033.26,3749.8
1034.32,3751.5
1035.39,3753.1
1036.46,3748.9
1037.52,3748.0
1038.59,3746.4
1039.66,3746.7
1040.72,3746.3
1041.79,3746.3
1042.86,3744.8
1043.92,3743.6
1044.99,3742.6
1046.05,3741.2
1047.12,3744.2
1048.18,3741.2
1049.25,3743.7
1050.31,3742.2
1051.37,3743.3
1052.44,3740.9
1053.5,3740.9
1054.57,3740.7
1055.63,3740.1
1056.69,3740.2
1057.76,3740.1
1058.82,3742.7
1059.88,3740.7
1060.95,3739.4
1062.01,3740.1
1063.07,3739.6
1064.13,3739.5
1065.19,3737.8
1066.26,3738.6
1067.32,3740.7
1068.11,3737.6