File: spectra/VLFR_08-PLA_nobio_Raman_c66ba35c.csv
nm,Intensity
526.532,829.82
527.079,830.3
527.625,829.54
528.172,829.02
528.718,828.96
529.265,830.08
529.811,829.52
530.357,829.2
530.903,829.26
531.449,829.4
531.994,836.36
532.54,829.96
533.085,829.44
533.63,829.96
534.176,870.52
534.721,864.18
535.266,856.92
535.81,853.32
536.355,852.4
536.9,853.02
537.444,851.58
537.988,851.34
538.533,849.62
539.077,849.62
539.621,848.48
540.165,850.2
540.708,851.44
541.252,851.92
541.795,852.3
542.339,850.32
542.882,850.98
543.425,854.9
543.968,855.7
544.511,851.72
545.054,852.78
545.597,850.9
546.139,850.24
546.682,852.12
547.224,852.54
547.766,851.52
548.308,851.38
548.85,850.62
549.392,851.86
549.934,851.84
550.475,851.2
551.017,851.3
551.558,852.7
552.1,853.36
552.641,852.14
553.182,852.32
553.723,852.0
554.264,853.76
554.804,852.32
555.345,851.5
555.885,851.32
556.426,851.24
556.966,851.06
557.506,855.22
558.046,871.0
558.586,856.8
559.126,854.32
559.665,853.2
560.205,853.74
560.745,852.68
561.284,852.78
561.823,853.74
562.362,854.24
562.901,856.52
563.44,861.18
563.979,858.16
564.518,858.32
565.056,863.66
565.595,860.14
566.133,866.0
566.671,858.4
567.21,855.76
567.748,855.38
568.285,855.38
568.823,855.32
569.361,855.86
569.899,855.16
570.436,855.32
570.974,856.44
571.511,860.3
572.048,859.88
572.585,859.54
573.122,859.38
573.659,860.1
574.196,860.58
574.733,860.74
575.269,857.6
575.806,857.66
576.342,860.38
576.878,868.38
577.414,861.96
577.951,857.76
578.486,858.06
579.022,857.26
579.558,858.2
580.094,857.1
580.629,856.94
581.165,856.94
581.7,856.4
582.236,857.56
582.771,855.88
583.306,857.74
583.841,858.68
584.376,858.44
584.911,857.2
585.445,858.26
585.98,858.04
586.514,859.52
587.049,866.38
587.583,868.5
588.117,861.22
588.651,858.48
589.186,855.92
589.72,857.02
590.253,857.84
590.787,857.88
591.321,857.7
591.854,856.84
592.388,857.88
592.921,857.84
593.455,857.56
593.988,857.58
594.521,857.7
595.054,857.14
595.587,857.88
596.12,857.72
596.653,858.76
597.186,858.68
597.718,857.68
598.251,858.12
598.783,858.96
599.316,860.0
599.848,857.92
600.38,857.78
600.912,857.22
601.444,857.26
601.976,859.06
602.508,857.52
603.04,858.36
603.572,857.46
604.103,857.94
604.635,857.42
605.167,857.18
605.698,856.36
606.229,857.48
606.761,858.76
607.292,857.66
607.823,858.38
608.354,857.86
608.885,857.54
609.416,857.72
609.947,857.14
610.477,856.56
611.008,857.42
611.539,856.68
612.069,857.28
612.6,857.34
613.13,857.64
613.66,857.74
614.19,859.26
614.721,859.1
615.251,857.18
615.781,857.34
616.311,856.78
616.841,858.52
617.37,858.9
617.9,859.0
618.43,859.22
618.96,858.26
619.489,858.52
620.019,858.46
620.548,857.84
621.077,858.58
621.607,858.5
622.136,858.66
622.665,859.96
623.194,860.74
623.723,860.2
624.252,859.72
624.781,859.56
625.31,859.38
625.839,861.16
626.368,860.14
626.896,860.5
627.425,862.6
627.953,863.94
628.482,875.5
629.01,877.08
629.539,875.16
630.067,874.6
630.596,881.96
631.124,936.8
631.652,895.66
632.18,878.52
632.708,876.08
633.236,888.96
633.764,881.46
634.292,867.44
634.82,860.38
635.348,858.28
635.876,855.54
636.403,856.82
636.931,856.96
637.459,856.22
637.986,857.22
638.514,856.24
639.041,856.58
639.568,856.06
640.096,855.84
640.623,856.12
641.15,856.54
641.678,856.18
642.205,856.14
642.732,855.02
643.259,855.14
643.786,854.68
644.313,855.36
644.84,855.62
645.367,854.4
645.894,853.98
646.421,854.88
646.948,854.48
647.474,854.68
648.001,854.16
648.528,854.26
649.054,854.62
649.581,853.94
650.108,853.76
650.634,855.36
651.161,853.92
651.687,852.84
652.214,853.78
652.74,852.88
653.266,852.76
653.793,852.32
654.319,852.06
654.845,852.28
655.371,852.28
655.897,851.68
656.424,851.54
656.95,852.26
657.476,852.28
658.002,851.98
658.528,852.28
659.054,851.82
659.58,851.66
660.106,851.42
660.631,851.92
661.157,850.92
661.683,850.38
662.209,850.24
662.735,849.7
663.129,849.38