File: spectra/VLFR_01-LDPE_bio_Raman_8513bad0.csv
nm,Intensity
528.626,1868.2
529.132,1867.6
529.637,1867.7
530.143,1867.9
530.648,1868.4
531.153,1869.9
531.658,1886.3
532.164,3021.0
532.669,1869.4
533.174,1870.9
533.679,1972.7
534.184,2352.6
534.689,2293.8
535.194,2234.9
535.699,2175.5
536.203,2130.7
536.708,2105.7
537.213,2112.7
537.717,2112.0
538.222,2090.1
538.726,2077.4
539.231,2070.5
539.735,2065.2
540.239,2052.3
540.744,2054.3
541.248,2038.4
541.752,2047.7
542.256,2056.2
542.76,2048.8
543.264,2048.9
543.768,2060.2
544.272,2050.2
544.776,2046.3
545.28,2041.6
545.784,2042.9
546.287,2038.5
546.791,2037.4
547.294,2045.7
547.798,2033.4
548.301,2034.5
548.805,2035.7
549.308,2040.5
549.811,2033.4
550.315,2032.8
550.818,2032.6
551.321,2031.6
551.824,2050.2
552.327,2045.2
552.83,2036.6
553.333,2065.1
553.835,2072.7
554.338,2069.2
554.841,2081.9
555.343,2103.5
555.846,2105.3
556.349,2104.8
556.851,2123.0
557.353,2149.8
557.856,2181.1
558.358,2186.3
558.86,2171.2
559.362,2159.1
559.864,2150.7
560.366,2144.3
560.868,2161.1
561.37,2166.9
561.872,2183.1
562.374,2204.6
562.876,2228.5
563.377,2278.7
563.879,2658.1
564.38,2462.5
564.882,2395.3
565.383,2330.8
565.885,2555.0
566.386,2582.9
566.887,2324.7
567.388,2382.3
567.889,2338.1
568.391,2326.0
568.892,2338.5
569.392,2363.3
569.893,2408.6
570.394,2468.9
570.895,2534.4
571.395,3178.7
571.896,2866.5
572.397,2665.8
572.897,2658.7
573.397,2663.2
573.898,2796.4
574.398,2752.3
574.898,2829.5
575.398,2989.0
575.898,3394.3
576.398,3933.0
576.898,3748.5
577.398,3403.0
577.898,3296.4
578.398,3340.0
578.897,3383.4
579.397,3471.3
579.896,3645.4
580.396,3696.2
580.895,3766.0
581.395,3878.7
581.894,3906.0
582.393,4068.1
582.892,4108.5
583.391,4269.4
583.89,4355.5
584.389,4471.0
584.888,4468.2
585.387,4616.9
585.886,4658.4
586.384,4794.1
586.883,4772.4
587.381,5040.1
587.88,5162.4
588.378,5297.4
588.876,5287.3
589.375,5363.2
589.873,5389.8
590.371,5494.4
590.869,5627.0
591.367,5696.0
591.865,5858.4
592.363,5969.3
592.86,6003.3
593.358,5914.1
593.856,5996.8
594.353,6044.1
594.851,6093.0
595.348,6190.1
595.845,6454.5
596.342,6463.3
596.84,6657.8
597.337,6783.0
597.834,6743.3
598.331,6967.1
598.828,7089.1
599.324,7228.2
599.821,7241.9
600.318,7190.7
600.814,7241.3
601.311,7281.2
601.807,7286.6
602.304,7214.4
602.8,7126.6
603.296,6936.1
603.792,6770.4
604.288,6590.7
604.784,6326.2
605.28,6144.3
605.776,5975.8
606.272,5916.2
606.767,5712.8
607.263,5529.9
607.759,5364.5
608.254,5254.4
608.749,5170.4
609.245,4984.4
609.74,4982.1
610.235,4881.2
610.73,4759.6
611.225,4728.8
611.72,4572.4
612.215,4544.7
612.71,4419.0
613.204,4424.3
613.699,4331.8
614.194,4300.9
614.688,4262.4
615.182,4173.3
615.677,4169.5
616.171,4041.7
616.665,4018.0
617.159,4041.9
617.653,3981.2
618.147,3959.2
618.641,3967.0
619.135,3921.6
619.628,3896.9
620.122,3950.4
620.615,3862.1
621.109,3759.5
621.602,3918.8
622.095,4046.4
622.589,3945.1
623.082,3812.8
623.575,3716.3
624.068,3756.8
624.561,3702.1
625.053,3763.7
625.546,3734.2
626.039,3874.7
626.531,4357.6
627.024,7403.3
627.516,7585.1
628.008,6606.2
628.501,8850.9
628.993,6872.9
629.485,6150.2
629.977,5570.8
630.469,5469.1
630.96,4482.8
631.452,4023.6
631.944,3756.7
632.435,3696.2
632.927,3663.0
633.418,3618.4
633.91,3672.9
634.401,3651.4
634.892,3658.7
635.383,3638.6
635.874,3647.1
636.365,3639.8
636.856,3629.3
637.346,3587.4
637.837,3588.2
638.327,3588.8
638.818,3591.5
639.308,3648.4
639.799,3598.0
640.289,3590.3
640.779,3612.0
641.269,3674.5
641.759,3598.6
642.249,3711.7
642.738,3731.3
643.228,3710.4
643.718,3633.7
644.207,3675.5
644.697,3671.8
645.186,3732.7
645.675,3658.3
646.164,3686.7
646.653,3650.9
647.142,3642.7
647.631,3667.6
648.12,3620.6
648.609,3659.7
649.098,3619.6
649.586,3624.0
650.075,3641.4
650.563,3650.6
651.051,3626.5
651.539,3583.4
652.027,3561.0
652.515,3598.7
653.003,3522.7
653.491,3491.8
653.979,3500.0
654.467,3476.8
654.954,3442.2
655.442,3500.5
655.929,3469.6
656.416,3405.3
656.904,3382.3
657.391,3292.6
657.878,3221.5
658.365,3206.3
658.851,3157.1
659.338,3112.7
659.825,3113.3
660.311,3072.7
660.798,2986.0
661.041,2942.2