File: spectra/VLFR_08-PLA_nobio_Raman_fbf7bdea.csv
nm,Intensity
526.5,829.2
527.047,828.6
527.594,829.1
528.14,829.0
528.687,828.6
529.233,828.1
529.779,829.5
530.325,830.9
530.871,828.3
531.417,830.4
531.962,836.6
532.508,829.6
533.053,829.2
533.599,829.7
534.144,916.2
534.689,898.8
535.234,877.9
535.778,876.5
536.323,871.1
536.867,872.6
537.412,867.6
537.956,864.8
538.5,863.2
539.044,863.9
539.588,862.2
540.132,859.2
540.675,865.8
541.219,867.1
541.762,863.4
542.305,860.9
542.848,860.3
543.391,869.4
543.934,875.7
544.477,864.7
545.02,859.4
545.562,860.2
546.105,857.9
546.647,858.1
547.189,859.5
547.731,860.6
548.273,861.0
548.815,860.1
549.356,858.9
549.898,860.7
550.439,861.0
550.981,859.2
551.522,865.4
552.063,866.0
552.604,867.0
553.145,863.6
553.686,865.4
554.226,865.2
554.767,866.8
555.307,861.7
555.848,861.2
556.388,861.1
556.928,863.3
557.468,869.9
558.008,907.6
558.547,874.6
559.087,868.1
559.626,868.0
560.166,868.5
560.705,863.5
561.244,864.0
561.783,864.9
562.322,864.2
562.861,864.8
563.4,878.1
563.939,871.6
564.477,867.0
565.015,877.1
565.554,877.4
566.092,885.1
566.63,872.5
567.168,864.5
567.706,868.5
568.244,869.2
568.781,870.2
569.319,867.6
569.857,871.0
570.394,869.4
570.931,871.1
571.468,875.8
572.005,875.8
572.542,872.0
573.079,875.1
573.616,875.6
574.153,874.9
574.689,877.5
575.226,870.0
575.762,870.5
576.298,875.3
576.834,895.0
577.371,879.9
577.907,870.9
578.442,870.3
578.978,868.7
579.514,873.7
580.049,870.8
580.585,871.3
581.12,872.2
581.656,872.7
582.191,871.1
582.726,869.5
583.261,869.6
583.796,874.7
584.331,869.6
584.865,871.1
585.4,872.3
585.935,873.1
586.469,878.9
587.004,888.9
587.538,897.1
588.072,880.1
588.606,874.6
589.14,871.1
589.674,872.7
590.208,870.0
590.742,871.5
591.275,870.6
591.809,871.8
592.342,870.7
592.876,870.8
593.409,869.2
593.942,868.8
594.476,872.0
595.009,871.5
595.542,872.2
596.075,871.3
596.607,872.5
597.14,870.7
597.673,869.6
598.205,871.8
598.738,872.3
599.27,869.8
599.803,871.5
600.335,867.6
600.867,868.7
601.399,871.0
601.931,867.6
602.463,870.2
602.995,871.9
603.527,869.5
604.058,873.1
604.59,869.0
605.122,869.0
605.653,866.7
606.184,866.4
606.716,868.9
607.247,868.8
607.778,867.2
608.309,868.1
608.84,867.9
609.371,868.8
609.902,867.7
610.433,869.7
610.964,867.6
611.494,866.7
612.025,865.2
612.556,872.0
613.086,868.9
613.616,867.7
614.147,867.9
614.677,867.4
615.207,871.6
615.737,869.1
616.267,868.8
616.797,868.6
617.327,865.6
617.857,867.8
618.387,869.1
618.917,868.0
619.446,868.2
619.976,866.1
620.505,866.7
621.035,867.1
621.564,866.6
622.093,867.7
622.623,871.0
623.152,873.5
623.681,869.3
624.21,867.1
624.739,867.4
625.268,867.0
625.797,866.3
626.326,866.5
626.855,869.0
627.383,863.9
627.912,870.0
628.441,891.1
628.969,887.5
629.498,886.9
630.026,888.3
630.554,907.6
631.083,1028.9
631.611,952.8
632.139,909.0
632.667,901.5
633.195,927.3
633.724,918.2
634.252,888.5
634.779,872.8
635.307,866.4
635.835,866.9
636.363,863.9
636.891,864.5
637.418,864.0
637.946,865.5
638.474,863.4
639.001,861.8
639.529,862.9
640.056,862.0
640.583,862.3
641.111,860.1
641.638,863.4
642.165,862.0
642.692,863.3
643.22,860.6
643.747,861.8
644.274,860.3
644.801,860.8
645.328,857.5
645.854,859.7
646.381,857.9
646.908,858.8
647.435,859.7
647.962,861.1
648.488,859.1
649.015,858.1
649.542,858.0
650.068,859.0
650.595,855.8
651.121,855.5
651.648,858.7
652.174,856.8
652.7,856.5
653.227,857.9
653.753,856.4
654.279,855.0
654.805,855.0
655.331,857.2
655.858,856.8
656.384,856.0
656.91,856.9
657.436,856.7
657.962,854.6
658.488,854.2
659.013,855.9
659.539,855.2
660.065,854.4
660.591,853.2
661.117,853.1
661.642,853.0
662.168,852.5
662.694,854.8
663.088,853.2