File: spectra/VLFR_08-PLA_nobio_Raman_5f3154cd.csv
nm,Intensity
526.486,828.4
527.033,828.5
527.579,828.4
528.126,829.7
528.672,829.1
529.219,828.9
529.765,829.3
530.311,828.9
530.857,828.0
531.403,828.2
531.948,835.1
532.494,832.9
533.039,830.5
533.585,828.7
534.13,890.4
534.675,876.8
535.22,870.1
535.764,862.5
536.309,860.7
536.854,863.7
537.398,862.0
537.942,861.0
538.486,859.2
539.03,858.8
539.574,855.8
540.118,856.6
540.662,859.9
541.205,859.8
541.749,859.4
542.292,856.8
542.835,857.8
543.378,861.7
543.921,865.1
544.464,863.9
545.006,858.4
545.549,860.9
546.091,857.3
546.634,860.1
547.176,862.2
547.718,859.1
548.26,860.1
548.802,861.5
549.343,860.7
549.885,859.9
550.426,858.1
550.968,863.9
551.509,864.2
552.05,863.5
552.591,866.3
553.132,864.3
553.673,861.9
554.214,865.5
554.754,865.2
555.295,861.7
555.835,863.3
556.375,865.4
556.915,864.3
557.455,869.8
557.995,894.3
558.535,874.6
559.075,867.2
559.614,867.5
560.154,863.5
560.693,865.9
561.232,864.5
561.772,864.1
562.311,866.7
562.85,870.8
563.388,877.5
563.927,872.9
564.466,869.9
565.004,876.8
565.543,874.6
566.081,882.8
566.619,874.8
567.157,869.1
567.695,870.9
568.233,871.8
568.771,873.8
569.309,869.6
569.846,870.9
570.384,868.7
570.921,870.9
571.458,874.4
571.995,875.2
572.532,876.8
573.069,877.1
573.606,877.5
574.143,875.5
574.68,880.5
575.216,873.6
575.753,876.2
576.289,876.0
576.825,891.8
577.361,882.3
577.897,874.7
578.433,873.0
578.969,875.8
579.505,872.8
580.041,873.4
580.576,872.8
581.112,875.0
581.647,874.7
582.183,878.0
582.718,874.0
583.253,877.9
583.788,876.2
584.323,879.7
584.858,878.6
585.392,877.8
585.927,876.9
586.462,881.9
586.996,889.0
587.53,895.8
588.065,883.2
588.599,878.9
589.133,878.1
589.667,876.9
590.201,877.4
590.735,878.2
591.268,878.2
591.802,876.7
592.335,876.7
592.869,876.2
593.402,873.4
593.936,875.3
594.469,873.2
595.002,879.3
595.535,878.6
596.068,877.0
596.601,879.9
597.133,878.6
597.666,877.3
598.199,877.7
598.731,877.8
599.264,875.8
599.796,875.5
600.328,878.0
600.86,878.7
601.393,876.4
601.925,878.9
602.457,878.1
602.988,877.5
603.52,877.4
604.052,876.4
604.583,874.7
605.115,877.3
605.646,873.7
606.178,876.7
606.709,877.1
607.24,874.0
607.771,872.3
608.302,877.7
608.833,873.7
609.364,875.2
609.895,876.0
610.426,876.6
610.957,875.1
611.487,872.9
612.018,876.6
612.548,874.5
613.078,875.0
613.609,877.2
614.139,877.3
614.669,876.7
615.199,877.7
615.729,875.3
616.259,877.3
616.789,876.5
617.319,877.8
617.849,875.2
618.378,877.0
618.908,876.8
619.437,878.1
619.967,872.0
620.496,875.3
621.025,874.1
621.555,874.6
622.084,874.8
622.613,877.9
623.142,878.2
623.671,878.7
624.2,876.3
624.729,874.3
625.258,877.6
625.786,876.9
626.315,879.7
626.844,880.1
627.372,876.5
627.901,880.1
628.429,893.3
628.957,896.2
629.486,893.3
630.014,894.5
630.542,905.2
631.07,1001.0
631.598,942.5
632.126,911.3
632.654,904.2
633.182,926.4
633.71,918.4
634.237,893.4
634.765,879.7
635.293,873.5
635.82,874.0
636.348,872.8
636.875,869.8
637.403,870.3
637.93,870.8
638.458,870.1
638.985,869.4
639.512,870.3
640.039,868.2
640.566,871.3
641.093,869.6
641.62,870.5
642.147,870.8
642.674,868.7
643.201,867.3
643.728,867.6
644.255,867.3
644.781,867.3
645.308,866.5
645.835,868.4
646.361,868.9
646.888,865.4
647.414,866.8
647.941,866.2
648.467,866.4
648.993,867.3
649.52,864.9
650.046,867.4
650.572,863.9
651.098,867.3
651.625,864.7
652.151,868.5
652.677,864.8
653.203,863.8
653.729,865.2
654.255,864.2
654.78,865.5
655.306,863.8
655.832,864.9
656.358,862.6
656.884,863.2
657.409,864.3
657.935,866.0
658.461,864.7
658.986,863.7
659.512,863.8
660.037,863.1
660.563,862.3
661.088,862.3
661.614,861.3
662.139,858.7
662.664,861.1
663.058,859.6