File: spectra/VLFR_02-HDPE_bio_Raman_94e7cc35.csv
nm,Intensity
526.547,830.5
527.095,831.45
527.642,831.25
528.189,830.75
528.736,831.2
529.283,831.1
529.829,831.3
530.376,830.55
530.922,831.3
531.468,830.35
532.014,843.4
532.56,831.55
533.106,830.65
533.651,831.25
534.196,900.65
534.742,890.3
535.287,879.2
535.832,871.05
536.376,864.75
536.921,862.15
537.465,861.2
538.01,860.55
538.554,857.85
539.098,857.35
539.642,855.85
540.186,852.6
540.729,852.6
541.273,851.45
541.816,853.55
542.36,853.3
542.903,853.6
543.446,852.1
543.988,853.9
544.531,853.85
545.074,853.6
545.616,853.05
546.158,853.25
546.701,852.15
547.243,852.6
547.785,853.1
548.326,852.35
548.868,854.3
549.41,854.7
549.951,855.0
550.492,853.45
551.034,855.45
551.575,853.75
552.116,854.35
552.656,855.15
553.197,855.8
553.738,856.7
554.278,856.1
554.819,857.1
555.359,858.0
555.899,856.4
556.439,857.3
556.979,860.6
557.519,860.55
558.058,863.85
558.598,864.0
559.137,862.0
559.677,862.05
560.216,861.1
560.755,859.95
561.294,862.0
561.833,862.35
562.371,862.55
562.91,865.6
563.449,868.95
563.987,952.65
564.525,884.05
565.064,875.75
565.602,879.0
566.14,1042.2
566.678,876.3
567.216,867.75
567.753,865.65
568.291,864.7
568.828,864.5
569.366,866.75
569.903,865.65
570.44,867.75
570.977,873.65
571.514,1018.2
572.051,885.55
572.588,870.1
573.125,867.0
573.661,867.5
574.198,871.75
574.734,866.2
575.271,877.4
575.807,929.05
576.343,944.6
576.879,918.25
577.415,891.2
577.951,871.9
578.486,869.0
579.022,866.15
579.557,866.75
580.093,868.2
580.628,868.3
581.164,867.35
581.699,870.15
582.234,869.45
582.769,871.0
583.304,869.7
583.838,871.85
584.373,872.25
584.908,870.8
585.442,874.35
585.977,874.8
586.511,876.05
587.045,876.4
587.58,876.75
588.114,875.7
588.648,879.0
589.182,878.6
589.715,879.4
590.249,882.4
590.783,882.75
591.316,885.75
591.85,885.55
592.383,886.9
592.917,888.05
593.45,888.8
593.983,891.6
594.516,892.6
595.049,894.4
595.582,896.0
596.115,897.3
596.648,900.3
597.18,902.15
597.713,900.8
598.245,906.9
598.778,907.65
599.31,908.25
599.842,910.8
600.375,906.5
600.907,907.25
601.439,908.45
601.971,908.1
602.503,908.5
603.034,909.35
603.566,908.1
604.098,906.3
604.629,904.55
605.161,904.1
605.692,904.85
606.224,903.7
606.755,901.45
607.286,902.35
607.817,900.65
608.348,901.55
608.879,898.05
609.41,901.45
609.941,898.55
610.472,898.25
611.002,900.25
611.533,901.25
612.063,899.2
612.594,899.9
613.124,897.95
613.655,899.95
614.185,900.8
614.715,899.6
615.245,899.15
615.775,897.65
616.305,898.85
616.835,898.4
617.365,899.95
617.895,900.9
618.425,897.8
618.954,900.15
619.484,901.45
620.013,899.3
620.543,901.0
621.072,904.75
621.602,908.35
622.131,917.15
622.66,913.25
623.189,901.2
623.718,898.5
624.247,898.05
624.776,897.55
625.305,899.85
625.834,902.35
626.363,920.4
626.891,1057.45
627.42,1278.55
627.949,1115.15
628.477,1226.55
629.006,1147.05
629.534,1091.95
630.062,1034.7
630.591,1022.35
631.119,945.2
631.647,910.75
632.175,897.65
632.703,892.35
633.231,888.5
633.759,887.05
634.287,887.2
634.815,885.25
635.343,884.05
635.871,884.05
636.398,884.95
636.926,883.0
637.454,881.9
637.981,879.85
638.509,880.9
639.036,882.45
639.564,879.4
640.091,880.0
640.618,883.5
641.146,880.65
641.673,882.05
642.2,881.75
642.727,882.25
643.254,882.35
643.781,880.95
644.308,880.75
644.835,879.6
645.362,879.65
645.889,879.7
646.416,880.4
646.942,880.15
647.469,880.8
647.996,879.4
648.522,883.4
649.049,882.2
649.576,881.8
650.102,883.55
650.629,881.85
651.155,881.95
651.682,882.5
652.208,880.5
652.734,881.3
653.261,883.5
653.787,882.7
654.313,881.35
654.839,878.65
655.365,878.85
655.892,879.8
656.418,878.3
656.944,878.6
657.47,878.05
657.996,877.9
658.522,878.3
659.048,878.85
659.574,874.7
660.099,874.7
660.625,873.3
661.151,873.15
661.677,872.35
662.203,870.3
662.728,870.35
663.123,869.45