File: spectra/VLFR_06-PET_nobio_Raman_0b3ec2cd.csv
cm-1,Intensity
-123.878,1856.75
-105.821,1856.25
-87.8007,1856.7
-69.8161,1857.8
-51.8675,1857.55
-33.9547,1859.65
-16.0776,1878.85
1.76388,2926.75
19.5698,1860.65
37.3403,1864.9
55.0755,2745.75
72.7754,4573.65
90.4402,3950.4
108.07,3402.3
125.665,2875.9
143.225,2607.55
160.75,2502.55
178.241,2454.5
195.697,2451.5
213.119,2460.85
230.506,2451.75
247.859,2502.8
265.178,2575.3
282.463,2520.2
299.713,2454.9
316.93,2447.5
334.113,2425.3
351.263,2473.5
368.379,2477.65
385.461,2491.15
402.51,2497.7
419.526,2468.85
436.508,2518.95
453.458,2528.6
470.374,2539.6
487.257,2532.3
504.107,2549.6
520.925,2555.35
537.71,2564.6
554.462,2580.1
571.182,2596.8
587.87,2608.15
604.525,2636.1
621.148,2701.8
637.739,2869.85
654.297,2688.25
670.824,2682.05
687.319,2711.1
703.782,2865.3
720.213,2719.75
736.613,2771.5
752.981,2782.7
769.317,2811.55
785.623,2924.85
801.897,3005.95
818.139,3061.35
834.351,3138.0
850.532,3516.85
866.681,3375.75
882.8,3189.9
898.888,3098.4
914.945,2977.2
930.972,3042.55
946.968,3011.3
962.934,3074.95
978.869,3114.9
994.774,3150.45
1010.65,3201.15
1026.49,3241.6
1042.31,3211.65
1058.09,3210.9
1073.85,3271.1
1089.57,3418.9
1105.27,3591.85
1120.93,3755.1
1136.57,3422.5
1152.18,3331.6
1167.75,3419.95
1183.3,3509.05
1198.82,3377.55
1214.31,3351.7
1229.77,3389.5
1245.2,3532.45
1260.6,3757.45
1275.97,4150.95
1291.32,4529.75
1306.63,4048.6
1321.92,3743.95
1337.18,3558.75
1352.41,3616.8
1367.61,3618.7
1382.78,3625.8
1397.93,3698.7
1413.05,3856.9
1428.14,3718.55
1443.2,3862.05
1458.23,3853.5
1473.23,3833.15
1488.21,3761.05
1503.16,3764.7
1518.08,3752.25
1532.97,3805.75
1547.84,3847.6
1562.68,3914.2
1577.49,3970.8
1592.27,4125.3
1607.03,6001.95
1621.76,5639.55
1636.46,4045.2
1651.14,4053.9
1665.78,4016.65
1680.41,4073.8
1695.0,4116.65
1709.57,4662.2
1724.11,6216.6
1738.62,5546.85
1753.11,4357.35
1767.57,4159.7
1782.01,4151.2
1796.41,4198.1
1810.8,4204.85
1825.15,4217.05
1839.48,4182.85
1853.79,4169.25
1868.06,4136.2
1882.31,4262.65
1896.54,4276.65
1910.74,4264.7
1924.91,4268.6
1939.06,4262.05
1953.19,4350.65
1967.28,4266.6
1981.35,4338.0
1995.4,4315.15
2009.42,4317.15
2023.42,4348.5
2037.39,4410.45
2051.33,4385.6
2065.25,4395.95
2079.15,4387.7
2093.01,4398.7
2106.86,4422.05
2120.68,4409.8
2134.47,4379.9
2148.24,4392.05
2161.99,4433.7
2175.71,4383.5
2189.41,4470.95
2203.08,4472.7
2216.73,4439.85
2230.35,4425.9
2243.95,4384.95
2257.52,4442.75
2271.07,4408.6
2284.6,4450.9
2298.1,4364.9
2311.58,4469.65
2325.03,4414.6
2338.46,4392.5
2351.87,4517.1
2365.25,4489.2
2378.61,4433.35
2391.94,4437.7
2405.26,4475.05
2418.54,4482.3
2431.81,4463.35
2445.05,4508.85
2458.27,4467.95
2471.46,4475.8
2484.63,4415.5
2497.78,4479.85
2510.9,4433.5
2524.0,4515.4
2537.08,4438.25
2550.14,4503.25
2563.17,4480.3
2576.18,4500.1
2589.17,4479.95
2602.13,4535.25
2615.07,4540.0
2627.99,4561.5
2640.89,4565.45
2653.76,4504.95
2666.61,4540.15
2679.44,4487.4
2692.25,4527.1
2705.03,4600.3
2717.79,4535.1
2730.53,4522.3
2743.25,4617.05
2755.94,4604.0
2768.61,4659.3
2781.27,4689.7
2793.89,4665.25
2806.5,4604.05
2819.09,4679.75
2831.65,4652.25
2844.19,4663.5
2856.71,4724.2
2869.21,4801.45
2881.69,4852.4
2894.14,5020.8
2906.58,5000.35
2918.99,4959.65
2931.38,4896.95
2943.75,5160.0
2956.1,5724.35
2968.42,5795.2
2980.73,5432.3
2993.01,5378.65
3005.28,5351.9
3017.52,5263.4
3029.74,5175.75
3041.94,5135.05
3054.12,5201.25
3066.28,5441.85
3078.42,6163.0
3090.54,5937.45
3102.63,5430.55
3114.71,5355.4
3126.77,5240.35
3138.8,5240.8
3150.82,5226.75
3162.81,5218.55
3174.78,5146.75
3186.74,5202.75
3198.67,5284.9
3210.58,5237.8
3222.47,5352.95
3234.35,5386.05
3246.2,5327.5
3258.03,5353.55
3269.84,5408.95
3281.64,5349.75
3293.41,5379.8
3305.16,5265.2
3316.89,5215.55
3328.61,5387.1
3340.3,5291.75
3351.97,5253.35
3363.63,5258.2
3375.26,5313.2
3386.88,5313.25
3398.47,5247.2
3410.05,5251.4
3421.6,5247.25
3433.14,5291.2
3444.66,5370.55
3456.15,5339.95
3467.63,5207.5
3479.09,5225.05
3490.53,5180.7
3501.96,5180.05
3513.36,5120.15
3524.74,5038.15
3536.11,5100.3
3547.45,5013.0
3558.78,5113.75
3570.09,5055.45
3581.37,4966.65
3592.64,4951.95
3603.9,4931.6
3615.13,4993.1
3626.34,4795.75
3637.54,4769.55
3648.72,4775.25
3659.87,4753.25
3665.45,4753.15