File: spectra/VLFR_06-PET_nobio_Raman_7100bd7c.csv
nm,Intensity
528.65,1841.4
529.155,1841.2
529.66,1841.0
530.165,1841.73
530.67,1841.37
531.175,1842.7
531.68,1867.33
532.185,2955.53
532.69,1844.43
533.194,1849.87
533.699,3033.77
534.204,5837.4
534.708,4712.8
535.213,3808.4
535.717,3110.57
536.222,2699.4
536.726,2542.57
537.231,2467.13
537.735,2453.97
538.239,2468.33
538.743,2459.47
539.247,2479.97
539.751,2575.57
540.255,2501.23
540.759,2386.33
541.263,2358.07
541.767,2339.87
542.271,2347.4
542.775,2358.07
543.279,2340.63
543.782,2385.03
544.286,2348.1
544.789,2374.43
545.293,2373.43
545.796,2371.7
546.3,2368.33
546.803,2374.9
547.306,2363.27
547.81,2382.6
548.313,2392.1
548.816,2386.8
549.319,2376.87
549.822,2369.5
550.325,2473.73
550.828,2718.2
551.331,2405.37
551.834,2402.83
552.337,2421.43
552.839,2650.2
553.342,2419.67
553.844,2426.37
554.347,2428.67
554.849,2445.03
555.352,2568.13
555.854,2694.53
556.357,2728.8
556.859,2785.17
557.361,3343.07
557.863,3020.87
558.365,2871.23
558.867,2681.6
559.369,2531.0
559.871,2488.63
560.373,2497.1
560.875,2527.47
561.377,2551.0
561.878,2606.7
562.38,2626.27
562.881,2699.4
563.383,2658.8
563.884,2620.8
564.386,2647.03
564.887,2882.3
565.388,3161.5
565.89,3295.97
566.391,2851.93
566.892,2677.6
567.393,2866.33
567.894,2941.23
568.395,2717.93
568.896,2737.53
569.396,2771.5
569.897,2875.23
570.398,3196.03
570.898,3886.37
571.399,4318.47
571.9,3597.33
572.4,3057.4
572.9,2885.77
573.401,2874.07
573.901,2975.53
574.401,2919.7
574.901,2986.57
575.401,3116.7
575.901,2997.67
576.401,3155.37
576.901,3130.47
577.401,2976.87
577.901,2950.07
578.4,2965.77
578.9,2950.8
579.399,2985.2
579.899,3008.63
580.398,3031.2
580.898,3153.03
581.397,3319.0
581.896,6043.13
582.395,5215.03
582.895,3177.53
583.394,3116.63
583.893,3101.37
584.391,3167.2
584.89,3251.03
585.389,4023.5
585.888,6006.07
586.386,4924.27
586.885,3428.1
587.384,3193.67
587.882,3176.7
588.38,3153.33
588.879,3124.37
589.377,3132.77
589.875,3106.13
590.373,3125.4
590.871,3119.27
591.369,3127.7
591.867,3157.47
592.365,3119.4
592.863,3155.03
593.361,3140.47
593.858,3134.97
594.356,3145.03
594.853,3168.37
595.351,3168.97
595.848,3178.0
596.345,3179.37
596.843,3180.4
597.34,3178.6
597.837,3188.03
598.334,3222.13
598.831,3228.13
599.328,3202.7
599.824,3217.6
600.321,3234.0
600.818,3220.97
601.314,3234.57
601.811,3209.53
602.307,3221.53
602.804,3226.73
603.3,3221.2
603.796,3247.7
604.293,3220.57
604.789,3243.87
605.285,3227.23
605.781,3228.03
606.277,3270.3
606.772,3274.6
607.268,3243.97
607.764,3271.83
608.259,3264.73
608.755,3277.17
609.25,3277.73
609.746,3279.87
610.241,3264.47
610.736,3317.7
611.231,3276.23
611.727,3275.27
612.222,3300.93
612.716,3292.73
613.211,3277.83
613.706,3331.5
614.201,3341.77
614.695,3340.47
615.19,3330.13
615.684,3337.37
616.179,3326.23
616.673,3386.33
617.168,3384.53
617.662,3397.97
618.156,3427.1
618.65,3413.4
619.144,3440.8
619.638,3380.2
620.131,3397.73
620.625,3420.7
621.119,3450.1
621.612,3392.63
622.106,3418.33
622.599,3456.33
623.093,3453.3
623.586,3382.37
624.079,3475.2
624.572,3461.47
625.065,3557.9
625.558,3451.47
626.051,3504.1
626.544,3487.57
627.037,3490.07
627.529,3524.4
628.022,3572.63
628.514,3621.7
629.007,3668.23
629.499,3747.17
629.991,3619.67
630.483,3659.17
630.976,3936.6
631.468,4501.43
631.959,4505.0
632.451,4179.6
632.943,4062.2
633.435,3962.63
633.926,3826.73
634.418,3719.8
634.909,3785.57
635.401,3824.87
635.892,4127.37
636.383,4632.07
636.874,4331.43
637.365,3875.3
637.856,3761.57
638.347,3686.03
638.838,3708.4
639.329,3734.97
639.819,3654.6
640.31,3683.4
640.8,3661.73
641.291,3656.93
641.781,3735.77
642.271,3746.13
642.761,3667.57
643.251,3671.83
643.741,3668.33
644.231,3642.97
644.721,3626.87
645.211,3629.7
645.7,3656.0
646.19,3690.67
646.679,3587.83
647.169,3624.5
647.658,3713.03
648.147,3605.47
648.636,3660.53
649.125,3622.63
649.614,3600.7
650.103,3599.53
650.592,3674.5
651.08,3607.63
651.569,3610.43
652.058,3579.0
652.546,3505.2
653.034,3565.57
653.523,3531.57
654.011,3496.3
654.499,3539.07
654.987,3517.8
655.475,3497.67
655.963,3523.23
656.45,3467.17
656.938,3381.03
657.425,3441.63
657.913,3378.13
658.4,3371.6
658.888,3347.67
659.375,3328.5
659.862,3280.4
660.349,3323.5
660.836,3283.2
661.079,3287.83