File: spectra/VLFR_07-PET_nobio_Raman_0b8ab9bf.csv
nm,Intensity
791.377,10619.0
792.477,9531.64
793.576,9051.92
794.676,8835.16
795.775,8593.56
796.874,8478.88
797.973,8522.62
799.072,8596.76
800.171,8381.1
801.27,8364.68
802.368,8365.46
803.467,8177.96
804.565,8060.2
805.664,7987.3
806.762,7828.14
807.86,7931.76
808.958,7793.1
810.056,7666.22
811.153,7692.4
812.251,7559.38
813.349,7570.08
814.446,7487.86
815.543,7388.2
816.64,7374.28
817.737,7345.7
818.834,7227.5
819.931,7230.06
821.028,7153.74
822.125,7165.34
823.221,6979.26
824.317,7005.92
825.414,7095.4
826.51,6938.5
827.606,6848.0
828.702,6803.14
829.797,6692.16
830.893,6834.46
831.988,6603.36
833.084,6562.28
834.179,6540.02
835.274,6500.9
836.369,6457.4
837.464,6496.54
838.559,6501.84
839.654,6496.16
840.748,6725.02
841.843,6747.66
842.937,6442.18
844.031,6399.68
845.125,6190.66
846.219,6117.82
847.313,6078.92
848.407,6057.12
849.5,5992.44
850.593,5988.88
851.687,6016.3
852.78,6022.86
853.873,5924.4
854.966,5883.56
856.059,5863.24
857.151,5862.98
858.244,5950.44
859.336,5989.7
860.428,6060.5
861.52,5842.56
862.612,5720.54
863.704,5708.14
864.796,5778.1
865.888,5638.32
866.979,5574.62
868.07,5538.48
869.162,5589.78
870.253,5623.76
871.344,5726.26
872.434,5945.3
873.525,5898.88
874.615,5677.8
875.706,5508.98
876.796,5461.68
877.886,5384.84
878.976,5405.36
880.066,5356.66
881.156,5292.4
882.245,5376.56
883.335,5301.38
884.424,5295.34
885.513,5287.16
886.602,5233.72
887.691,5184.92
888.78,5111.72
889.868,5101.14
890.957,5093.76
892.045,5127.12
893.133,5048.5
894.221,5000.9
895.309,4959.3
896.397,4977.22
897.484,5199.68
898.571,5699.06
899.659,5251.32
900.746,4877.74
901.833,4837.48
902.92,4801.02
904.006,4817.9
905.093,4824.3
906.179,4892.36
907.266,5252.78
908.352,5265.78
909.438,4932.66
910.523,4744.34
911.609,4633.0
912.695,4610.52
913.78,4586.18
914.865,4549.2
915.95,4540.38
917.035,4551.2
918.12,4484.54
919.204,4493.98
920.289,4469.12
921.373,4446.0
922.457,4431.24
923.541,4397.58
924.625,4391.06
925.709,4389.36
926.792,4348.92
927.876,4316.32
928.959,4306.3
930.042,4308.14
931.125,4271.36
932.208,4248.72
933.29,4240.86
934.373,4223.68
935.455,4210.92
936.537,4191.3
937.619,4194.74
938.701,4160.86
939.782,4160.78
940.864,4150.18
941.945,4133.78
943.026,4121.18
944.107,4093.28
945.188,4093.42
946.269,4092.76
947.349,4067.6
948.43,4060.38
949.51,4051.46
950.59,4034.74
951.67,4030.48
952.75,4020.38
953.829,4002.74
954.909,4003.14
955.988,3994.54
957.067,3985.04
958.146,3981.26
959.224,3965.4
960.303,3962.16
961.381,3957.18
962.459,3948.5
963.537,3939.72
964.615,3937.6
965.693,3926.96
966.771,3921.06
967.848,3915.58
968.925,3913.12
970.002,3907.06
971.079,3896.94
972.156,3886.86
973.232,3890.18
974.309,3876.44
975.385,3875.4
976.461,3868.2
977.537,3866.38
978.612,3860.04
979.688,3860.4
980.763,3851.16
981.838,3850.8
982.913,3843.2
983.988,3843.24
985.063,3836.96
986.137,3834.08
987.211,3830.18
988.285,3832.38
989.359,3822.6
990.433,3821.24
991.506,3817.3
992.58,3809.6
993.653,3806.38
994.726,3804.04
995.799,3799.2
996.872,3800.88
997.944,3795.18
999.016,3794.8
1000.09,3791.28
1001.16,3788.24
1002.23,3784.58
1003.3,3782.44
1004.38,3783.52
1005.45,3778.2
1006.52,3776.02
1007.59,3775.4
1008.66,3771.04
1009.73,3767.9
1010.8,3769.26
1011.87,3765.78
1012.94,3764.7
1014.01,3764.22
1015.08,3763.9
1016.15,3763.36
1017.22,3759.76
1018.29,3758.34
1019.36,3757.16
1020.42,3758.2
1021.49,3765.0
1022.56,3768.08
1023.63,3763.44
1024.7,3760.98
1025.76,3756.48
1026.83,3752.72
1027.9,3749.84
1028.97,3746.24
1030.03,3743.34
1031.1,3741.44
1032.17,3742.46
1033.23,3743.94
1034.3,3747.16
1035.36,3748.6
1036.43,3747.46
1037.5,3741.38
1038.56,3737.96
1039.63,3735.86
1040.69,3736.02
1041.76,3734.06
1042.82,3734.0
1043.89,3733.64
1044.95,3732.32
1046.01,3730.36
1047.08,3731.8
1048.14,3730.94
1049.2,3730.34
1050.27,3730.12
1051.33,3730.02
1052.39,3729.76
1053.46,3728.96
1054.52,3730.3
1055.58,3729.78
1056.64,3727.96
1057.7,3728.48
1058.77,3728.08
1059.83,3728.0
1060.89,3728.8
1061.95,3728.32
1063.01,3727.34
1064.07,3727.88
1065.13,3726.86
1066.19,3726.88
1067.25,3726.44
1068.05,3726.04