File: spectra/VLFR_08-PLA_nobio_Raman_ec40a232.csv
nm,Intensity
526.532,832.7
527.079,833.35
527.625,833.55
528.172,833.65
528.718,833.8
529.265,833.85
529.811,833.95
530.357,834.45
530.903,833.55
531.449,833.1
531.994,841.9
532.54,833.25
533.085,834.1
533.63,836.15
534.176,980.35
534.721,960.8
535.266,943.5
535.81,939.6
536.355,935.95
536.9,937.55
537.444,931.25
537.988,931.65
538.533,929.1
539.077,926.7
539.621,927.95
540.165,926.15
540.708,935.15
541.252,936.15
541.795,933.7
542.339,929.15
542.882,933.5
543.425,943.3
543.968,951.95
544.511,940.1
545.054,938.65
545.597,937.6
546.139,936.15
546.682,938.05
547.224,940.95
547.766,938.8
548.308,936.4
548.85,943.75
549.392,945.45
549.934,945.0
550.475,947.9
551.017,949.1
551.558,945.8
552.1,953.05
552.641,954.5
553.182,952.95
553.723,954.8
554.264,956.25
554.804,954.65
555.345,952.9
555.885,950.9
556.426,948.9
556.966,954.1
557.506,964.25
558.046,1023.15
558.586,965.85
559.126,965.15
559.665,963.85
560.205,959.95
560.745,959.0
561.284,962.25
561.823,963.0
562.362,958.4
562.901,966.4
563.44,986.8
563.979,973.0
564.518,974.05
565.056,983.35
565.595,978.85
566.133,996.05
566.671,979.8
567.21,969.75
567.748,977.0
568.285,975.8
568.823,974.6
569.361,976.7
569.899,978.75
570.436,979.45
570.974,979.95
571.511,990.05
572.048,985.95
572.585,984.8
573.122,989.5
573.659,992.65
574.196,989.5
574.733,996.0
575.269,981.95
575.806,988.2
576.342,1000.15
576.878,1025.65
577.414,996.3
577.951,988.0
578.486,987.45
579.022,988.2
579.558,990.05
580.094,990.95
580.629,990.75
581.165,988.85
581.7,989.85
582.236,994.6
582.771,992.0
583.306,995.2
583.841,994.65
584.376,991.7
584.911,992.9
585.445,993.45
585.98,996.9
586.514,1004.2
587.049,1022.9
587.583,1037.55
588.117,1006.65
588.651,997.0
589.186,994.2
589.72,996.35
590.253,989.45
590.787,994.4
591.321,992.8
591.854,993.3
592.388,996.4
592.921,993.35
593.455,994.15
593.988,989.05
594.521,993.15
595.054,992.6
595.587,998.3
596.12,991.55
596.653,994.65
597.186,992.6
597.718,995.2
598.251,994.55
598.783,996.4
599.316,995.55
599.848,992.05
600.38,992.35
600.912,989.95
601.444,990.75
601.976,991.95
602.508,990.1
603.04,991.0
603.572,993.45
604.103,992.3
604.635,989.95
605.167,986.1
605.698,983.3
606.229,986.8
606.761,981.5
607.292,984.45
607.823,983.55
608.354,985.2
608.885,982.45
609.416,981.6
609.947,982.4
610.477,983.25
611.008,982.2
611.539,982.9
612.069,984.75
612.6,982.15
613.13,984.2
613.66,985.75
614.19,985.9
614.721,984.1
615.251,984.45
615.781,980.55
616.311,982.65
616.841,984.9
617.37,982.4
617.9,984.6
618.43,982.25
618.96,978.6
619.489,981.6
620.019,980.5
620.548,979.8
621.077,978.1
621.607,981.15
622.136,978.05
622.665,983.55
623.194,986.3
623.723,985.5
624.252,980.35
624.781,978.35
625.31,982.4
625.839,978.7
626.368,979.5
626.896,977.4
627.425,981.55
627.953,986.55
628.482,1027.65
629.01,1013.6
629.539,1013.6
630.067,1016.7
630.596,1064.4
631.124,1292.0
631.652,1115.95
632.18,1048.55
632.708,1044.35
633.236,1096.7
633.764,1070.35
634.292,1012.15
634.82,979.5
635.348,974.2
635.876,974.35
636.403,970.8
636.931,965.2
637.459,966.25
637.986,962.45
638.514,967.0
639.041,966.95
639.568,963.4
640.096,963.75
640.623,963.75
641.15,961.5
641.678,962.6
642.205,961.15
642.732,959.25
643.259,958.2
643.786,958.45
644.313,956.0
644.84,953.2
645.367,951.3
645.894,953.7
646.421,950.05
646.948,951.1
647.474,954.5
648.001,953.65
648.528,949.8
649.054,948.7
649.581,947.8
650.108,946.7
650.634,947.3
651.161,944.75
651.687,947.65
652.214,947.45
652.74,946.25
653.266,939.05
653.793,944.35
654.319,940.9
654.845,943.6
655.371,942.9
655.897,939.55
656.424,944.3
656.95,941.15
657.476,940.95
658.002,940.5
658.528,944.25
659.054,938.5
659.58,938.7
660.106,938.15
660.631,934.3
661.157,936.65
661.683,937.45
662.209,935.4
662.735,934.95
663.129,934.6