File: spectra/VLFR_01-LDPE_nobio_Raman_388a21dd.csv
nm,Intensity
528.65,1842.35
529.155,1841.55
529.66,1841.05
530.165,1842.6
530.67,1842.6
531.175,1843.7
531.68,1865.55
532.185,2529.7
532.69,1842.15
533.194,1843.2
533.699,1913.85
534.204,2084.4
534.708,2067.0
535.213,2049.95
535.717,2016.25
536.222,1998.15
536.726,1986.05
537.231,1987.15
537.735,1992.45
538.239,1981.5
538.743,1984.3
539.247,1966.3
539.751,1967.1
540.255,1964.65
540.759,1967.6
541.263,1959.2
541.767,1959.8
542.271,1953.95
542.775,1955.3
543.279,1953.4
543.782,1963.7
544.286,1960.5
544.789,1958.45
545.293,1953.3
545.796,1960.4
546.3,1946.95
546.803,1954.8
547.306,1957.4
547.81,1949.0
548.313,1954.2
548.816,1946.85
549.319,1949.95
549.822,1956.15
550.325,1947.55
550.828,1951.1
551.331,1954.15
551.834,1955.65
552.337,1957.1
552.839,1954.65
553.342,1969.55
553.844,1964.75
554.347,1964.95
554.849,1973.75
555.352,1973.2
555.854,1974.35
556.357,1978.35
556.859,1990.0
557.361,1997.6
557.863,2007.65
558.365,2008.9
558.867,1996.95
559.369,1993.9
559.871,1992.4
560.373,1989.9
560.875,1995.05
561.377,1993.5
561.878,2004.7
562.38,2004.65
562.881,2021.6
563.383,2037.95
563.884,2253.4
564.386,2114.15
564.887,2091.15
565.388,2052.95
565.89,2174.15
566.391,2150.95
566.892,2050.7
567.393,2075.2
567.894,2031.55
568.395,2028.0
568.896,2033.2
569.396,2036.15
569.897,2029.7
570.398,2066.6
570.898,2093.5
571.399,2452.3
571.9,2221.95
572.4,2133.5
572.9,2087.95
573.401,2099.5
573.901,2132.95
574.401,2110.15
574.901,2114.85
575.401,2256.55
575.901,2381.1
576.401,2664.95
576.901,2511.4
577.401,2369.05
577.901,2272.05
578.4,2279.1
578.9,2317.65
579.399,2350.55
579.899,2390.5
580.398,2437.4
580.898,2476.95
581.397,2513.65
581.896,2546.95
582.395,2577.8
582.895,2616.4
583.394,2642.5
583.893,2671.2
584.391,2740.9
584.89,2757.2
585.389,2779.45
585.888,2785.25
586.386,2850.3
586.885,2903.95
587.384,2915.0
587.882,2969.7
588.38,3046.4
588.879,3104.5
589.377,3129.3
589.875,3162.5
590.373,3234.55
590.871,3282.05
591.369,3306.95
591.867,3326.2
592.365,3402.6
592.863,3426.05
593.361,3432.25
593.858,3487.5
594.356,3457.95
594.853,3491.75
595.351,3597.6
595.848,3545.4
596.345,3589.25
596.843,3687.95
597.34,3699.2
597.837,3801.2
598.334,3736.5
598.831,3823.6
599.328,3872.6
599.824,3866.85
600.321,3947.0
600.818,3895.5
601.314,3958.1
601.811,3917.4
602.307,3915.25
602.804,3879.55
603.3,3839.8
603.796,3744.0
604.293,3644.8
604.789,3635.4
605.285,3518.5
605.781,3455.35
606.277,3435.0
606.772,3367.7
607.268,3289.9
607.764,3216.65
608.259,3184.6
608.755,3146.45
609.25,3079.55
609.746,3055.25
610.241,3024.7
610.736,2992.1
611.231,2975.3
611.727,2968.3
612.222,2912.35
612.716,2868.0
613.211,2828.55
613.706,2825.15
614.201,2804.8
614.695,2794.65
615.19,2795.5
615.684,2721.65
616.179,2742.05
616.673,2700.35
617.168,2691.8
617.662,2727.15
618.156,2683.7
618.65,2676.7
619.144,2650.95
619.638,2671.45
620.131,2679.3
620.625,2669.25
621.119,2669.45
621.612,2714.35
622.106,2764.25
622.599,2732.65
623.093,2624.85
623.586,2627.45
624.079,2583.25
624.572,2581.6
625.065,2597.35
625.558,2600.1
626.051,2662.9
626.544,3070.85
627.037,5037.9
627.529,4784.55
628.022,4439.4
628.514,5924.05
629.007,4500.35
629.499,4047.75
629.991,3714.1
630.483,3575.4
630.976,3114.95
631.468,2745.15
631.959,2657.15
632.451,2630.65
632.943,2579.5
633.435,2617.3
633.926,2584.6
634.418,2562.45
634.909,2584.45
635.401,2560.45
635.892,2545.1
636.383,2554.9
636.874,2584.3
637.365,2582.95
637.856,2566.2
638.347,2589.4
638.838,2599.6
639.329,2588.25
639.819,2600.05
640.31,2615.1
640.8,2592.65
641.291,2631.9
641.781,2625.45
642.271,2634.2
642.761,2646.5
643.251,2633.25
643.741,2679.0
644.231,2661.7
644.721,2671.05
645.211,2659.15
645.7,2678.3
646.19,2668.75
646.679,2682.05
647.169,2682.15
647.658,2679.7
648.147,2653.55
648.636,2683.75
649.125,2663.2
649.614,2661.95
650.103,2653.5
650.592,2637.9
651.08,2649.8
651.569,2648.3
652.058,2688.4
652.546,2656.55
653.034,2635.75
653.523,2667.35
654.011,2652.0
654.499,2623.5
654.987,2602.8
655.475,2618.8
655.963,2584.6
656.45,2593.4
656.938,2557.2
657.425,2568.1
657.913,2538.15
658.4,2513.2
658.888,2489.85
659.375,2460.55
659.862,2471.3
660.349,2410.7
660.836,2392.7
661.079,2408.45