File: spectra/VLFR_08-PLA_nobio_Raman_68ff7cab.csv
nm,Intensity
526.547,832.4
527.094,831.7
527.641,832.9
528.188,832.2
528.734,831.6
529.281,831.3
529.827,833.9
530.373,832.9
530.92,833.4
531.466,831.7
532.011,833.9
532.557,833.1
533.103,833.0
533.648,836.0
534.193,1083.8
534.738,1044.4
535.283,1006.8
535.828,993.9
536.373,987.0
536.917,986.7
537.462,983.9
538.006,984.3
538.55,973.9
539.094,977.6
539.638,968.5
540.182,965.5
540.726,982.8
541.269,986.5
541.812,980.7
542.356,974.9
542.899,980.5
543.442,1008.4
543.985,1019.4
544.527,993.8
545.07,982.6
545.612,984.9
546.155,986.7
546.697,987.2
547.239,993.0
547.781,989.9
548.323,989.7
548.865,995.7
549.406,1002.8
549.948,997.2
550.489,996.8
551.03,1002.7
551.572,1010.8
552.113,1008.7
552.654,1011.8
553.194,1010.0
553.735,1016.6
554.276,1022.7
554.816,1016.2
555.356,1008.0
555.896,1006.3
556.437,1010.9
556.977,1012.2
557.516,1029.1
558.056,1152.1
558.596,1047.1
559.135,1027.4
559.675,1025.2
560.214,1025.4
560.753,1019.0
561.292,1018.3
561.831,1019.0
562.37,1019.0
562.909,1033.1
563.448,1061.2
563.986,1044.1
564.525,1040.3
565.063,1059.6
565.601,1058.6
566.139,1089.5
566.677,1048.1
567.215,1033.8
567.753,1040.9
568.291,1037.1
568.828,1044.4
569.366,1046.7
569.903,1047.7
570.441,1041.5
570.978,1038.4
571.515,1068.2
572.052,1060.3
572.589,1063.1
573.126,1062.2
573.662,1062.8
574.199,1062.9
574.735,1067.9
575.272,1049.0
575.808,1047.6
576.344,1077.8
576.88,1134.1
577.416,1073.2
577.952,1058.5
578.488,1050.8
579.024,1054.8
579.559,1052.4
580.095,1051.6
580.63,1059.9
581.166,1052.3
581.701,1052.9
582.236,1052.5
582.771,1058.7
583.306,1064.5
583.841,1065.4
584.376,1063.3
584.911,1059.2
585.445,1059.3
585.98,1067.5
586.514,1075.1
587.048,1119.9
587.583,1139.6
588.117,1084.1
588.651,1065.8
589.185,1062.9
589.719,1057.4
590.253,1060.9
590.786,1060.0
591.32,1063.6
591.853,1064.9
592.387,1060.9
592.92,1060.5
593.454,1055.3
593.987,1058.5
594.52,1064.7
595.053,1059.1
595.586,1057.2
596.119,1060.2
596.651,1060.2
597.184,1063.0
597.717,1064.4
598.249,1064.3
598.782,1061.5
599.314,1062.8
599.846,1057.0
600.379,1065.4
600.911,1061.2
601.443,1060.1
601.975,1056.9
602.507,1055.2
603.038,1061.7
603.57,1057.9
604.102,1059.6
604.633,1057.9
605.165,1049.6
605.696,1042.3
606.228,1048.7
606.759,1046.9
607.29,1050.7
607.821,1051.3
608.352,1051.3
608.883,1052.3
609.414,1048.6
609.945,1046.9
610.476,1046.4
611.006,1044.6
611.537,1047.5
612.067,1051.1
612.598,1051.0
613.128,1052.6
613.659,1053.5
614.189,1055.2
614.719,1046.6
615.249,1052.4
615.779,1045.6
616.309,1047.1
616.839,1051.1
617.369,1047.3
617.899,1052.6
618.428,1050.3
618.958,1048.0
619.487,1047.0
620.017,1041.7
620.546,1049.2
621.076,1047.6
621.605,1040.6
622.134,1040.9
622.663,1045.2
623.193,1056.1
623.722,1051.3
624.251,1042.2
624.78,1047.0
625.308,1049.3
625.837,1042.8
626.366,1043.6
626.895,1042.8
627.423,1047.6
627.952,1056.4
628.48,1129.2
629.009,1100.8
629.537,1110.0
630.065,1113.5
630.594,1184.2
631.122,1601.9
631.65,1290.6
632.178,1165.7
632.706,1151.8
633.234,1255.9
633.762,1208.4
634.29,1104.5
634.818,1052.5
635.346,1035.1
635.873,1029.7
636.401,1027.9
636.929,1023.7
637.456,1030.2
637.984,1021.9
638.511,1018.7
639.039,1019.2
639.566,1017.4
640.093,1017.0
640.62,1020.8
641.148,1019.6
641.675,1016.3
642.202,1020.7
642.729,1017.3
643.256,1012.1
643.783,1013.5
644.31,1007.2
644.837,1003.0
645.364,1005.1
645.891,1002.9
646.417,1001.8
646.944,1004.4
647.471,1000.7
647.997,999.0
648.524,999.5
649.051,996.1
649.577,994.8
650.104,992.5
650.63,999.2
651.157,993.7
651.683,991.4
652.209,991.9
652.736,994.1
653.262,994.3
653.788,992.6
654.314,994.0
654.84,989.4
655.366,987.2
655.893,985.8
656.419,985.8
656.945,986.3
657.471,991.2
657.997,992.6
658.522,980.9
659.048,984.0
659.574,981.8
660.1,985.5
660.626,975.9
661.152,982.3
661.677,984.1
662.203,981.7
662.729,977.3
663.123,979.8