File: spectra/VLFR_09-PET_bio_Raman_570a1bca.csv
nm,Intensity
526.547,833.35
527.095,832.85
527.642,832.2
528.189,834.1
528.736,832.1
529.283,832.0
529.829,832.55
530.376,832.05
530.922,834.15
531.468,833.8
532.014,837.15
532.56,833.4
533.106,832.75
533.651,858.25
534.196,2616.45
534.742,2401.3
535.287,2129.05
535.832,2038.9
536.376,1932.6
536.921,1903.15
537.465,1880.75
538.01,1884.25
538.554,1899.0
539.098,1903.5
539.642,1947.65
540.186,1971.05
540.729,1949.5
541.273,1949.5
541.816,1964.9
542.36,1975.65
542.903,2000.45
543.446,2022.45
543.988,2034.35
544.531,2038.5
545.074,2066.95
545.616,2083.0
546.158,2092.15
546.701,2121.15
547.243,2121.8
547.785,2140.6
548.326,2150.25
548.868,2190.3
549.41,2193.5
549.951,2193.45
550.492,2255.7
551.034,2246.0
551.575,2248.25
552.116,2266.45
552.656,2279.3
553.197,2298.1
553.738,2305.95
554.278,2326.45
554.819,2335.8
555.359,2360.3
555.899,2403.7
556.439,2425.85
556.979,2456.3
557.519,2758.1
558.058,2528.55
558.598,2481.3
559.137,2464.75
559.677,2477.55
560.216,2498.25
560.755,2511.5
561.294,2535.3
561.833,2574.8
562.371,2613.15
562.91,2608.7
563.449,2621.45
563.987,2656.5
564.525,2711.7
565.064,2918.45
565.602,2862.9
566.14,2844.15
566.678,2747.8
567.216,2727.5
567.753,2853.25
568.291,2805.15
568.828,2791.5
569.366,2833.9
569.903,2856.45
570.44,2936.6
570.977,3160.55
571.514,3395.75
572.051,3094.2
572.588,2972.85
573.125,2969.15
573.661,2976.9
574.198,3008.0
574.734,3017.3
575.271,3080.35
575.807,3058.35
576.343,3082.95
576.879,3124.2
577.415,3139.85
577.951,3100.6
578.486,3118.3
579.022,3143.5
579.557,3142.65
580.093,3162.65
580.628,3172.9
581.164,3220.8
581.699,3418.65
582.234,5381.6
582.769,3320.95
583.304,3276.3
583.838,3267.0
584.373,3300.65
584.908,3320.45
585.442,3470.1
585.977,4392.65
586.511,3904.8
587.045,3452.75
587.58,3416.65
588.114,3384.95
588.648,3367.15
589.182,3366.9
589.715,3369.3
590.249,3381.5
590.783,3414.3
591.316,3429.65
591.85,3429.6
592.383,3417.75
592.917,3416.95
593.45,3418.55
593.983,3432.5
594.516,3454.15
595.049,3484.65
595.582,3499.5
596.115,3511.9
596.648,3515.85
597.18,3546.3
597.713,3538.8
598.245,3572.5
598.778,3586.2
599.31,3623.45
599.842,3612.8
600.375,3610.2
600.907,3603.55
601.439,3625.85
601.971,3622.55
602.503,3639.8
603.034,3673.85
603.566,3690.85
604.098,3706.85
604.629,3699.9
605.161,3688.95
605.692,3677.7
606.224,3671.8
606.755,3698.35
607.286,3727.85
607.817,3760.15
608.348,3799.8
608.879,3834.5
609.41,3840.95
609.941,3865.5
610.472,3875.85
611.002,3900.7
611.533,3937.9
612.063,3997.85
612.594,4060.3
613.124,4112.65
613.655,4172.9
614.185,4188.45
614.715,4230.3
615.245,4242.25
615.775,4267.15
616.305,4287.15
616.835,4355.65
617.365,4411.55
617.895,4464.55
618.425,4506.6
618.954,4526.4
619.484,4556.55
620.013,4558.35
620.543,4611.45
621.072,4646.7
621.602,4662.4
622.131,4707.95
622.66,4772.1
623.189,4837.0
623.718,4869.0
624.247,4937.95
624.776,4979.55
625.305,5010.2
625.834,5034.9
626.363,5053.95
626.891,5090.3
627.42,5108.4
627.949,5151.65
628.477,5222.05
629.006,5250.95
629.534,5330.85
630.062,5340.75
630.591,5412.3
631.119,5467.15
631.647,5595.5
632.175,5660.15
632.703,5567.6
633.231,5579.05
633.759,5596.35
634.287,5573.3
634.815,5591.95
635.343,5646.1
635.871,5790.35
636.398,6052.7
636.926,6002.85
637.454,5802.9
637.981,5794.55
638.509,5816.3
639.036,5825.85
639.564,5872.8
640.091,5880.8
640.618,5909.65
641.146,5949.8
641.673,5962.95
642.2,5990.6
642.727,5986.4
643.254,5976.2
643.781,5942.65
644.308,5937.2
644.835,5958.15
645.362,5956.8
645.889,5971.3
646.416,6006.3
646.942,6012.6
647.469,6054.9
647.996,6075.35
648.522,6048.4
649.049,6044.25
649.576,6053.3
650.102,6048.0
650.629,6040.75
651.155,6043.1
651.682,6101.4
652.208,6094.95
652.734,6096.3
653.261,6125.4
653.787,6138.25
654.313,6148.45
654.839,6133.1
655.365,6138.0
655.892,6162.35
656.418,6133.65
656.944,6175.6
657.47,6177.65
657.996,6191.95
658.522,6201.7
659.048,6199.0
659.574,6243.6
660.099,6224.2
660.625,6207.35
661.151,6154.65
661.677,6147.3
662.203,6157.15
662.728,6148.05
663.123,6112.6