File: spectra/VLFR_02-HDPE_bio_Raman_a43c1314.csv
nm,Intensity
526.495,829.3
527.042,828.8
527.589,830.8
528.136,829.5
528.682,828.4
529.229,829.1
529.775,827.8
530.321,830.7
530.867,828.7
531.413,828.6
531.959,830.3
532.505,831.0
533.051,827.9
533.596,830.4
534.141,896.1
534.687,883.4
535.232,873.7
535.777,858.0
536.321,855.5
536.866,850.4
537.41,849.0
537.955,851.8
538.499,849.5
539.043,851.0
539.587,847.1
540.131,845.8
540.675,842.2
541.219,841.7
541.762,843.4
542.305,842.7
542.849,842.3
543.392,842.1
543.935,841.7
544.478,841.4
545.02,839.6
545.563,840.8
546.106,841.1
546.648,839.7
547.19,841.0
547.732,841.7
548.274,840.2
548.816,840.5
549.358,838.8
549.9,840.9
550.441,843.4
550.983,840.8
551.524,842.4
552.065,841.8
552.606,843.0
553.147,842.0
553.688,845.2
554.229,843.0
554.769,842.6
555.31,844.9
555.85,844.4
556.391,844.5
556.931,845.4
557.471,847.0
558.011,848.9
558.551,848.9
559.09,845.3
559.63,848.2
560.169,845.0
560.709,846.5
561.248,846.5
561.787,847.4
562.326,846.2
562.865,849.8
563.404,850.5
563.943,910.1
564.481,871.9
565.02,863.0
565.558,858.4
566.096,931.4
566.634,858.7
567.172,854.9
567.71,857.4
568.248,850.8
568.786,849.4
569.324,850.5
569.861,849.3
570.399,854.7
570.936,856.8
571.473,961.3
572.01,876.9
572.547,857.9
573.084,855.4
573.621,852.9
574.158,856.8
574.694,850.7
575.231,855.2
575.767,898.6
576.303,989.0
576.84,927.1
577.376,895.6
577.912,861.9
578.448,856.9
578.984,855.0
579.519,855.5
580.055,853.7
580.59,854.9
581.126,854.1
581.661,856.7
582.196,856.8
582.731,857.7
583.267,860.9
583.801,858.5
584.336,861.8
584.871,861.2
585.406,864.0
585.94,866.5
586.475,865.8
587.009,866.4
587.543,870.1
588.078,874.3
588.612,875.0
589.146,877.0
589.68,877.5
590.214,884.4
590.747,885.8
591.281,886.1
591.815,886.8
592.348,887.0
592.881,888.3
593.415,886.6
593.948,889.9
594.481,888.0
595.014,892.2
595.547,891.2
596.08,891.8
596.613,888.4
597.146,894.5
597.678,893.2
598.211,896.6
598.743,893.9
599.276,893.6
599.808,897.7
600.34,891.7
600.872,891.6
601.404,895.7
601.936,893.5
602.468,891.9
603.0,889.0
603.532,886.5
604.064,889.7
604.595,888.3
605.127,883.0
605.658,885.2
606.189,880.0
606.721,876.8
607.252,873.9
607.783,876.6
608.314,874.5
608.845,873.2
609.376,873.9
609.907,871.2
610.438,874.3
610.968,873.3
611.499,873.5
612.029,872.9
612.56,870.3
613.09,870.4
613.621,869.7
614.151,870.6
614.681,871.7
615.211,870.2
615.741,868.9
616.271,871.6
616.801,872.2
617.331,878.6
617.861,879.6
618.39,878.0
618.92,877.0
619.45,877.5
619.979,880.2
620.509,881.6
621.038,884.8
621.567,896.3
622.096,921.4
622.626,916.0
623.155,889.6
623.684,884.4
624.213,883.5
624.742,882.3
625.271,889.2
625.799,892.2
626.328,922.7
626.857,1170.4
627.386,1598.0
627.914,1289.2
628.443,1543.2
628.971,1378.3
629.5,1244.6
630.028,1128.5
630.556,1103.0
631.084,977.3
631.613,912.3
632.141,894.5
632.669,890.3
633.197,887.5
633.725,879.1
634.253,879.9
634.781,878.6
635.308,876.3
635.836,875.6
636.364,880.3
636.891,876.5
637.419,875.9
637.947,876.6
638.474,874.7
639.002,877.2
639.529,874.0
640.056,875.8
640.584,874.0
641.111,878.2
641.638,875.5
642.165,878.9
642.692,879.6
643.219,874.9
643.746,878.0
644.273,877.8
644.8,878.0
645.327,878.6
645.854,880.4
646.381,879.4
646.908,880.9
647.434,876.5
647.961,879.2
648.488,874.8
649.014,875.8
649.541,877.1
650.067,874.2
650.594,878.3
651.12,873.6
651.646,875.2
652.173,873.5
652.699,875.3
653.225,872.3
653.752,874.4
654.278,876.3
654.804,874.6
655.33,873.6
655.856,873.5
656.382,870.0
656.908,871.6
657.434,870.8
657.96,870.0
658.486,869.5
659.012,868.2
659.538,868.5
660.064,867.7
660.589,867.0
661.115,863.5
661.641,864.7
662.166,860.4
662.692,861.5
663.086,862.8