File: spectra/VLFR_08-PLA_nobio_Raman_af1cc8bc.csv
cm-1,Intensity
-123.878,1851.6
-105.821,1852.95
-87.8007,1852.2
-69.8161,1852.4
-51.8675,1853.75
-33.9547,1853.65
-16.0776,1871.15
1.76388,2677.95
19.5698,1853.05
37.3403,1853.45
55.0755,1938.0
72.7754,2137.7
90.4402,2133.2
108.07,2121.65
125.665,2122.85
143.225,2104.55
160.75,2124.6
178.241,2107.65
195.697,2126.75
213.119,2110.5
230.506,2108.3
247.859,2115.1
265.178,2114.7
282.463,2116.85
299.713,2139.3
316.93,2135.5
334.113,2124.4
351.263,2147.5
368.379,2138.2
385.461,2172.0
402.51,2201.55
419.526,2172.45
436.508,2159.0
453.458,2156.2
470.374,2157.05
487.257,2165.5
504.107,2164.65
520.925,2173.45
537.71,2176.55
554.462,2181.65
571.182,2190.05
587.87,2193.6
604.525,2201.3
621.148,2202.45
637.739,2212.25
654.297,2214.15
670.824,2221.65
687.319,2224.5
703.782,2231.45
720.213,2236.7
736.613,2242.1
752.981,2230.25
769.317,2235.25
785.623,2230.55
801.897,2223.55
818.139,2226.8
834.351,2233.5
850.532,2253.8
866.681,2380.7
882.8,2340.5
898.888,2271.75
914.945,2278.1
930.972,2267.8
946.968,2263.25
962.934,2265.75
978.869,2270.3
994.774,2275.45
1010.65,2273.25
1026.49,2296.1
1042.31,2360.55
1058.09,2313.65
1073.85,2303.7
1089.57,2339.7
1105.27,2343.6
1120.93,2354.15
1136.57,2351.25
1152.18,2324.75
1167.75,2316.9
1183.3,2339.1
1198.82,2321.35
1214.31,2344.65
1229.77,2334.8
1245.2,2321.95
1260.6,2320.0
1275.97,2337.1
1291.32,2393.9
1306.63,2381.4
1321.92,2369.85
1337.18,2352.7
1352.41,2371.0
1367.61,2379.35
1382.78,2369.5
1397.93,2357.2
1413.05,2345.65
1428.14,2362.05
1443.2,2408.1
1458.23,2438.05
1473.23,2390.65
1488.21,2362.55
1503.16,2362.0
1518.08,2344.1
1532.97,2350.1
1547.84,2355.6
1562.68,2345.3
1577.49,2356.85
1592.27,2344.35
1607.03,2368.95
1621.76,2358.5
1636.46,2349.75
1651.14,2345.55
1665.78,2339.05
1680.41,2360.3
1695.0,2356.85
1709.57,2348.65
1724.11,2344.85
1738.62,2351.55
1753.11,2398.45
1767.57,2449.0
1782.01,2425.05
1796.41,2362.6
1810.8,2367.4
1825.15,2339.5
1839.48,2349.2
1853.79,2359.2
1868.06,2337.45
1882.31,2350.95
1896.54,2341.8
1910.74,2354.1
1924.91,2342.95
1939.06,2335.55
1953.19,2351.4
1967.28,2340.75
1981.35,2345.6
1995.4,2348.8
2009.42,2341.75
2023.42,2343.35
2037.39,2346.4
2051.33,2334.8
2065.25,2337.3
2079.15,2336.85
2093.01,2355.15
2106.86,2356.05
2120.68,2353.7
2134.47,2359.5
2148.24,2348.8
2161.99,2348.5
2175.71,2344.7
2189.41,2352.4
2203.08,2358.85
2216.73,2351.05
2230.35,2344.05
2243.95,2361.65
2257.52,2348.6
2271.07,2348.45
2284.6,2346.55
2298.1,2351.55
2311.58,2348.55
2325.03,2368.65
2338.46,2341.1
2351.87,2334.75
2365.25,2341.6
2378.61,2336.4
2391.94,2327.55
2405.26,2344.75
2418.54,2340.45
2431.81,2352.95
2445.05,2331.8
2458.27,2327.25
2471.46,2320.45
2484.63,2329.6
2497.78,2342.55
2510.9,2346.7
2524.0,2323.7
2537.08,2337.35
2550.14,2318.05
2563.17,2325.75
2576.18,2320.8
2589.17,2322.7
2602.13,2308.85
2615.07,2310.85
2627.99,2306.85
2640.89,2300.65
2653.76,2314.9
2666.61,2311.55
2679.44,2320.4
2692.25,2311.2
2705.03,2305.7
2717.79,2305.7
2730.53,2323.5
2743.25,2325.6
2755.94,2320.5
2768.61,2318.9
2781.27,2301.1
2793.89,2289.55
2806.5,2282.4
2819.09,2293.2
2831.65,2280.95
2844.19,2282.55
2856.71,2294.75
2869.21,2339.1
2881.69,2418.25
2894.14,2401.05
2906.58,2403.9
2918.99,2394.1
2931.38,2521.6
2943.75,3199.5
2956.1,2879.4
2968.42,2559.05
2980.73,2455.3
2993.01,2571.95
3005.28,2640.05
3017.52,2477.05
3029.74,2324.35
3041.94,2291.4
3054.12,2252.6
3066.28,2239.3
3078.42,2238.2
3090.54,2236.15
3102.63,2224.4
3114.71,2219.35
3126.77,2214.2
3138.8,2218.35
3150.82,2214.85
3162.81,2209.5
3174.78,2201.1
3186.74,2201.15
3198.67,2193.1
3210.58,2198.95
3222.47,2194.55
3234.35,2211.05
3246.2,2186.05
3258.03,2184.25
3269.84,2193.0
3281.64,2184.1
3293.41,2179.15
3305.16,2171.1
3316.89,2168.4
3328.61,2151.45
3340.3,2148.8
3351.97,2161.0
3363.63,2143.9
3375.26,2141.75
3386.88,2144.05
3398.47,2135.5
3410.05,2139.0
3421.6,2144.9
3433.14,2129.85
3444.66,2126.95
3456.15,2135.1
3467.63,2121.7
3479.09,2114.3
3490.53,2113.2
3501.96,2116.85
3513.36,2117.4
3524.74,2107.35
3536.11,2119.0
3547.45,2094.6
3558.78,2097.6
3570.09,2097.15
3581.37,2088.9
3592.64,2093.65
3603.9,2094.95
3615.13,2090.0
3626.34,2070.4
3637.54,2068.1
3648.72,2079.4
3659.87,2069.5
3665.45,2069.6