File: spectra/VLFR_01-LDPE_nobio_Raman_c0c6453c.csv
nm,Intensity
526.486,830.7
527.033,830.7
527.579,830.8
528.126,829.8
528.672,829.6
529.219,829.5
529.765,829.9
530.311,828.9
530.857,830.8
531.403,830.8
531.948,832.4
532.494,829.8
533.039,830.4
533.585,829.7
534.13,858.2
534.675,855.4
535.22,852.9
535.764,847.0
536.309,845.5
536.854,847.0
537.398,842.9
537.942,843.0
538.486,842.3
539.03,841.5
539.574,842.3
540.118,841.3
540.662,841.6
541.205,842.6
541.749,839.2
542.292,842.1
542.835,842.3
543.378,841.2
543.921,841.0
544.464,841.0
545.006,840.5
545.549,842.3
546.091,841.6
546.634,841.5
547.176,840.9
547.718,839.9
548.26,841.3
548.802,840.8
549.343,840.8
549.885,843.2
550.426,841.1
550.968,840.0
551.509,844.1
552.05,844.5
552.591,844.4
553.132,842.3
553.673,845.0
554.214,842.8
554.754,845.8
555.295,846.5
555.835,842.9
556.375,845.6
556.915,846.5
557.455,844.9
557.995,848.0
558.535,847.9
559.075,846.1
559.614,847.4
560.154,846.6
560.693,848.5
561.232,848.9
561.772,849.4
562.311,850.3
562.85,849.8
563.388,849.7
563.927,878.0
564.466,860.6
565.004,857.2
565.543,855.1
566.081,903.6
566.619,858.9
567.157,854.6
567.695,855.6
568.233,852.8
568.771,852.1
569.309,854.5
569.846,852.3
570.384,857.0
570.921,858.4
571.458,900.5
571.995,865.3
572.532,859.2
573.069,857.0
573.606,858.6
574.143,863.5
574.68,859.8
575.216,861.9
575.753,894.7
576.289,906.9
576.825,892.7
577.361,884.8
577.897,869.4
578.433,868.1
578.969,870.5
579.505,872.3
580.041,871.8
580.576,871.6
581.112,874.4
581.647,875.3
582.183,875.3
582.718,877.9
583.253,882.8
583.788,886.1
584.323,886.4
584.858,889.3
585.392,890.3
585.927,898.1
586.462,899.6
586.996,899.6
587.53,905.3
588.065,908.1
588.599,908.9
589.133,911.1
589.667,917.1
590.201,916.0
590.735,924.0
591.268,929.9
591.802,928.9
592.335,935.0
592.869,939.1
593.402,941.4
593.936,943.8
594.469,948.5
595.002,952.0
595.535,958.0
596.068,962.4
596.601,961.6
597.133,968.4
597.666,974.4
598.199,974.3
598.731,981.8
599.264,979.8
599.796,986.8
600.328,984.2
600.86,982.7
601.393,988.2
601.925,985.1
602.457,985.3
602.988,983.2
603.52,978.3
604.052,980.5
604.583,975.4
605.115,971.8
605.646,962.6
606.178,965.6
606.709,957.4
607.24,956.0
607.771,946.8
608.302,950.8
608.833,949.1
609.364,946.9
609.895,946.5
610.426,937.8
610.957,943.4
611.487,941.3
612.018,934.2
612.548,936.4
613.078,935.6
613.609,930.6
614.139,932.2
614.669,933.4
615.199,931.9
615.729,927.5
616.259,930.5
616.789,926.3
617.319,928.2
617.849,924.5
618.378,925.3
618.908,921.5
619.437,922.9
619.967,921.1
620.496,920.4
621.025,925.6
621.555,924.6
622.084,929.4
622.613,933.1
623.142,921.6
623.671,915.8
624.2,910.0
624.729,912.2
625.258,912.6
625.786,910.3
626.315,923.4
626.844,1011.9
627.372,1205.3
627.901,1074.5
628.429,1134.6
628.957,1105.7
629.486,1059.0
630.014,1011.1
630.542,996.4
631.07,948.4
631.598,915.9
632.126,906.7
632.654,900.5
633.182,899.4
633.71,897.6
634.237,895.3
634.765,897.7
635.293,894.3
635.82,895.8
636.348,893.3
636.875,895.4
637.403,894.9
637.93,894.2
638.458,895.2
638.985,896.8
639.512,895.6
640.039,896.0
640.566,896.9
641.093,897.1
641.62,897.5
642.147,900.9
642.674,901.1
643.201,898.0
643.728,900.1
644.255,899.4
644.781,902.2
645.308,900.0
645.835,899.8
646.361,902.1
646.888,905.0
647.414,907.7
647.941,901.8
648.467,903.6
648.993,905.6
649.52,902.4
650.046,907.1
650.572,908.0
651.098,902.9
651.625,907.5
652.151,909.3
652.677,905.8
653.203,908.8
653.729,911.1
654.255,908.0
654.78,905.2
655.306,906.9
655.832,909.1
656.358,906.1
656.884,902.7
657.409,903.6
657.935,902.3
658.461,902.9
658.986,903.9
659.512,900.2
660.037,897.9
660.563,897.0
661.088,896.4
661.614,894.4
662.139,895.3
662.664,889.6
663.058,889.7