File: spectra/VLFR_07-PET_nobio_Raman_b6443e02.csv
nm,Intensity
782.722,3748.06
783.822,3756.26
784.922,5678.86
786.022,3979.98
787.122,3764.46
788.222,6820.38
789.321,13262.7
790.421,12158.1
791.52,10832.0
792.619,9923.8
793.718,9277.16
794.817,8980.06
795.916,8909.6
797.015,8827.18
798.114,8824.8
799.212,8738.8
800.311,8728.06
801.409,8702.52
802.507,8674.52
803.605,8410.0
804.703,8423.32
805.801,8286.68
806.899,8155.66
807.997,8091.54
809.094,8050.0
810.191,8008.8
811.289,7910.6
812.386,7882.5
813.483,7828.16
814.58,7798.82
815.677,7704.2
816.774,7546.56
817.87,7634.0
818.967,7544.96
820.063,7420.1
821.159,7505.04
822.255,7318.56
823.351,7332.64
824.447,7281.62
825.543,7415.36
826.639,7324.22
827.734,7098.84
828.83,7089.46
829.925,7021.36
831.02,7127.62
832.115,6974.66
833.21,6869.48
834.305,6831.28
835.4,6718.8
836.494,6796.06
837.589,6912.34
838.683,6814.02
839.777,6789.12
840.871,6963.48
841.965,6951.32
843.059,6696.04
844.152,6637.28
845.246,6462.72
846.339,6394.08
847.433,6359.92
848.526,6286.24
849.619,6224.72
850.712,6239.22
851.804,6239.0
852.897,6315.48
853.989,6165.68
855.082,6134.88
856.174,6044.18
857.266,6062.94
858.358,6187.34
859.45,6238.2
860.542,6256.88
861.633,6135.54
862.725,5998.12
863.816,5968.12
864.907,6072.22
865.998,5910.0
867.089,5792.38
868.18,5858.92
869.27,5876.18
870.361,5896.48
871.451,5958.46
872.541,6227.7
873.631,6253.84
874.721,6002.5
875.811,5807.2
876.901,5743.52
877.99,5641.42
879.08,5708.1
880.169,5610.66
881.258,5580.94
882.347,5613.48
883.436,5600.5
884.524,5559.1
885.613,5596.26
886.701,5479.64
887.79,5428.84
888.878,5413.6
889.966,5326.94
891.053,5367.02
892.141,5306.16
893.229,5304.38
894.316,5241.88
895.403,5210.0
896.49,5207.0
897.577,5375.1
898.664,6028.04
899.751,5533.58
900.837,5097.72
901.923,5005.54
903.01,5035.48
904.096,5006.76
905.181,4974.04
906.267,5107.16
907.353,5403.02
908.438,5459.14
909.523,5181.12
910.609,4936.3
911.694,4826.28
912.778,4790.72
913.863,4755.78
914.948,4695.42
916.032,4703.46
917.116,4666.8
918.2,4674.28
919.284,4608.58
920.368,4618.92
921.452,4598.62
922.535,4579.58
923.618,4535.9
924.701,4497.52
925.784,4501.76
926.867,4480.88
927.95,4448.2
929.032,4430.56
930.115,4400.24
931.197,4370.06
932.279,4346.92
933.361,4340.48
934.442,4323.88
935.524,4302.98
936.605,4284.76
937.687,4265.68
938.768,4247.5
939.849,4255.42
940.929,4234.42
942.01,4206.26
943.09,4200.1
944.171,4183.84
945.251,4178.06
946.331,4166.56
947.41,4142.88
948.49,4129.6
949.569,4122.86
950.649,4106.72
951.728,4112.98
952.807,4092.22
953.885,4073.9
954.964,4070.32
956.042,4064.82
957.121,4051.82
958.199,4050.84
959.277,4034.42
960.354,4027.42
961.432,4019.56
962.509,4014.9
963.587,3998.74
964.664,3989.78
965.741,3978.36
966.817,3981.66
967.894,3972.44
968.97,3971.26
970.047,3961.38
971.123,3951.26
972.198,3949.58
973.274,3946.58
974.35,3937.58
975.425,3927.54
976.5,3924.14
977.575,3919.76
978.65,3913.04
979.725,3907.92
980.799,3902.12
981.873,3899.5
982.947,3896.46
984.021,3888.16
985.095,3884.04
986.169,3880.96
987.242,3880.34
988.315,3874.34
989.388,3869.42
990.461,3859.84
991.534,3854.82
992.607,3854.02
993.679,3850.0
994.751,3847.56
995.823,3841.28
996.895,3840.78
997.966,3832.76
999.038,3829.44
1000.11,3824.52
1001.18,3827.48
1002.25,3823.84
1003.32,3821.5
1004.39,3817.64
1005.46,3816.12
1006.53,3809.74
1007.6,3809.42
1008.67,3803.38
1009.74,3802.84
1010.81,3801.36
1011.88,3799.06
1012.95,3796.96
1014.02,3797.74
1015.09,3795.4
1016.16,3793.5
1017.22,3791.36
1018.29,3787.9
1019.36,3786.56
1020.43,3787.9
1021.49,3793.3
1022.56,3794.7
1023.63,3795.92
1024.7,3787.92
1025.76,3786.1
1026.83,3781.92
1027.9,3778.34
1028.96,3773.44
1030.03,3770.52
1031.09,3770.08
1032.16,3769.38
1033.22,3769.28
1034.29,3773.2
1035.35,3772.88
1036.42,3771.74
1037.48,3767.72
1038.55,3765.42
1039.61,3761.44
1040.68,3760.72
1041.74,3759.78
1042.8,3758.68
1043.87,3757.32
1044.93,3757.18
1045.99,3756.04
1047.06,3756.48
1048.12,3755.46
1049.18,3755.62
1050.24,3755.14
1051.31,3754.86
1052.37,3754.16
1053.43,3754.14
1054.49,3753.6
1055.55,3753.02
1056.61,3753.02
1057.67,3753.42
1058.73,3751.56
1059.53,3751.9