File: spectra/VLFR_07-PET_nobio_Raman_c629f37e.csv
nm,Intensity
791.588,7283.0
792.685,7122.3
793.781,6987.0
794.878,6970.6
795.975,6948.0
797.071,6933.8
798.168,6858.6
799.264,6866.3
800.36,6816.7
801.456,6760.4
802.552,6744.1
803.648,6758.2
804.744,6710.2
805.84,6705.3
806.936,6721.4
808.031,6612.2
809.127,6615.1
810.222,6562.2
811.317,6568.3
812.412,6488.8
813.507,6455.2
814.602,6416.9
815.697,6330.0
816.792,6323.6
817.887,6311.5
818.981,6230.0
820.076,6202.5
821.17,6129.5
822.265,6128.6
823.359,6100.0
824.453,6081.9
825.547,6031.0
826.641,5925.0
827.735,5958.1
828.828,5878.0
829.922,5832.7
831.016,5810.7
832.109,5759.0
833.202,5722.8
834.295,5730.7
835.388,5643.8
836.481,5653.1
837.574,5671.6
838.667,5677.3
839.76,5581.6
840.852,5651.8
841.945,5627.8
843.037,5548.7
844.129,5513.2
845.221,5506.3
846.314,5434.2
847.405,5401.2
848.497,5369.0
849.589,5375.2
850.681,5359.5
851.772,5327.5
852.863,5329.0
853.955,5308.6
855.046,5275.5
856.137,5313.5
857.228,5227.8
858.318,5271.0
859.409,5279.0
860.5,5272.3
861.59,5212.0
862.681,5160.4
863.771,5168.1
864.861,5166.8
865.951,5118.3
867.041,5083.1
868.131,5071.4
869.22,5080.3
870.31,5079.5
871.399,5112.4
872.488,5115.5
873.578,5109.7
874.667,5056.8
875.756,5031.5
876.845,4979.9
877.933,4928.6
879.022,4932.6
880.11,4934.6
881.199,4917.2
882.287,4914.8
883.375,4908.5
884.463,4874.8
885.551,4874.3
886.639,4828.9
887.726,4823.9
888.814,4801.5
889.901,4768.8
890.988,4793.0
892.075,4777.5
893.162,4725.1
894.249,4713.5
895.336,4692.9
896.423,4698.3
897.509,4748.5
898.595,4823.3
899.682,4740.6
900.768,4631.4
901.854,4600.7
902.94,4584.5
904.025,4564.8
905.111,4571.0
906.196,4579.4
907.282,4640.3
908.367,4608.2
909.452,4561.4
910.537,4476.6
911.622,4476.1
912.706,4428.6
913.791,4423.6
914.875,4422.1
915.959,4407.3
917.044,4370.0
918.128,4389.9
919.211,4341.6
920.295,4319.0
921.379,4320.3
922.462,4307.9
923.546,4287.9
924.629,4279.5
925.712,4266.2
926.795,4243.6
927.877,4236.1
928.96,4219.3
930.043,4215.4
931.125,4196.4
932.207,4185.8
933.289,4176.4
934.371,4154.7
935.453,4140.9
936.535,4137.0
937.616,4109.9
938.697,4111.3
939.779,4091.6
940.86,4094.0
941.941,4077.5
943.022,4081.7
944.102,4060.9
945.183,4057.2
946.263,4031.0
947.343,4037.3
948.423,4017.3
949.503,4022.0
950.583,4008.9
951.663,4002.5
952.742,3995.2
953.822,3982.0
954.901,3976.1
955.98,3977.5
957.059,3961.8
958.137,3966.9
959.216,3958.8
960.294,3952.1
961.373,3947.7
962.451,3939.2
963.529,3931.6
964.607,3927.9
965.684,3916.7
966.762,3917.8
967.839,3908.5
968.917,3896.2
969.994,3900.0
971.071,3895.4
972.147,3884.7
973.224,3888.8
974.3,3888.1
975.377,3876.7
976.453,3879.5
977.529,3872.1
978.605,3866.0
979.68,3860.8
980.756,3862.0
981.831,3857.4
982.907,3857.1
983.982,3851.2
985.057,3844.3
986.131,3845.7
987.206,3846.1
988.28,3845.3
989.355,3838.1
990.429,3832.1
991.503,3834.4
992.576,3830.5
993.65,3826.3
994.723,3824.4
995.797,3823.7
996.87,3816.9
997.943,3817.2
999.016,3814.8
1000.09,3818.7
1001.16,3810.9
1002.23,3809.5
1003.31,3811.2
1004.38,3806.3
1005.45,3806.2
1006.52,3799.7
1007.59,3799.4
1008.66,3801.6
1009.73,3795.5
1010.81,3797.7
1011.88,3797.5
1012.95,3793.7
1014.02,3793.4
1015.09,3794.0
1016.16,3789.1
1017.23,3791.8
1018.3,3789.0
1019.37,3786.4
1020.44,3789.9
1021.51,3788.5
1022.58,3785.6
1023.64,3788.1
1024.71,3785.5
1025.78,3781.5
1026.85,3782.0
1027.92,3780.3
1028.99,3781.4
1030.05,3778.4
1031.12,3775.8
1032.19,3776.6
1033.26,3774.0
1034.32,3777.7
1035.39,3775.9
1036.46,3777.5
1037.52,3772.1
1038.59,3774.5
1039.66,3772.8
1040.72,3770.9
1041.79,3770.7
1042.86,3772.1
1043.92,3771.0
1044.99,3770.8
1046.05,3768.8
1047.12,3769.3
1048.18,3767.8
1049.25,3769.2
1050.31,3764.2
1051.37,3767.5
1052.44,3767.4
1053.5,3767.1
1054.57,3767.1
1055.63,3768.7
1056.69,3768.2
1057.76,3767.5
1058.82,3765.8
1059.88,3764.9
1060.95,3766.5
1062.01,3765.0
1063.07,3764.2
1064.13,3765.9
1065.19,3763.7
1066.26,3765.8
1067.32,3765.2
1068.11,3763.4