File: spectra/VLFR_02-HDPE_nobio_Raman_132716c1.csv
nm,Intensity
526.486,828.1
527.033,830.1
527.579,828.4
528.126,829.0
528.672,828.8
529.219,829.4
529.765,829.9
530.311,828.8
530.857,830.1
531.403,829.0
531.948,835.5
532.494,831.8
533.039,830.5
533.585,829.0
534.13,852.8
534.675,850.0
535.22,847.2
535.764,841.2
536.309,839.3
536.854,840.3
537.398,839.0
537.942,836.6
538.486,837.6
539.03,838.1
539.574,835.9
540.118,836.6
540.662,835.2
541.205,834.3
541.749,834.9
542.292,835.4
542.835,833.1
543.378,835.5
543.921,835.3
544.464,834.2
545.006,835.0
545.549,835.3
546.091,833.1
546.634,834.5
547.176,833.6
547.718,835.4
548.26,836.2
548.802,834.6
549.343,836.4
549.885,835.6
550.426,832.4
550.968,835.9
551.509,836.6
552.05,834.9
552.591,834.2
553.132,835.5
553.673,836.8
554.214,836.6
554.754,835.9
555.295,835.8
555.835,837.5
556.375,836.9
556.915,836.2
557.455,838.0
557.995,838.5
558.535,838.6
559.075,838.5
559.614,835.5
560.154,838.2
560.693,837.2
561.232,837.6
561.772,837.1
562.311,837.7
562.85,839.4
563.388,839.0
563.927,860.1
564.466,848.7
565.004,842.3
565.543,843.4
566.081,862.4
566.619,841.8
567.157,841.3
567.695,843.4
568.233,838.9
568.771,841.0
569.309,841.3
569.846,841.5
570.384,840.6
570.921,843.9
571.458,872.9
571.995,851.5
572.532,843.8
573.069,844.3
573.606,844.3
574.143,848.7
574.68,842.7
575.216,844.0
575.753,860.2
576.289,893.9
576.825,869.5
577.361,866.7
577.897,849.6
578.433,848.8
578.969,851.5
579.505,849.3
580.041,851.5
580.576,850.8
581.112,854.7
581.647,854.5
582.183,857.4
582.718,859.6
583.253,860.7
583.788,861.9
584.323,865.3
584.858,869.1
585.392,869.5
585.927,877.0
586.462,877.6
586.996,881.3
587.53,888.0
588.065,894.3
588.599,894.8
589.133,898.0
589.667,903.1
590.201,906.6
590.735,908.8
591.268,910.9
591.802,910.0
592.335,911.9
592.869,911.7
593.402,917.2
593.936,917.7
594.469,911.5
595.002,912.1
595.535,915.2
596.068,913.8
596.601,913.8
597.133,912.3
597.666,917.8
598.199,916.3
598.731,916.1
599.264,914.6
599.796,922.0
600.328,917.8
600.86,916.5
601.393,913.6
601.925,918.3
602.457,912.1
602.988,913.9
603.52,908.6
604.052,908.9
604.583,908.1
605.115,902.0
605.646,901.5
606.178,899.8
606.709,894.4
607.24,894.4
607.771,891.3
608.302,887.2
608.833,889.9
609.364,886.1
609.895,886.3
610.426,885.5
610.957,884.6
611.487,884.1
612.018,879.9
612.548,881.7
613.078,879.6
613.609,876.9
614.139,879.6
614.669,875.6
615.199,876.7
615.729,877.9
616.259,873.4
616.789,872.8
617.319,875.0
617.849,874.5
618.378,874.6
618.908,874.3
619.437,873.8
619.967,871.3
620.496,873.6
621.025,875.6
621.555,877.6
622.084,885.5
622.613,888.3
623.142,871.3
623.671,871.2
624.2,869.6
624.729,870.1
625.258,870.7
625.786,873.0
626.315,883.3
626.844,980.9
627.372,1171.9
627.901,1042.3
628.429,1120.5
628.957,1064.7
629.486,1010.5
630.014,963.9
630.542,953.8
631.07,907.8
631.598,877.6
632.126,872.1
632.654,870.8
633.182,869.1
633.71,871.5
634.237,869.9
634.765,866.8
635.293,865.8
635.82,865.7
636.348,871.0
636.875,869.6
637.403,868.0
637.93,870.3
638.458,870.4
638.985,870.6
639.512,872.0
640.039,871.6
640.566,873.2
641.093,874.7
641.62,877.0
642.147,875.5
642.674,878.5
643.201,875.3
643.728,877.5
644.255,877.0
644.781,877.3
645.308,876.7
645.835,875.5
646.361,875.9
646.888,879.6
647.414,879.9
647.941,879.1
648.467,879.6
648.993,875.5
649.52,874.2
650.046,876.0
650.572,875.1
651.098,873.6
651.625,874.6
652.151,873.2
652.677,875.3
653.203,874.8
653.729,874.9
654.255,874.3
654.78,875.4
655.306,876.0
655.832,874.1
656.358,875.4
656.884,876.5
657.409,872.7
657.935,877.2
658.461,874.6
658.986,877.4
659.512,874.7
660.037,875.7
660.563,872.6
661.088,870.6
661.614,871.6
662.139,869.0
662.664,866.9
663.058,867.3