File: spectra/VLFR_01-LDPE_bio_Raman_b795649d.csv
nm,Intensity
528.65,1850.4
529.155,1849.35
529.66,1850.15
530.165,1850.4
530.67,1850.95
531.175,1851.5
531.68,1879.55
532.185,3828.15
532.69,1852.2
533.194,1851.1
533.699,1961.45
534.204,2333.95
534.708,2328.25
535.213,2304.6
535.717,2281.35
536.222,2261.0
536.726,2262.65
537.231,2248.4
537.735,2263.75
538.239,2254.4
538.743,2249.55
539.247,2268.9
539.751,2243.25
540.255,2231.35
540.759,2240.15
541.263,2235.7
541.767,2233.75
542.271,2248.85
542.775,2251.35
543.279,2249.0
543.782,2237.95
544.286,2241.2
544.789,2242.1
545.293,2245.9
545.796,2222.45
546.3,2242.1
546.803,2242.45
547.306,2240.5
547.81,2238.4
548.313,2256.15
548.816,2254.1
549.319,2245.95
549.822,2249.15
550.325,2250.95
550.828,2254.85
551.331,2255.95
551.834,2251.9
552.337,2267.4
552.839,2260.3
553.342,2258.75
553.844,2278.75
554.347,2279.2
554.849,2270.9
555.352,2279.3
555.854,2290.55
556.357,2294.5
556.859,2304.5
557.361,2323.75
557.863,2321.95
558.365,2327.05
558.867,2321.75
559.369,2330.8
559.871,2318.3
560.373,2337.0
560.875,2331.85
561.377,2323.0
561.878,2348.7
562.38,2360.6
562.881,2374.9
563.383,2398.15
563.884,2609.4
564.386,2485.05
564.887,2470.2
565.388,2434.95
565.89,2555.6
566.391,2567.25
566.892,2424.05
567.393,2427.45
567.894,2414.95
568.395,2421.65
568.896,2426.85
569.396,2428.4
569.897,2429.65
570.398,2465.3
570.898,2500.15
571.399,2846.45
571.9,2672.8
572.4,2538.05
572.9,2508.05
573.401,2473.4
573.901,2518.25
574.401,2485.7
574.901,2503.6
575.401,2597.1
575.901,2734.9
576.401,3025.8
576.901,2849.25
577.401,2670.85
577.901,2541.5
578.4,2540.2
578.9,2549.15
579.399,2551.35
579.899,2575.0
580.398,2591.55
580.898,2579.05
581.397,2572.75
581.896,2570.6
582.395,2606.95
582.895,2599.55
583.394,2622.35
583.893,2648.2
584.391,2635.45
584.89,2657.05
585.389,2644.3
585.888,2667.0
586.386,2684.9
586.885,2691.95
587.384,2736.25
587.882,2714.25
588.38,2755.65
588.879,2771.25
589.377,2780.7
589.875,2785.3
590.373,2795.75
590.871,2799.5
591.369,2825.8
591.867,2823.1
592.365,2855.95
592.863,2856.4
593.361,2842.1
593.858,2874.8
594.356,2847.65
594.853,2872.15
595.351,2886.0
595.848,2921.65
596.345,2948.75
596.843,2929.1
597.34,2952.6
597.837,2960.8
598.334,2976.1
598.831,2996.95
599.328,3010.7
599.824,3027.85
600.321,3036.3
600.818,3051.6
601.314,3034.35
601.811,2999.2
602.307,3026.05
602.804,2973.85
603.3,2994.15
603.796,2993.5
604.293,2919.65
604.789,2903.95
605.285,2871.15
605.781,2850.2
606.277,2847.9
606.772,2810.1
607.268,2798.35
607.764,2785.15
608.259,2759.65
608.755,2711.7
609.25,2725.6
609.746,2700.45
610.241,2690.9
610.736,2680.35
611.231,2696.35
611.727,2673.2
612.222,2640.45
612.716,2642.3
613.211,2646.1
613.706,2638.15
614.201,2610.2
614.695,2616.7
615.19,2614.3
615.684,2599.45
616.179,2596.0
616.673,2592.65
617.168,2609.0
617.662,2595.9
618.156,2594.0
618.65,2582.3
619.144,2587.1
619.638,2614.2
620.131,2596.8
620.625,2590.8
621.119,2589.4
621.612,2656.7
622.106,2716.05
622.599,2696.35
623.093,2602.9
623.586,2571.2
624.079,2555.3
624.572,2551.0
625.065,2542.7
625.558,2587.25
626.051,2628.35
626.544,2922.95
627.037,4674.0
627.529,4705.95
628.022,4159.65
628.514,5289.55
629.007,4333.85
629.499,3926.25
629.991,3592.7
630.483,3467.8
630.976,3047.7
631.468,2709.65
631.959,2590.25
632.451,2535.55
632.943,2507.3
633.435,2484.05
633.926,2463.3
634.418,2446.95
634.909,2468.85
635.401,2443.55
635.892,2440.9
636.383,2435.95
636.874,2409.35
637.365,2427.5
637.856,2422.35
638.347,2399.25
638.838,2407.2
639.329,2415.15
639.819,2403.2
640.31,2393.8
640.8,2386.2
641.291,2401.65
641.781,2399.0
642.271,2403.65
642.761,2393.65
643.251,2390.3
643.741,2397.25
644.231,2397.2
644.721,2374.5
645.211,2394.5
645.7,2367.9
646.19,2365.1
646.679,2372.6
647.169,2368.15
647.658,2376.1
648.147,2359.6
648.636,2341.4
649.125,2351.7
649.614,2362.85
650.103,2335.25
650.592,2345.15
651.08,2345.6
651.569,2337.55
652.058,2324.45
652.546,2333.7
653.034,2300.5
653.523,2310.95
654.011,2293.35
654.499,2296.0
654.987,2275.5
655.475,2277.0
655.963,2272.65
656.45,2267.9
656.938,2256.05
657.425,2261.2
657.913,2243.45
658.4,2230.05
658.888,2215.7
659.375,2204.8
659.862,2200.05
660.349,2183.4
660.836,2179.55
661.079,2172.25