File: spectra/VLFR_07-PET_nobio_Raman_46a4bbc4.csv
nm,Intensity
791.377,12839.3
792.477,11685.2
793.576,10982.9
794.676,10858.8
795.775,10451.5
796.874,10519.2
797.973,10525.4
799.072,10465.5
800.171,10380.9
801.27,10294.9
802.368,10264.3
803.467,10038.1
804.565,9803.18
805.664,9890.92
806.762,9790.72
807.86,9636.52
808.958,9614.22
810.056,9567.98
811.153,9472.52
812.251,9365.76
813.349,9139.9
814.446,9150.58
815.543,9130.52
816.64,8977.0
817.737,9010.32
818.834,8786.6
819.931,8941.12
821.028,8757.46
822.125,8612.88
823.221,8539.06
824.317,8443.56
825.414,8586.12
826.51,8328.22
827.606,8322.0
828.702,8181.94
829.797,8223.22
830.893,8196.44
831.988,8039.28
833.084,7937.54
834.179,7852.64
835.274,7795.9
836.369,7794.16
837.464,7932.1
838.559,7790.04
839.654,7690.5
840.748,7967.88
841.843,8028.64
842.937,7633.96
844.031,7561.02
845.125,7306.02
846.219,7279.14
847.313,7205.44
848.407,7199.84
849.5,7084.02
850.593,7056.86
851.687,7139.98
852.78,7100.56
853.873,7020.82
854.966,6962.5
856.059,6809.14
857.151,6857.08
858.244,6936.06
859.336,6992.9
860.428,6993.36
861.52,6787.58
862.612,6651.4
863.704,6658.06
864.796,6732.34
865.888,6545.64
866.979,6495.92
868.07,6422.94
869.162,6499.5
870.253,6507.72
871.344,6579.26
872.434,6739.86
873.525,6823.28
874.615,6472.78
875.706,6303.36
876.796,6227.1
877.886,6172.52
878.976,6150.7
880.066,6072.46
881.156,6077.7
882.245,6058.0
883.335,6037.84
884.424,5989.94
885.513,5968.26
886.602,5959.14
887.691,5807.52
888.78,5771.44
889.868,5802.86
890.957,5747.02
892.045,5676.84
893.133,5659.56
894.221,5615.88
895.309,5594.32
896.397,5573.6
897.484,5833.42
898.571,6329.22
899.659,5785.76
900.746,5458.4
901.833,5375.02
902.92,5335.3
904.006,5334.86
905.093,5301.82
906.179,5425.44
907.266,5795.36
908.352,5685.38
909.438,5415.26
910.523,5141.6
911.609,5051.3
912.695,5056.92
913.78,4973.16
914.865,4959.12
915.95,4948.88
917.035,4899.08
918.12,4877.1
919.204,4850.54
920.289,4824.9
921.373,4771.54
922.457,4768.86
923.541,4718.64
924.625,4687.0
925.709,4675.32
926.792,4669.48
927.876,4631.14
928.959,4572.24
930.042,4562.1
931.125,4564.9
932.208,4504.78
933.29,4489.28
934.373,4475.78
935.455,4435.1
936.537,4421.6
937.619,4402.12
938.701,4398.78
939.782,4369.04
940.864,4346.88
941.945,4353.22
943.026,4304.98
944.107,4297.46
945.188,4285.56
946.269,4251.68
947.349,4236.28
948.43,4241.52
949.51,4218.18
950.59,4177.72
951.67,4189.0
952.75,4168.28
953.829,4167.4
954.909,4135.64
955.988,4111.92
957.067,4127.16
958.146,4101.44
959.224,4103.06
960.303,4080.88
961.381,4074.24
962.459,4057.72
963.537,4044.28
964.615,4046.86
965.693,4033.42
966.771,4017.82
967.848,4007.62
968.925,3995.92
970.002,3993.86
971.079,3988.16
972.156,3982.06
973.232,3968.92
974.309,3955.54
975.385,3951.28
976.461,3948.1
977.537,3937.28
978.612,3931.56
979.688,3921.44
980.763,3916.96
981.838,3911.6
982.913,3904.14
983.988,3900.8
985.063,3896.46
986.137,3887.04
987.211,3887.84
988.285,3880.9
989.359,3876.14
990.433,3868.84
991.506,3865.86
992.58,3857.3
993.653,3852.88
994.726,3843.76
995.799,3845.5
996.872,3839.52
997.944,3832.4
999.016,3831.52
1000.09,3826.9
1001.16,3824.98
1002.23,3822.16
1003.3,3819.5
1004.38,3812.98
1005.45,3813.7
1006.52,3805.58
1007.59,3802.84
1008.66,3799.72
1009.73,3796.22
1010.8,3794.7
1011.87,3793.32
1012.94,3789.84
1014.01,3790.62
1015.08,3787.66
1016.15,3787.5
1017.22,3785.38
1018.29,3781.56
1019.36,3780.0
1020.42,3779.84
1021.49,3785.04
1022.56,3788.42
1023.63,3786.5
1024.7,3778.58
1025.76,3773.86
1026.83,3768.42
1027.9,3766.36
1028.97,3761.1
1030.03,3759.12
1031.1,3759.72
1032.17,3757.34
1033.23,3757.82
1034.3,3762.14
1035.36,3763.4
1036.43,3760.76
1037.5,3755.46
1038.56,3751.06
1039.63,3748.74
1040.69,3748.06
1041.76,3747.24
1042.82,3746.22
1043.89,3744.44
1044.95,3744.36
1046.01,3743.24
1047.08,3742.88
1048.14,3742.2
1049.2,3740.94
1050.27,3741.3
1051.33,3742.04
1052.39,3741.2
1053.46,3739.58
1054.52,3739.64
1055.58,3740.32
1056.64,3739.28
1057.7,3738.26
1058.77,3737.72
1059.83,3737.84
1060.89,3738.84
1061.95,3738.9
1063.01,3738.58
1064.07,3737.82
1065.13,3737.44
1066.19,3737.76
1067.25,3737.02
1068.05,3736.02