File: spectra/VLFR_08-PLA_bio_Raman_c07f32cf.csv
nm,Intensity
528.626,1862.5
529.132,1861.8
529.637,1862.4
530.143,1860.9
530.648,1864.1
531.153,1865.4
531.658,1910.4
532.164,5149.5
532.669,1865.1
533.174,1866.0
533.679,2138.4
534.184,2926.5
534.689,2705.7
535.194,2613.2
535.699,2491.8
536.203,2472.1
536.708,2493.6
537.213,2435.2
537.717,2472.4
538.222,2376.6
538.726,2370.7
539.231,2368.6
539.735,2312.0
540.239,2362.0
540.744,2417.1
541.248,2427.3
541.752,2389.1
542.256,2355.7
542.76,2394.9
543.264,2516.7
543.768,2552.2
544.272,2435.5
544.776,2398.4
545.28,2362.3
545.784,2356.7
546.287,2337.1
546.791,2374.0
547.294,2379.8
547.798,2368.3
548.301,2365.8
548.805,2412.7
549.308,2391.7
549.811,2390.4
550.315,2394.9
550.818,2428.5
551.321,2445.4
551.824,2457.4
552.327,2473.7
552.83,2455.1
553.333,2465.1
553.835,2513.4
554.338,2487.2
554.841,2481.4
555.343,2439.3
555.846,2422.8
556.349,2418.4
556.851,2457.0
557.353,2569.3
557.856,3139.5
558.358,2930.0
558.86,2589.7
559.362,2565.6
559.864,2513.4
560.366,2513.6
560.868,2518.0
561.37,2508.4
561.872,2501.8
562.374,2505.5
562.876,2593.9
563.377,2792.7
563.879,2661.1
564.38,2589.5
564.882,2709.9
565.383,2714.8
565.885,2848.7
566.386,2819.1
566.887,2590.8
567.388,2587.4
567.889,2650.5
568.391,2605.3
568.892,2597.5
569.392,2589.9
569.893,2612.9
570.394,2606.5
570.895,2621.8
571.395,2732.9
571.896,2770.3
572.397,2723.5
572.897,2693.6
573.397,2760.5
573.898,2724.6
574.398,2743.8
574.898,2669.1
575.398,2637.0
575.898,2688.4
576.398,2909.7
576.898,3154.8
577.398,2727.4
577.898,2645.1
578.398,2616.8
578.897,2627.0
579.397,2626.7
579.896,2617.9
580.396,2634.1
580.895,2621.2
581.395,2626.4
581.894,2642.8
582.393,2623.6
582.892,2637.6
583.391,2640.0
583.89,2608.2
584.389,2626.9
584.888,2637.5
585.387,2636.2
585.886,2626.1
586.384,2726.3
586.883,2918.4
587.381,3054.7
587.88,2909.5
588.378,2664.3
588.876,2662.4
589.375,2625.0
589.873,2624.4
590.371,2633.6
590.869,2634.8
591.367,2638.8
591.865,2624.6
592.363,2640.7
592.86,2637.6
593.358,2631.2
593.856,2598.4
594.353,2627.3
594.851,2613.6
595.348,2633.2
595.845,2639.6
596.342,2639.8
596.84,2619.8
597.337,2622.5
597.834,2610.7
598.331,2626.8
598.828,2607.3
599.324,2615.8
599.821,2623.3
600.318,2628.1
600.814,2627.3
601.311,2617.4
601.807,2638.2
602.304,2591.0
602.8,2629.6
603.296,2605.4
603.792,2626.2
604.288,2620.8
604.784,2603.2
605.28,2575.7
605.776,2614.2
606.272,2603.0
606.767,2602.9
607.263,2605.5
607.759,2609.7
608.254,2609.5
608.749,2575.7
609.245,2578.4
609.74,2585.9
610.235,2583.2
610.73,2565.4
611.225,2598.6
611.72,2564.4
612.215,2561.0
612.71,2568.4
613.204,2580.6
613.699,2566.4
614.194,2585.1
614.688,2588.0
615.182,2568.6
615.677,2578.6
616.171,2576.3
616.665,2579.5
617.159,2618.6
617.653,2561.9
618.147,2569.4
618.641,2579.5
619.135,2568.1
619.628,2591.1
620.122,2567.6
620.615,2561.5
621.109,2543.5
621.602,2548.7
622.095,2590.3
622.589,2598.4
623.082,2664.0
623.575,2633.4
624.068,2590.2
624.561,2571.1
625.053,2547.1
625.546,2544.7
626.039,2552.9
626.531,2570.4
627.024,2532.9
627.516,2580.6
628.008,2709.7
628.501,3026.5
628.993,2901.2
629.485,2941.5
629.977,2952.8
630.469,3356.4
630.96,5255.7
631.452,4514.7
631.944,3385.8
632.435,3201.3
632.927,3661.8
633.418,3814.1
633.91,3313.0
634.401,2840.6
634.892,2647.3
635.383,2532.4
635.874,2491.5
636.365,2498.4
636.856,2490.5
637.346,2479.9
637.837,2457.6
638.327,2465.5
638.818,2466.3
639.308,2444.1
639.799,2436.3
640.289,2437.0
640.779,2418.1
641.269,2449.2
641.759,2409.3
642.249,2429.7
642.738,2440.8
643.228,2382.2
643.718,2410.8
644.207,2396.9
644.697,2396.7
645.186,2402.3
645.675,2369.7
646.164,2373.2
646.653,2381.0
647.142,2351.6
647.631,2343.2
648.12,2346.9
648.609,2333.2
649.098,2344.3
649.586,2328.8
650.075,2311.3
650.563,2326.8
651.051,2302.4
651.539,2304.5
652.027,2308.5
652.515,2296.1
653.003,2297.5
653.491,2280.8
653.979,2268.1
654.467,2297.9
654.954,2274.0
655.442,2271.0
655.929,2270.3
656.416,2254.5
656.904,2253.0
657.391,2265.1
657.878,2231.7
658.365,2237.7
658.851,2236.0
659.338,2217.3
659.825,2206.4
660.311,2220.8
660.798,2214.6
661.041,2193.7