File: spectra/VLFR_08-PLA_bio_Raman_314abfa4.csv
nm,Intensity
528.626,1864.9
529.132,1862.7
529.637,1864.6
530.143,1863.5
530.648,1865.3
531.153,1867.4
531.658,1908.8
532.164,4725.6
532.669,1866.9
533.174,1867.9
533.679,2095.2
534.184,2768.6
534.689,2742.1
535.194,2742.6
535.699,2751.4
536.203,2729.2
536.708,2699.4
537.213,2713.9
537.717,2755.9
538.222,2733.7
538.726,2730.6
539.231,2770.7
539.735,2684.9
540.239,2718.5
540.744,2758.5
541.248,2762.8
541.752,2782.9
542.256,2795.2
542.76,2788.3
543.264,2840.5
543.768,2889.4
544.272,2837.8
544.776,2803.7
545.28,2832.7
545.784,2845.4
546.287,2793.6
546.791,2831.3
547.294,2856.1
547.798,2850.7
548.301,2874.3
548.805,2887.3
549.308,2929.1
549.811,2912.3
550.315,2897.1
550.818,2968.0
551.321,2979.4
551.824,3030.7
552.327,3045.7
552.83,2964.6
553.333,2969.4
553.835,3015.0
554.338,3014.7
554.841,3005.8
555.343,3005.2
555.846,3023.3
556.349,3002.5
556.851,3001.5
557.353,3066.8
557.856,3280.6
558.358,3181.7
558.86,3030.2
559.362,3045.7
559.864,3067.2
560.366,3029.7
560.868,3089.5
561.37,3059.9
561.872,3083.6
562.374,3082.4
562.876,3165.2
563.377,3229.3
563.879,3154.8
564.38,3148.4
564.882,3230.8
565.383,3221.6
565.885,3192.6
566.386,3206.4
566.887,3172.0
567.388,3173.7
567.889,3210.1
568.391,3186.7
568.892,3211.7
569.392,3239.8
569.893,3248.3
570.394,3233.5
570.895,3194.5
571.395,3323.1
571.896,3355.4
572.397,3331.9
572.897,3328.4
573.397,3315.0
573.898,3347.8
574.398,3311.1
574.898,3277.3
575.398,3273.5
575.898,3274.8
576.398,3360.2
576.898,3502.3
577.398,3314.0
577.898,3274.7
578.398,3242.4
578.897,3255.1
579.397,3291.5
579.896,3279.5
580.396,3267.4
580.895,3296.5
581.395,3265.6
581.894,3307.1
582.393,3288.3
582.892,3288.2
583.391,3268.5
583.89,3270.5
584.389,3271.3
584.888,3282.0
585.387,3290.8
585.886,3274.1
586.384,3260.1
586.883,3361.4
587.381,3409.0
587.88,3377.1
588.378,3271.6
588.876,3174.7
589.375,3204.6
589.873,3211.1
590.371,3213.0
590.869,3257.2
591.367,3241.8
591.865,3254.7
592.363,3240.1
592.86,3237.0
593.358,3233.8
593.856,3283.6
594.353,3205.1
594.851,3172.0
595.348,3236.2
595.845,3235.1
596.342,3253.2
596.84,3257.6
597.337,3284.2
597.834,3226.1
598.331,3266.9
598.828,3213.3
599.324,3272.5
599.821,3221.6
600.318,3260.0
600.814,3240.9
601.311,3252.7
601.807,3246.9
602.304,3265.6
602.8,3275.8
603.296,3304.1
603.792,3262.7
604.288,3261.6
604.784,3288.7
605.28,3270.2
605.776,3284.0
606.272,3260.0
606.767,3257.9
607.263,3307.9
607.759,3245.3
608.254,3265.5
608.749,3260.4
609.245,3257.9
609.74,3280.6
610.235,3242.3
610.73,3285.0
611.225,3298.4
611.72,3226.3
612.215,3234.5
612.71,3249.9
613.204,3261.8
613.699,3189.0
614.194,3272.6
614.688,3225.4
615.182,3222.4
615.677,3264.5
616.171,3216.5
616.665,3270.5
617.159,3200.1
617.653,3247.1
618.147,3279.9
618.641,3218.4
619.135,3200.1
619.628,3227.4
620.122,3232.4
620.615,3256.8
621.109,3248.3
621.602,3201.7
622.095,3216.3
622.589,3218.6
623.082,3273.5
623.575,3233.4
624.068,3234.5
624.561,3176.1
625.053,3179.6
625.546,3210.9
626.039,3199.4
626.531,3198.5
627.024,3161.5
627.516,3163.8
628.008,3200.2
628.501,3333.4
628.993,3283.4
629.485,3329.9
629.977,3272.2
630.469,3411.9
630.96,4050.1
631.452,3727.8
631.944,3431.9
632.435,3370.4
632.927,3493.6
633.418,3536.6
633.91,3352.6
634.401,3198.9
634.892,3131.3
635.383,3094.1
635.874,3045.3
636.365,3038.9
636.856,3072.6
637.346,3072.4
637.837,3069.7
638.327,3021.1
638.818,2997.9
639.308,3008.5
639.799,2983.7
640.289,2998.2
640.779,2954.7
641.269,2937.8
641.759,2927.2
642.249,2934.8
642.738,2942.8
643.228,2891.0
643.718,2910.3
644.207,2928.4
644.697,2891.3
645.186,2871.5
645.675,2874.6
646.164,2853.1
646.653,2843.2
647.142,2823.9
647.631,2815.6
648.12,2809.6
648.609,2829.4
649.098,2762.9
649.586,2770.5
650.075,2719.6
650.563,2759.1
651.051,2739.4
651.539,2722.8
652.027,2755.5
652.515,2708.0
653.003,2710.8
653.491,2674.6
653.979,2688.7
654.467,2652.5
654.954,2646.5
655.442,2671.1
655.929,2613.0
656.416,2520.3
656.904,2584.4
657.391,2560.0
657.878,2597.9
658.365,2589.5
658.851,2589.3
659.338,2557.4
659.825,2540.4
660.311,2538.5
660.798,2548.3
661.041,2551.6