File: spectra/VLFR_02-HDPE_bio_Raman_59a8b917.csv
nm,Intensity
526.494,834.7
527.041,834.7
527.588,836.0
528.135,833.0
528.682,835.3
529.229,835.1
529.775,834.3
530.321,835.3
530.868,835.2
531.414,834.2
531.96,849.9
532.506,837.3
533.051,834.1
533.597,835.6
534.142,909.7
534.687,909.5
535.232,911.6
535.777,875.1
536.322,866.4
536.867,861.8
537.411,861.2
537.956,862.0
538.5,856.3
539.044,855.5
539.588,856.0
540.132,851.5
540.676,852.5
541.22,852.9
541.763,854.7
542.306,850.3
542.85,852.5
543.393,851.2
543.936,850.6
544.479,851.0
545.021,850.5
545.564,849.3
546.106,850.4
546.649,850.7
547.191,851.8
547.733,850.0
548.275,850.8
548.817,849.7
549.359,850.5
549.9,851.6
550.442,850.2
550.983,851.5
551.524,852.2
552.066,853.5
552.607,851.1
553.148,853.0
553.688,855.6
554.229,854.6
554.77,856.6
555.31,855.4
555.85,857.6
556.39,859.2
556.931,858.7
557.471,858.2
558.01,863.8
558.55,862.8
559.09,859.3
559.629,860.7
560.169,861.2
560.708,860.2
561.247,860.7
561.786,861.2
562.325,862.0
562.864,865.1
563.403,867.9
563.941,962.6
564.48,886.8
565.018,879.2
565.557,874.5
566.095,933.1
566.633,874.0
567.171,870.2
567.709,878.9
568.247,866.5
568.784,867.8
569.322,866.8
569.859,866.1
570.397,877.4
570.934,884.2
571.471,1031.6
572.008,901.2
572.545,877.5
573.082,873.4
573.619,875.8
574.155,883.3
574.692,875.4
575.228,885.0
575.765,922.6
576.301,1064.7
576.837,976.9
577.373,952.4
577.909,901.3
578.445,893.3
578.981,894.1
579.516,900.0
580.052,900.1
580.587,899.9
581.123,900.5
581.658,905.1
582.193,909.0
582.728,911.2
583.263,916.2
583.798,915.6
584.333,922.7
584.868,922.8
585.402,924.4
585.937,929.2
586.471,933.5
587.005,937.0
587.54,943.2
588.074,949.6
588.608,952.5
589.142,949.9
589.676,959.9
590.21,965.1
590.743,971.1
591.277,979.3
591.81,979.0
592.344,990.0
592.877,990.8
593.411,992.9
593.944,998.3
594.477,1006.8
595.01,1009.8
595.543,1018.3
596.076,1028.0
596.608,1036.7
597.141,1043.1
597.674,1047.6
598.206,1061.2
598.739,1065.1
599.271,1075.0
599.803,1073.2
600.335,1077.4
600.868,1082.0
601.4,1082.4
601.931,1084.3
602.463,1083.6
602.995,1079.8
603.527,1077.0
604.058,1068.9
604.59,1069.4
605.121,1058.3
605.653,1051.0
606.184,1048.1
606.715,1038.5
607.246,1034.9
607.778,1033.3
608.309,1027.5
608.839,1024.9
609.37,1025.1
609.901,1017.9
610.432,1015.1
610.962,1015.4
611.493,1006.7
612.023,1005.6
612.554,1008.3
613.084,1006.6
613.614,1003.4
614.145,1002.1
614.675,996.4
615.205,992.0
615.735,991.7
616.265,987.1
616.795,992.0
617.324,998.5
617.854,995.8
618.384,995.7
618.913,993.2
619.443,989.1
619.972,989.3
620.502,981.7
621.031,993.9
621.56,1008.2
622.089,1060.7
622.618,1054.0
623.147,995.5
623.676,981.4
624.205,978.8
624.734,973.0
625.263,978.1
625.792,992.9
626.32,1037.7
626.849,1515.0
627.377,2239.9
627.906,1694.8
628.434,2199.5
628.963,1631.5
629.491,1482.5
630.019,1310.1
630.547,1269.4
631.076,1086.7
631.604,986.5
632.132,965.2
632.66,957.1
633.188,955.0
633.715,950.1
634.243,942.1
634.771,940.7
635.299,940.7
635.826,938.9
636.354,937.9
636.881,930.1
637.409,931.0
637.936,928.9
638.464,928.1
638.991,927.6
639.518,929.6
640.045,926.1
640.573,929.8
641.1,928.0
641.627,928.0
642.154,925.2
642.681,929.6
643.208,929.7
643.735,927.8
644.261,925.3
644.788,929.1
645.315,930.1
645.842,929.1
646.368,930.5
646.895,931.9
647.421,930.6
647.948,931.0
648.474,928.6
649.001,932.7
649.527,929.2
650.054,931.8
650.58,929.4
651.106,934.0
651.633,932.6
652.159,928.8
652.685,931.9
653.211,930.9
653.737,930.4
654.263,929.9
654.789,933.4
655.315,928.4
655.841,931.5
656.367,930.0
656.893,925.5
657.419,927.5
657.945,921.2
658.47,927.0
658.996,929.2
659.522,922.5
660.047,925.8
660.573,926.0
661.099,917.4
661.624,912.5
662.15,915.5
662.675,912.1
663.07,910.3