File: spectra/VLFR_02-HDPE_nobio_Raman_5b06ff14.csv
nm,Intensity
526.532,833.15
527.079,833.6
527.625,833.8
528.172,832.55
528.718,832.55
529.265,832.05
529.811,833.35
530.357,833.45
530.903,833.6
531.449,832.9
531.994,839.7
532.54,834.45
533.085,833.65
533.63,834.9
534.176,927.4
534.721,919.95
535.266,906.2
535.81,887.65
536.355,879.8
536.9,876.55
537.444,875.1
537.988,874.15
538.533,874.45
539.077,870.4
539.621,867.4
540.165,867.8
540.708,868.7
541.252,868.75
541.795,867.05
542.339,869.9
542.882,869.0
543.425,868.3
543.968,870.2
544.511,871.5
545.054,871.4
545.597,873.35
546.139,872.85
546.682,872.25
547.224,871.6
547.766,872.35
548.308,873.45
548.85,871.4
549.392,873.45
549.934,872.85
550.475,875.1
551.017,873.45
551.558,873.95
552.1,874.2
552.641,875.95
553.182,876.45
553.723,878.05
554.264,877.35
554.804,878.4
555.345,875.85
555.885,879.0
556.426,878.1
556.966,881.1
557.506,883.25
558.046,884.9
558.586,886.0
559.126,883.35
559.665,883.5
560.205,883.3
560.745,881.45
561.284,885.1
561.823,883.75
562.362,885.5
562.901,890.65
563.44,894.5
563.979,1011.7
564.518,914.8
565.056,910.2
565.595,905.15
566.133,1035.3
566.671,902.2
567.21,899.4
567.748,902.2
568.285,898.5
568.823,893.5
569.361,899.65
569.899,899.05
570.436,907.0
570.974,915.0
571.511,1125.9
572.048,936.95
572.585,919.6
573.122,913.0
573.659,919.0
574.196,928.85
574.733,924.2
575.269,939.6
575.806,987.0
576.342,1139.25
576.878,1046.95
577.414,1016.4
577.951,972.8
578.486,981.4
579.022,988.65
579.558,1001.75
580.094,1013.75
580.629,1023.75
581.165,1037.8
581.7,1049.25
582.236,1067.45
582.771,1079.5
583.306,1093.5
583.841,1106.75
584.376,1119.25
584.911,1129.35
585.445,1139.3
585.98,1152.95
586.514,1167.65
587.049,1173.65
587.583,1187.55
588.117,1195.15
588.651,1207.4
589.186,1214.2
589.72,1223.45
590.253,1233.8
590.787,1250.85
591.321,1259.85
591.854,1264.95
592.388,1274.2
592.921,1275.05
593.455,1279.4
593.988,1292.7
594.521,1299.7
595.054,1310.9
595.587,1324.45
596.12,1335.3
596.653,1336.45
597.186,1353.2
597.718,1352.55
598.251,1375.55
598.783,1386.15
599.316,1391.75
599.848,1394.15
600.38,1393.05
600.912,1385.05
601.444,1386.0
601.976,1378.65
602.508,1375.5
603.04,1359.55
603.572,1347.55
604.103,1330.6
604.635,1320.95
605.167,1295.1
605.698,1275.1
606.229,1255.7
606.761,1238.95
607.292,1226.95
607.823,1217.7
608.354,1209.9
608.885,1196.2
609.416,1183.85
609.947,1171.4
610.477,1160.45
611.008,1153.7
611.539,1142.65
612.069,1145.75
612.6,1135.65
613.13,1129.35
613.66,1124.45
614.19,1113.35
614.721,1106.9
615.251,1099.7
615.781,1096.15
616.311,1090.5
616.841,1089.9
617.37,1088.85
617.9,1089.2
618.43,1082.75
618.96,1075.0
619.489,1077.35
620.019,1075.25
620.548,1073.4
621.077,1074.0
621.607,1092.3
622.136,1128.25
622.665,1115.4
623.194,1075.55
623.723,1061.05
624.252,1058.7
624.781,1056.25
625.31,1061.5
625.839,1071.65
626.368,1117.75
626.896,1578.15
627.425,2109.75
627.953,1648.3
628.482,2165.6
629.01,1705.95
629.539,1536.45
630.067,1390.1
630.596,1347.3
631.124,1168.0
631.652,1085.5
632.18,1066.05
632.708,1064.55
633.236,1061.4
633.764,1059.15
634.292,1058.6
634.82,1058.6
635.348,1054.6
635.876,1056.2
636.403,1056.8
636.931,1057.25
637.459,1058.2
637.986,1056.8
638.514,1058.65
639.041,1055.65
639.568,1062.25
640.096,1058.65
640.623,1062.2
641.15,1066.15
641.678,1064.05
642.205,1062.55
642.732,1063.85
643.259,1062.2
643.786,1069.3
644.313,1067.85
644.84,1065.25
645.367,1067.45
645.894,1066.8
646.421,1069.65
646.948,1068.3
647.474,1069.1
648.001,1074.8
648.528,1068.4
649.054,1067.05
649.581,1068.75
650.108,1061.65
650.634,1067.2
651.161,1063.95
651.687,1069.85
652.214,1069.45
652.74,1068.95
653.266,1071.0
653.793,1068.75
654.319,1066.75
654.845,1062.95
655.371,1059.25
655.897,1058.8
656.424,1055.4
656.95,1051.1
657.476,1043.65
658.002,1043.8
658.528,1037.7
659.054,1032.05
659.58,1030.95
660.106,1026.8
660.631,1018.5
661.157,1008.55
661.683,1001.45
662.209,997.35
662.735,991.85
663.129,987.4