File: spectra/VLFR_02-HDPE_bio_Raman_736f1e61.csv
nm,Intensity
526.508,830.5
527.055,830.5
527.602,831.2
528.149,830.2
528.695,829.8
529.241,830.4
529.787,830.3
530.334,830.4
530.879,829.7
531.425,830.7
531.971,833.6
532.516,829.8
533.062,830.6
533.607,831.7
534.152,896.4
534.697,886.4
535.242,872.3
535.786,859.6
536.331,853.8
536.876,852.7
537.42,850.6
537.964,853.0
538.508,849.8
539.052,844.0
539.596,844.7
540.14,842.5
540.683,840.8
541.227,843.4
541.77,842.9
542.313,842.2
542.856,840.5
543.399,842.9
543.942,843.7
544.485,840.6
545.027,842.2
545.57,841.0
546.112,840.2
546.654,839.7
547.196,840.6
547.738,843.3
548.28,842.3
548.822,838.9
549.363,840.3
549.905,842.4
550.446,839.3
550.988,841.1
551.529,841.4
552.07,842.6
552.611,842.2
553.152,843.3
553.692,846.6
554.233,844.7
554.773,845.0
555.314,844.1
555.854,845.9
556.394,849.0
556.934,849.1
557.474,851.2
558.014,851.4
558.553,852.8
559.093,851.5
559.632,851.7
560.172,850.5
560.711,848.8
561.25,849.7
561.789,848.7
562.328,850.2
562.867,852.3
563.406,858.1
563.944,941.0
564.483,875.9
565.021,869.5
565.559,868.4
566.098,1011.8
566.636,869.6
567.174,857.5
567.711,859.6
568.249,851.6
568.787,850.6
569.324,853.8
569.862,853.8
570.399,855.9
570.936,864.1
571.474,1021.5
572.011,883.0
572.548,861.8
573.084,854.7
573.621,856.2
574.158,866.2
574.694,854.7
575.231,863.9
575.767,934.4
576.303,988.3
576.84,933.1
577.376,902.1
577.912,864.4
578.447,862.0
578.983,858.7
579.519,858.8
580.054,860.6
580.59,859.2
581.125,859.3
581.661,857.0
582.196,862.1
582.731,860.5
583.266,861.8
583.801,862.3
584.336,865.8
584.87,865.1
585.405,865.2
585.94,867.2
586.474,873.6
587.008,869.4
587.543,875.8
588.077,874.5
588.611,876.7
589.145,879.8
589.679,879.5
590.213,881.8
590.747,881.7
591.28,882.7
591.814,885.1
592.347,886.8
592.881,887.9
593.414,889.4
593.947,891.2
594.48,889.1
595.014,890.3
595.547,894.0
596.079,894.7
596.612,894.0
597.145,896.8
597.678,894.8
598.21,898.4
598.743,901.6
599.275,900.8
599.807,902.0
600.34,900.5
600.872,900.3
601.404,897.8
601.936,903.8
602.468,903.8
603.0,900.7
603.532,905.4
604.063,901.5
604.595,903.4
605.126,898.0
605.658,895.6
606.189,894.5
606.721,897.6
607.252,895.0
607.783,893.6
608.314,890.4
608.845,890.8
609.376,893.5
609.907,891.1
610.438,892.4
610.968,893.2
611.499,890.1
612.03,887.8
612.56,891.9
613.091,889.2
613.621,892.3
614.151,887.1
614.681,890.0
615.212,888.1
615.742,888.4
616.272,887.1
616.802,891.4
617.332,892.0
617.861,893.3
618.391,892.8
618.921,894.2
619.45,896.6
619.98,896.6
620.509,898.1
621.039,903.7
621.568,906.4
622.097,929.2
622.627,926.5
623.156,901.2
623.685,895.8
624.214,891.9
624.743,891.5
625.272,898.0
625.801,902.7
626.33,927.1
626.858,1158.7
627.387,1634.3
627.916,1302.1
628.444,1515.4
628.973,1429.7
629.501,1292.0
630.029,1164.1
630.558,1138.3
631.086,997.7
631.614,916.8
632.142,900.2
632.67,891.2
633.198,888.0
633.726,883.0
634.254,881.7
634.782,881.9
635.31,876.9
635.838,875.2
636.365,877.1
636.893,877.0
637.421,869.8
637.948,870.2
638.476,874.1
639.003,870.2
639.531,869.9
640.058,872.2
640.585,871.1
641.113,872.8
641.64,875.6
642.167,875.5
642.694,871.4
643.221,871.8
643.748,873.7
644.275,874.8
644.802,870.8
645.329,873.5
645.856,875.9
646.382,874.3
646.909,873.6
647.436,874.2
647.962,873.5
648.489,873.7
649.016,874.0
649.542,872.6
650.069,874.2
650.595,875.9
651.121,872.2
651.648,871.5
652.174,871.7
652.7,875.5
653.227,872.2
653.753,869.7
654.279,871.8
654.805,870.6
655.331,872.3
655.857,872.0
656.383,869.2
656.909,868.7
657.435,870.4
657.961,871.3
658.487,869.9
659.013,867.2
659.538,867.4
660.064,867.3
660.59,869.2
661.116,865.8
661.641,865.1
662.167,865.0
662.692,863.1
663.087,861.5