File: spectra/VLFR_01-LDPE_nobio_Raman_7da00427.csv
nm,Intensity
526.486,829.5
527.033,829.9
527.579,830.1
528.126,829.7
528.672,829.1
529.219,828.6
529.765,829.2
530.311,827.4
530.857,830.0
531.403,828.7
531.948,832.4
532.494,830.0
533.039,829.8
533.585,830.1
534.13,894.3
534.675,886.4
535.22,875.6
535.764,862.5
536.309,854.6
536.854,853.6
537.398,851.6
537.942,851.6
538.486,848.9
539.03,846.1
539.574,841.2
540.118,844.2
540.662,842.6
541.205,841.2
541.749,842.4
542.292,842.7
542.835,840.9
543.378,843.6
543.921,842.4
544.464,841.8
545.006,842.1
545.549,841.9
546.091,840.7
546.634,840.0
547.176,841.6
547.718,841.2
548.26,841.3
548.802,840.9
549.343,842.2
549.885,841.1
550.426,841.1
550.968,841.0
551.509,843.5
552.05,841.5
552.591,844.3
553.132,844.7
553.673,847.3
554.214,844.9
554.754,843.9
555.295,846.2
555.835,846.1
556.375,846.5
556.915,848.7
557.455,853.7
557.995,852.8
558.535,855.9
559.075,852.0
559.614,852.9
560.154,851.1
560.693,849.7
561.232,850.8
561.772,854.3
562.311,851.7
562.85,855.2
563.388,859.4
563.927,932.3
564.466,880.4
565.004,873.2
565.543,871.3
566.081,996.7
566.619,877.1
567.157,864.6
567.695,867.7
568.233,859.1
568.771,855.6
569.309,856.7
569.846,859.7
570.384,864.9
570.921,871.3
571.458,1002.3
571.995,892.4
572.532,873.2
573.069,864.6
573.606,865.9
574.143,882.8
574.68,870.6
575.216,878.4
575.753,964.6
576.289,1004.6
576.825,957.7
577.361,935.9
577.897,895.3
578.433,891.1
578.969,895.4
579.505,898.2
580.041,903.8
580.576,908.0
581.112,911.3
581.647,916.8
582.183,922.6
582.718,927.7
583.253,932.4
583.788,934.4
584.323,938.2
584.858,946.7
585.392,952.8
585.927,960.8
586.462,958.6
586.996,962.2
587.53,970.8
588.065,971.9
588.599,973.9
589.133,976.5
589.667,980.9
590.201,983.7
590.735,985.5
591.268,986.7
591.802,991.7
592.335,990.6
592.869,990.3
593.402,990.6
593.936,988.2
594.469,989.2
595.002,984.4
595.535,986.0
596.068,984.0
596.601,977.4
597.133,979.1
597.666,980.2
598.199,975.9
598.731,982.4
599.264,984.7
599.796,980.0
600.328,977.6
600.86,973.3
601.393,977.5
601.925,981.1
602.457,979.4
602.988,973.2
603.52,973.7
604.052,976.0
604.583,971.4
605.115,963.9
605.646,968.7
606.178,967.2
606.709,960.1
607.24,961.9
607.771,963.5
608.302,961.7
608.833,959.9
609.364,955.7
609.895,949.1
610.426,952.9
610.957,952.6
611.487,948.8
612.018,950.0
612.548,944.8
613.078,946.7
613.609,944.2
614.139,944.9
614.669,934.6
615.199,937.8
615.729,937.9
616.259,934.9
616.789,938.8
617.319,943.4
617.849,937.6
618.378,937.2
618.908,933.1
619.437,932.9
619.967,939.8
620.496,933.7
621.025,940.0
621.555,948.5
622.084,971.5
622.613,968.4
623.142,939.4
623.671,929.4
624.2,926.8
624.729,930.6
625.258,933.7
625.786,942.6
626.315,969.0
626.844,1202.7
627.372,1739.3
627.901,1367.4
628.429,1535.9
628.957,1446.0
629.486,1324.4
630.014,1199.9
630.542,1175.1
631.07,1040.7
631.598,955.4
632.126,940.5
632.654,930.6
633.182,931.1
633.71,927.2
634.237,919.5
634.765,920.4
635.293,921.1
635.82,920.1
636.348,923.2
636.875,921.5
637.403,916.6
637.93,918.0
638.458,917.7
638.985,915.1
639.512,919.4
640.039,917.8
640.566,917.7
641.093,917.9
641.62,917.9
642.147,918.9
642.674,913.6
643.201,915.1
643.728,914.6
644.255,918.2
644.781,914.0
645.308,912.5
645.835,914.6
646.361,912.6
646.888,913.1
647.414,912.3
647.941,910.0
648.467,910.6
648.993,911.1
649.52,903.2
650.046,904.6
650.572,903.8
651.098,903.7
651.625,900.8
652.151,902.4
652.677,900.5
653.203,901.1
653.729,900.6
654.255,898.3
654.78,897.8
655.306,899.6
655.832,896.6
656.358,899.8
656.884,895.8
657.409,892.8
657.935,893.2
658.461,893.8
658.986,897.2
659.512,896.1
660.037,895.0
660.563,891.1
661.088,887.1
661.614,884.9
662.139,887.6
662.664,886.8
663.058,887.4