File: spectra/VLFR_08-PLA_bio_Raman_6fe56b17.csv
nm,Intensity
526.508,830.1
527.055,830.2
527.602,831.2
528.149,831.3
528.695,831.8
529.241,829.8
529.787,830.9
530.334,831.9
530.879,829.2
531.425,829.4
531.971,837.2
532.516,831.2
533.062,829.6
533.607,829.5
534.152,990.2
534.697,952.5
535.242,929.8
535.786,918.3
536.331,909.4
536.876,913.4
537.42,909.0
537.964,909.3
538.508,904.6
539.052,903.5
539.596,902.6
540.14,896.3
540.683,908.2
541.227,902.7
541.77,900.2
542.313,900.7
542.856,900.6
543.399,918.0
543.942,917.7
544.485,909.6
545.027,903.3
545.57,898.3
546.112,896.2
546.654,899.6
547.196,901.8
547.738,904.4
548.28,903.8
548.822,901.0
549.363,903.9
549.905,904.1
550.446,902.9
550.988,909.9
551.529,912.9
552.07,910.8
552.611,916.5
553.152,910.8
553.692,910.6
554.233,919.1
554.773,905.7
555.314,907.1
555.854,908.6
556.394,907.5
556.934,912.0
557.474,921.8
558.014,997.4
558.553,933.7
559.093,918.8
559.632,916.0
560.172,913.4
560.711,914.7
561.25,911.2
561.789,912.0
562.328,915.8
562.867,921.1
563.406,940.5
563.944,929.3
564.483,921.2
565.021,936.2
565.559,936.9
566.098,953.8
566.636,932.7
567.174,920.3
567.711,924.3
568.249,924.5
568.787,928.7
569.324,927.8
569.862,924.6
570.399,924.5
570.936,926.3
571.474,941.0
572.011,944.0
572.548,938.2
573.084,937.0
573.621,941.4
574.158,937.7
574.694,941.8
575.231,931.7
575.767,932.8
576.303,939.6
576.84,983.7
577.376,944.5
577.912,936.6
578.447,931.3
578.983,933.4
579.519,932.0
580.054,933.2
580.59,929.4
581.125,929.6
581.661,932.9
582.196,935.8
582.731,934.6
583.266,934.9
583.801,932.9
584.336,934.9
584.87,937.1
585.405,935.1
585.94,936.5
586.474,946.3
587.008,968.5
587.543,988.7
588.077,954.9
588.611,939.3
589.145,938.3
589.679,937.4
590.213,933.4
590.747,938.7
591.28,935.5
591.814,933.5
592.347,933.0
592.881,931.8
593.414,937.0
593.947,927.4
594.48,935.0
595.014,935.8
595.547,936.0
596.079,936.0
596.612,938.5
597.145,932.0
597.678,933.7
598.21,940.7
598.743,935.3
599.275,937.9
599.807,935.6
600.34,932.7
600.872,937.0
601.404,936.6
601.936,937.3
602.468,933.9
603.0,931.3
603.532,936.1
604.063,933.6
604.595,936.7
605.126,933.8
605.658,935.0
606.189,930.1
606.721,931.3
607.252,932.5
607.783,932.0
608.314,934.0
608.845,929.8
609.376,933.7
609.907,932.2
610.438,929.2
610.968,932.9
611.499,935.2
612.03,934.6
612.56,931.6
613.091,930.8
613.621,934.0
614.151,937.5
614.681,928.6
615.212,933.1
615.742,931.0
616.272,932.8
616.802,933.2
617.332,936.3
617.861,931.7
618.391,933.4
618.921,933.5
619.45,929.9
619.98,930.9
620.509,927.9
621.039,932.7
621.568,931.5
622.097,933.4
622.627,935.0
623.156,943.0
623.685,939.7
624.214,935.8
624.743,929.4
625.272,927.4
625.801,933.1
626.33,931.6
626.858,933.2
627.387,932.1
627.916,939.8
628.444,988.7
628.973,976.2
629.501,978.2
630.029,984.3
630.558,1027.7
631.086,1320.4
631.614,1124.7
632.142,1026.9
632.67,1008.6
633.198,1078.8
633.726,1054.2
634.254,987.3
634.782,947.5
635.31,931.0
635.838,931.9
636.365,926.6
636.893,928.1
637.421,922.5
637.948,922.2
638.476,923.3
639.003,925.3
639.531,920.5
640.058,921.0
640.585,921.3
641.113,919.7
641.64,922.3
642.167,919.6
642.694,921.6
643.221,916.9
643.748,917.5
644.275,915.9
644.802,916.7
645.329,911.4
645.856,913.5
646.382,913.6
646.909,910.1
647.436,914.1
647.962,913.8
648.489,911.3
649.016,907.5
649.542,908.2
650.069,906.1
650.595,909.5
651.121,908.2
651.648,908.8
652.174,904.3
652.7,906.7
653.227,904.2
653.753,905.6
654.279,908.1
654.805,905.8
655.331,906.9
655.857,904.6
656.383,903.9
656.909,905.7
657.435,904.6
657.961,906.6
658.487,902.3
659.013,905.6
659.538,903.6
660.064,900.2
660.59,902.5
661.116,904.3
661.641,898.7
662.167,900.2
662.692,898.7
663.087,898.4