File: spectra/VLFR_01-LDPE_nobio_Raman_dc69b9fd.csv
nm,Intensity
526.486,828.3
527.033,829.9
527.579,829.6
528.126,829.2
528.672,827.7
529.219,828.2
529.765,828.4
530.311,829.8
530.857,828.0
531.403,829.0
531.948,830.7
532.494,830.2
533.039,828.8
533.585,830.4
534.13,918.9
534.675,901.9
535.22,885.7
535.764,871.0
536.309,866.5
536.854,860.4
537.398,859.2
537.942,860.8
538.486,856.9
539.03,854.0
539.574,850.1
540.118,851.1
540.662,849.1
541.205,847.6
541.749,843.9
542.292,844.8
542.835,845.4
543.378,845.4
543.921,846.7
544.464,846.3
545.006,844.7
545.549,841.7
546.091,841.6
546.634,845.1
547.176,842.7
547.718,842.5
548.26,841.9
548.802,844.1
549.343,841.9
549.885,841.7
550.426,842.8
550.968,841.4
551.509,842.8
552.05,844.4
552.591,841.9
553.132,843.9
553.673,848.6
554.214,848.2
554.754,846.6
555.295,846.5
555.835,849.0
556.375,853.3
556.915,854.7
557.455,856.1
557.995,860.0
558.535,862.3
559.075,857.0
559.614,855.8
560.154,855.5
560.693,854.8
561.232,855.7
561.772,857.3
562.311,859.8
562.85,865.7
563.388,869.3
563.927,925.0
564.466,893.2
565.004,887.7
565.543,879.1
566.081,959.4
566.619,887.9
567.157,877.9
567.695,883.6
568.233,875.9
568.771,879.4
569.309,880.2
569.846,882.9
570.384,888.5
570.921,900.4
571.458,1003.1
571.995,947.3
572.532,919.3
573.069,911.6
573.606,916.6
574.143,932.2
574.68,926.1
575.216,936.2
575.753,1002.2
576.289,1112.9
576.825,1063.6
577.361,1041.4
577.897,1001.5
578.433,1006.0
578.969,1024.1
579.505,1037.9
580.041,1056.0
580.576,1071.7
581.112,1090.8
581.647,1096.3
582.183,1119.6
582.718,1132.4
583.253,1147.4
583.788,1161.3
584.323,1171.6
584.858,1195.5
585.392,1210.4
585.927,1229.3
586.462,1246.1
586.996,1270.2
587.53,1289.7
588.065,1318.7
588.599,1344.7
589.133,1355.9
589.667,1381.8
590.201,1411.2
590.735,1428.1
591.268,1453.5
591.802,1464.9
592.335,1466.9
592.869,1483.2
593.402,1482.2
593.936,1483.4
594.469,1493.4
595.002,1502.2
595.535,1508.2
596.068,1514.2
596.601,1525.3
597.133,1535.7
597.666,1531.6
598.199,1542.9
598.731,1538.2
599.264,1571.8
599.796,1570.6
600.328,1574.6
600.86,1571.2
601.393,1554.9
601.925,1546.2
602.457,1541.6
602.988,1533.3
603.52,1502.3
604.052,1488.6
604.583,1462.6
605.115,1429.7
605.646,1392.8
606.178,1380.8
606.709,1348.5
607.24,1349.4
607.771,1318.9
608.302,1306.7
608.833,1287.0
609.364,1286.9
609.895,1263.2
610.426,1255.8
610.957,1248.1
611.487,1244.4
612.018,1220.4
612.548,1228.8
613.078,1219.8
613.609,1213.1
614.139,1198.5
614.669,1193.1
615.199,1183.1
615.729,1181.8
616.259,1170.7
616.789,1164.7
617.319,1166.2
617.849,1152.4
618.378,1150.2
618.908,1145.6
619.437,1137.1
619.967,1142.9
620.496,1138.0
621.025,1129.4
621.555,1138.8
622.084,1166.4
622.613,1169.9
623.142,1132.5
623.671,1110.7
624.2,1119.5
624.729,1113.1
625.258,1118.8
625.786,1119.7
626.315,1152.6
626.844,1394.7
627.372,1979.0
627.901,1634.4
628.429,1854.9
628.957,1760.0
629.486,1611.3
630.014,1466.4
630.542,1449.4
631.07,1282.0
631.598,1178.4
632.126,1151.4
632.654,1129.5
633.182,1127.5
633.71,1129.1
634.237,1122.7
634.765,1128.8
635.293,1121.7
635.82,1128.4
636.348,1130.0
636.875,1137.2
637.403,1137.7
637.93,1140.0
638.458,1144.0
638.985,1143.8
639.512,1160.6
640.039,1152.9
640.566,1162.3
641.093,1176.5
641.62,1171.8
642.147,1175.0
642.674,1179.2
643.201,1179.7
643.728,1181.3
644.255,1185.8
644.781,1179.3
645.308,1181.4
645.835,1180.1
646.361,1196.4
646.888,1182.8
647.414,1192.6
647.941,1185.8
648.467,1180.6
648.993,1176.6
649.52,1179.5
650.046,1184.0
650.572,1172.2
651.098,1177.1
651.625,1179.5
652.151,1173.5
652.677,1179.1
653.203,1174.5
653.729,1172.7
654.255,1172.8
654.78,1172.6
655.306,1166.5
655.832,1154.4
656.358,1151.7
656.884,1153.1
657.409,1137.7
657.935,1127.4
658.461,1133.6
658.986,1119.4
659.512,1110.7
660.037,1107.6
660.563,1093.3
661.088,1084.4
661.614,1070.9
662.139,1066.2
662.664,1055.7
663.058,1049.3