File: spectra/VLFR_07-PET_bio_Raman_2af643b3.csv
nm,Intensity
791.75,7353.45
792.846,7135.5
793.942,7193.2
795.037,7243.65
796.133,7109.8
797.228,7134.5
798.324,7038.0
799.419,7012.4
800.514,7155.0
801.61,7124.25
802.705,7046.35
803.8,7032.5
804.894,7006.75
805.989,7017.05
807.084,7060.2
808.178,6988.55
809.273,7103.55
810.367,6918.45
811.461,6999.4
812.556,6930.2
813.65,6951.05
814.744,6944.25
815.837,6817.1
816.931,6875.4
818.025,6941.5
819.118,6812.25
820.212,6762.5
821.305,6833.95
822.398,6683.6
823.491,6747.95
824.585,6805.9
825.677,6735.7
826.77,6744.9
827.863,6715.4
828.956,6715.05
830.048,6732.85
831.14,6687.4
832.233,6768.4
833.325,6621.95
834.417,6588.8
835.509,6715.2
836.601,6663.0
837.692,6658.0
838.784,6642.85
839.876,6573.5
840.967,6641.6
842.058,6649.95
843.149,6573.05
844.24,6568.45
845.331,6634.15
846.422,6557.1
847.513,6489.45
848.604,6493.8
849.694,6473.4
850.784,6478.75
851.875,6493.65
852.965,6504.65
854.055,6457.25
855.145,6456.75
856.235,6417.55
857.324,6452.65
858.414,6660.15
859.503,6440.95
860.593,6466.75
861.682,6442.6
862.771,6296.05
863.86,6452.55
864.949,6326.1
866.038,6457.65
867.126,6277.15
868.215,6258.9
869.303,6347.65
870.391,6279.8
871.479,6252.7
872.567,6366.55
873.655,6429.25
874.743,6421.5
875.831,6230.5
876.918,6256.2
878.006,6208.65
879.093,6200.75
880.18,6231.45
881.267,6130.95
882.354,6100.7
883.441,6296.45
884.527,6084.6
885.614,6160.8
886.7,6065.0
887.786,6240.8
888.872,6106.25
889.958,6106.2
891.044,6154.95
892.13,6142.5
893.216,6025.95
894.301,6000.3
895.386,6157.2
896.472,5853.05
897.557,5938.7
898.642,5991.6
899.726,5931.65
900.811,5888.85
901.896,5871.6
902.98,5970.0
904.064,5837.1
905.148,5954.05
906.232,5879.9
907.316,5865.15
908.4,5874.25
909.484,5771.95
910.567,5720.3
911.65,5694.65
912.734,5836.15
913.817,5700.45
914.9,5664.0
915.982,5736.65
917.065,5569.3
918.147,5606.3
919.23,5609.15
920.312,5700.75
921.394,5598.7
922.476,5569.4
923.558,5489.3
924.639,5395.3
925.721,5404.35
926.802,5550.5
927.884,5357.7
928.965,5300.2
930.046,5371.5
931.126,5272.9
932.207,5369.7
933.288,5321.5
934.368,5248.45
935.448,5208.45
936.528,5267.85
937.608,5216.55
938.688,5114.2
939.767,5229.2
940.847,5163.4
941.926,5101.05
943.005,4989.9
944.084,5053.9
945.163,5061.8
946.242,4980.55
947.321,5001.95
948.399,5019.8
949.477,4967.65
950.556,4938.95
951.634,4969.45
952.711,4910.8
953.789,4856.7
954.867,4920.5
955.944,4874.15
957.021,4721.15
958.098,4839.85
959.175,4833.9
960.252,4747.5
961.328,4719.5
962.405,4760.1
963.481,4766.3
964.557,4750.25
965.633,4667.0
966.709,4598.05
967.785,4593.3
968.86,4643.9
969.936,4612.75
971.011,4571.5
972.086,4570.8
973.161,4517.55
974.235,4541.75
975.31,4464.55
976.384,4478.2
977.459,4495.85
978.533,4400.7
979.607,4480.4
980.68,4457.6
981.754,4480.0
982.827,4395.5
983.901,4369.8
984.974,4358.6
986.047,4315.15
987.119,4350.9
988.192,4300.3
989.264,4327.05
990.337,4284.35
991.409,4269.15
992.481,4245.65
993.553,4300.6
994.624,4189.65
995.696,4244.1
996.767,4219.15
997.838,4230.25
998.909,4171.7
999.98,4192.75
1001.05,4179.1
1002.12,4164.1
1003.19,4151.4
1004.26,4107.0
1005.33,4116.3
1006.4,4090.25
1007.47,4082.4
1008.54,4121.4
1009.61,4049.2
1010.68,4072.15
1011.75,4051.45
1012.82,4061.8
1013.88,4018.75
1014.95,4022.25
1016.02,4025.3
1017.09,3984.7
1018.16,4003.65
1019.22,3979.05
1020.29,3977.25
1021.36,3974.4
1022.43,3946.75
1023.49,3940.15
1024.56,3942.75
1025.63,3941.45
1026.69,3927.15
1027.76,3923.2
1028.83,3889.7
1029.89,3894.8
1030.96,3879.9
1032.02,3902.65
1033.09,3873.8
1034.15,3866.95
1035.22,3875.6
1036.28,3865.9
1037.35,3861.2
1038.41,3858.0
1039.48,3846.95
1040.54,3852.35
1041.6,3840.85
1042.67,3831.05
1043.73,3835.3
1044.79,3822.9
1045.86,3819.8
1046.92,3816.5
1047.98,3817.0
1049.05,3804.05
1050.11,3813.15
1051.17,3808.95
1052.23,3808.8
1053.29,3802.1
1054.36,3803.75
1055.42,3798.5
1056.48,3798.85
1057.54,3800.0
1058.6,3793.9
1059.66,3793.35
1060.72,3789.15
1061.78,3788.7
1062.84,3785.2
1063.9,3788.45
1064.96,3779.45
1066.02,3782.15
1067.08,3782.05
1067.88,3780.05