File: spectra/VLFR_01-LDPE_nobio_Raman_e7b0b448.csv
nm,Intensity
528.65,1836.25
529.155,1837.2
529.66,1837.55
530.165,1837.65
530.67,1837.2
531.175,1839.25
531.68,1852.85
532.185,2451.45
532.69,1839.3
533.194,1838.55
533.699,1901.5
534.204,2037.55
534.708,2027.85
535.213,2008.7
535.717,1988.9
536.222,1970.7
536.726,1952.4
537.231,1958.75
537.735,1965.1
538.239,1953.65
538.743,1951.5
539.247,1932.45
539.751,1942.6
540.255,1940.1
540.759,1939.55
541.263,1938.35
541.767,1937.85
542.271,1938.0
542.775,1935.75
543.279,1936.3
543.782,1937.3
544.286,1934.25
544.789,1934.95
545.293,1935.75
545.796,1930.95
546.3,1933.45
546.803,1937.45
547.306,1933.6
547.81,1936.35
548.313,1935.85
548.816,1929.75
549.319,1932.35
549.822,1930.05
550.325,1930.5
550.828,1933.4
551.331,1933.5
551.834,1939.4
552.337,1938.1
552.839,1934.45
553.342,1950.15
553.844,1947.4
554.347,1946.5
554.849,1953.85
555.352,1950.05
555.854,1958.3
556.357,1957.55
556.859,1967.55
557.361,1980.6
557.863,1981.6
558.365,1988.75
558.867,1989.9
559.369,1978.5
559.871,1969.35
560.373,1977.05
560.875,1975.55
561.377,1974.0
561.878,1976.95
562.38,1990.35
562.881,1994.2
563.383,2013.25
563.884,2193.15
564.386,2090.2
564.887,2056.05
565.388,2029.7
565.89,2135.8
566.391,2128.65
566.892,2032.45
567.393,2054.0
567.894,2020.85
568.395,2026.6
568.896,2020.95
569.396,2027.8
569.897,2042.25
570.398,2056.15
570.898,2077.95
571.399,2392.7
571.9,2203.9
572.4,2138.95
572.9,2103.95
573.401,2112.95
573.901,2148.85
574.401,2136.8
574.901,2151.4
575.401,2279.6
575.901,2399.7
576.401,2623.55
576.901,2521.75
577.401,2401.0
577.901,2360.85
578.4,2374.25
578.9,2424.35
579.399,2467.55
579.899,2526.5
580.398,2569.7
580.898,2621.35
581.397,2675.6
581.896,2667.1
582.395,2768.45
582.895,2774.8
583.394,2805.25
583.893,2877.55
584.391,2854.15
584.89,2934.8
585.389,2999.75
585.888,3008.65
586.386,3053.2
586.885,3085.8
587.384,3173.9
587.882,3248.9
588.38,3258.8
588.879,3293.75
589.377,3370.35
589.875,3423.65
590.373,3509.9
590.871,3481.7
591.369,3599.15
591.867,3647.95
592.365,3635.85
592.863,3680.2
593.361,3665.3
593.858,3723.15
594.356,3735.65
594.853,3798.85
595.351,3874.9
595.848,3901.6
596.345,3979.4
596.843,4019.4
597.34,4136.5
597.837,4181.15
598.334,4254.6
598.831,4273.2
599.328,4360.5
599.824,4391.9
600.321,4496.2
600.818,4468.25
601.314,4424.65
601.811,4477.45
602.307,4372.5
602.804,4322.6
603.3,4300.1
603.796,4181.25
604.293,4107.8
604.789,4037.3
605.285,3928.55
605.781,3844.2
606.277,3803.15
606.772,3692.85
607.268,3631.45
607.764,3557.65
608.259,3457.7
608.755,3419.4
609.25,3383.6
609.746,3332.8
610.241,3255.85
610.736,3233.0
611.231,3206.95
611.727,3211.45
612.222,3164.7
612.716,3138.25
613.211,3092.6
613.706,3054.45
614.201,3029.7
614.695,3010.1
615.19,2972.6
615.684,2949.0
616.179,2911.4
616.673,2909.65
617.168,2891.3
617.662,2886.2
618.156,2863.5
618.65,2828.7
619.144,2844.4
619.638,2798.8
620.131,2808.3
620.625,2796.8
621.119,2832.4
621.612,2843.65
622.106,2915.75
622.599,2859.25
623.093,2790.85
623.586,2768.9
624.079,2717.8
624.572,2732.7
625.065,2731.4
625.558,2737.6
626.051,2785.95
626.544,3126.05
627.037,4940.7
627.529,4753.2
628.022,4279.95
628.514,5419.1
629.007,4383.15
629.499,3993.15
629.991,3714.2
630.483,3599.9
630.976,3152.3
631.468,2872.7
631.959,2787.0
632.451,2762.5
632.943,2735.25
633.435,2706.8
633.926,2773.8
634.418,2723.7
634.909,2731.0
635.401,2749.6
635.892,2699.2
636.383,2719.95
636.874,2729.85
637.365,2729.5
637.856,2747.0
638.347,2760.9
638.838,2766.2
639.329,2794.6
639.819,2774.55
640.31,2835.45
640.8,2818.2
641.291,2825.1
641.781,2835.55
642.271,2835.85
642.761,2843.7
643.251,2846.7
643.741,2860.85
644.231,2881.9
644.721,2896.45
645.211,2915.15
645.7,2901.45
646.19,2880.6
646.679,2897.6
647.169,2886.1
647.658,2874.8
648.147,2884.15
648.636,2884.65
649.125,2874.3
649.614,2894.85
650.103,2875.85
650.592,2900.05
651.08,2912.7
651.569,2841.35
652.058,2884.0
652.546,2861.0
653.034,2856.0
653.523,2857.35
654.011,2880.6
654.499,2827.5
654.987,2820.75
655.475,2810.45
655.963,2831.15
656.45,2798.25
656.938,2780.5
657.425,2745.6
657.913,2752.85
658.4,2682.2
658.888,2672.9
659.375,2625.2
659.862,2605.5
660.349,2559.0
660.836,2517.8
661.079,2512.1