File: spectra/VLFR_06-PET_bio_Raman_0457d4d7.csv
nm,Intensity
528.635,1841.2
529.14,1841.3
529.645,1843.1
530.151,1843.4
530.656,1842.7
531.161,1848.1
531.666,1887.7
532.171,4280.4
532.676,1850.0
533.181,1866.2
533.686,4503.5
534.191,10430.8
534.696,8231.5
535.201,6081.9
535.705,4632.1
536.21,3650.3
536.715,3342.2
537.219,3130.3
537.724,3051.0
538.228,3080.6
538.733,3114.7
539.237,3149.8
539.741,3351.2
540.246,3125.7
540.75,2898.5
541.254,2819.2
541.758,2809.0
542.262,2835.0
542.766,2838.4
543.27,2807.5
543.774,2913.7
544.278,2869.3
544.781,2843.4
545.285,2881.9
545.789,2889.7
546.292,2938.8
546.796,2923.5
547.299,2949.4
547.803,2961.4
548.306,3019.9
548.809,2993.4
549.313,2972.1
549.816,2996.7
550.319,3229.3
550.822,3828.5
551.325,3148.0
551.828,3097.9
552.331,3183.6
552.834,3735.1
553.337,3158.8
553.839,3221.2
554.342,3247.3
554.845,3288.0
555.347,3569.2
555.85,3921.9
556.352,4011.4
556.854,4131.9
557.357,5382.3
557.859,4653.3
558.361,4410.6
558.863,4055.7
559.365,3611.1
559.867,3584.6
560.369,3563.7
560.871,3593.4
561.373,3720.2
561.875,3757.0
562.377,3899.9
562.878,4049.4
563.38,3994.1
563.881,3884.4
564.383,4000.5
564.884,4413.3
565.386,5115.1
565.887,5349.0
566.388,4486.1
566.889,4038.5
567.391,4403.2
567.892,4682.1
568.393,4151.9
568.893,4141.1
569.394,4259.9
569.895,4510.9
570.396,5222.4
570.897,6518.4
571.397,7509.6
571.898,5910.7
572.398,4904.9
572.899,4528.4
573.399,4442.6
573.899,4792.3
574.399,4658.8
574.9,4712.8
575.4,5148.6
575.9,4761.4
576.4,5097.4
576.899,5119.3
577.399,4749.2
577.899,4703.8
578.399,4778.7
578.898,4729.9
579.398,4830.2
579.897,4921.2
580.397,4921.2
580.896,5250.5
581.396,5536.5
581.895,11207.7
582.394,10028.9
582.893,5305.6
583.392,5115.6
583.891,5185.1
584.39,5254.7
584.889,5492.2
585.387,7070.8
585.886,11728.2
586.385,9303.0
586.883,5832.2
587.382,5504.6
587.88,5326.5
588.379,5336.2
588.877,5342.3
589.375,5399.4
589.873,5367.7
590.371,5240.3
590.869,5329.7
591.367,5289.0
591.865,5365.2
592.363,5321.0
592.86,5358.5
593.358,5435.3
593.856,5384.9
594.353,5387.6
594.851,5435.2
595.348,5543.6
595.845,5505.0
596.342,5480.2
596.84,5530.6
597.337,5493.0
597.834,5488.4
598.331,5533.0
598.827,5449.2
599.324,5654.3
599.821,5528.6
600.318,5586.8
600.814,5609.0
601.311,5617.9
601.807,5543.0
602.303,5659.5
602.8,5541.3
603.296,5695.5
603.792,5548.3
604.288,5562.0
604.784,5632.6
605.28,5613.4
605.776,5673.5
606.272,5725.4
606.767,5783.6
607.263,5784.3
607.758,5740.0
608.254,5748.3
608.749,5720.6
609.244,5750.2
609.74,5759.0
610.235,5730.9
610.73,5727.5
611.225,5766.5
611.72,5736.8
612.215,5800.6
612.709,5769.3
613.204,5838.0
613.699,5865.2
614.193,5952.7
614.688,5825.1
615.182,5856.5
615.676,5880.2
616.171,5964.7
616.665,5935.5
617.159,5935.4
617.653,6000.7
618.147,6152.2
618.641,6088.0
619.134,6094.4
619.628,6028.2
620.122,6032.1
620.615,6085.5
621.109,6065.1
621.602,6228.1
622.095,6061.4
622.588,6328.3
623.082,6162.1
623.575,6293.2
624.068,6306.7
624.56,6346.6
625.053,6376.5
625.546,6320.2
626.039,6296.8
626.531,6313.6
627.024,6446.0
627.516,6558.8
628.008,6476.3
628.501,6779.9
628.993,6926.9
629.485,6989.4
629.977,6869.3
630.469,6888.5
630.961,7571.2
631.452,8621.4
631.944,8680.5
632.436,8130.5
632.927,7740.5
633.418,7685.3
633.91,7499.6
634.401,7320.8
634.892,7226.1
635.383,7530.3
635.874,8202.8
636.365,9119.2
636.856,8885.6
637.347,7732.9
637.837,7376.7
638.328,7406.9
638.818,7450.6
639.309,7304.7
639.799,7318.3
640.289,7292.9
640.78,7274.2
641.27,7558.2
641.76,7398.2
642.249,7583.6
642.739,7429.2
643.229,7260.1
643.719,7229.5
644.208,7573.9
644.698,7205.2
645.187,7448.2
645.676,7462.7
646.165,7366.4
646.655,7546.9
647.144,7457.2
647.633,7372.2
648.121,7406.5
648.61,7308.6
649.099,7503.0
649.587,7219.1
650.076,7074.1
650.564,7254.6
651.053,7102.7
651.541,7275.5
652.029,7285.5
652.517,7135.0
653.005,7109.0
653.493,6984.7
653.981,7018.7
654.468,6919.6
654.956,6887.1
655.444,6886.3
655.931,6925.8
656.418,6881.3
656.906,6677.6
657.393,6689.6
657.88,6570.9
658.367,6605.8
658.854,6524.4
659.341,6429.6
659.827,6333.3
660.314,6259.6
660.8,6357.9
661.044,6237.8