File: spectra/VLFR_08-PLA_bio_Raman_6f60b877.csv
nm,Intensity
526.495,830.6
527.042,828.9
527.589,827.1
528.136,828.0
528.682,829.2
529.229,828.3
529.775,831.0
530.321,828.9
530.867,829.3
531.413,827.8
531.959,832.1
532.505,829.8
533.051,829.3
533.596,830.2
534.141,1012.5
534.687,979.1
535.232,943.9
535.777,926.7
536.321,919.9
536.866,924.1
537.41,917.1
537.955,913.2
538.499,908.0
539.043,897.7
539.587,899.6
540.131,892.9
540.675,911.3
541.219,907.1
541.762,903.2
542.305,900.1
542.849,900.8
543.392,922.4
543.935,932.2
544.478,908.4
545.02,898.6
545.563,900.0
546.106,897.6
546.648,899.1
547.19,900.1
547.732,903.4
548.274,901.9
548.816,904.0
549.358,902.7
549.9,901.4
550.441,902.4
550.983,906.6
551.524,908.0
552.065,910.7
552.606,915.7
553.147,913.2
553.688,908.4
554.229,918.9
554.769,912.0
555.31,905.8
555.85,903.8
556.391,907.6
556.931,906.8
557.471,922.1
558.011,1028.4
558.551,939.5
559.09,920.6
559.63,920.0
560.169,914.6
560.709,916.3
561.248,911.2
561.787,909.1
562.326,907.8
562.865,919.9
563.404,951.0
563.943,930.7
564.481,923.3
565.02,945.5
565.558,937.2
566.096,960.3
566.634,938.1
567.172,919.9
567.71,923.5
568.248,925.3
568.786,928.2
569.324,925.3
569.861,925.3
570.399,923.3
570.936,926.9
571.473,939.3
572.01,942.6
572.547,934.5
573.084,939.5
573.621,941.8
574.158,939.8
574.694,950.6
575.231,929.5
575.767,932.2
576.303,942.7
576.84,1000.3
577.376,949.5
577.912,932.4
578.448,926.5
578.984,928.0
579.519,930.6
580.055,931.2
580.59,928.9
581.126,928.7
581.661,927.4
582.196,927.4
582.731,930.2
583.267,932.9
583.801,937.2
584.336,933.3
584.871,934.1
585.406,935.5
585.94,937.3
586.475,942.5
587.009,981.7
587.543,1004.7
588.078,956.1
588.612,937.6
589.146,932.9
589.68,934.9
590.214,939.0
590.747,931.5
591.281,933.5
591.815,934.7
592.348,936.1
592.881,933.7
593.415,932.4
593.948,931.2
594.481,933.5
595.014,931.5
595.547,935.9
596.08,935.1
596.613,932.4
597.146,936.4
597.678,937.0
598.211,932.8
598.743,939.5
599.276,933.1
599.808,937.1
600.34,936.4
600.872,934.1
601.404,935.0
601.936,938.7
602.468,938.6
603.0,938.8
603.532,938.4
604.064,943.3
604.595,933.0
605.127,932.3
605.658,938.1
606.189,936.9
606.721,935.2
607.252,932.0
607.783,938.3
608.314,938.3
608.845,934.9
609.376,936.2
609.907,939.9
610.438,938.2
610.968,936.9
611.499,939.1
612.029,939.0
612.56,937.5
613.09,942.6
613.621,939.1
614.151,944.3
614.681,940.2
615.211,946.0
615.741,940.4
616.271,944.7
616.801,944.1
617.331,943.4
617.861,947.6
618.39,944.9
618.92,940.9
619.45,942.4
619.979,947.4
620.509,941.2
621.038,942.3
621.567,938.8
622.096,947.9
622.626,954.8
623.155,954.7
623.684,948.9
624.213,953.3
624.742,947.4
625.271,942.5
625.799,941.7
626.328,942.2
626.857,945.8
627.386,946.7
627.914,951.3
628.443,1018.0
628.971,1003.3
629.5,1004.9
630.028,1008.6
630.556,1066.4
631.084,1415.6
631.613,1193.6
632.141,1069.3
632.669,1044.6
633.197,1130.2
633.725,1096.3
634.253,1001.3
634.781,958.6
635.308,944.0
635.836,938.1
636.364,939.3
636.891,936.1
637.419,934.0
637.947,933.5
638.474,931.4
639.002,934.5
639.529,930.3
640.056,928.4
640.584,934.2
641.111,930.6
641.638,928.4
642.165,931.9
642.692,928.4
643.219,923.4
643.746,923.4
644.273,923.0
644.8,922.8
645.327,917.9
645.854,916.3
646.381,919.7
646.908,922.7
647.434,916.7
647.961,920.9
648.488,918.6
649.014,917.3
649.541,913.7
650.067,914.3
650.594,912.7
651.12,912.9
651.646,910.1
652.173,913.3
652.699,914.9
653.225,915.1
653.752,911.6
654.278,914.1
654.804,911.0
655.33,911.3
655.856,914.3
656.382,910.4
656.908,908.9
657.434,912.9
657.96,908.4
658.486,911.6
659.012,910.8
659.538,906.3
660.064,911.7
660.589,908.4
661.115,905.0
661.641,907.4
662.166,902.5
662.692,905.3
663.086,906.2