File: spectra/VLFR_08-PLA_bio_Raman_a14ee3c1.csv
nm,Intensity
528.65,1854.7
529.155,1855.55
529.66,1856.6
530.165,1854.7
530.67,1854.6
531.175,1856.95
531.68,1870.65
532.185,2510.05
532.69,1861.6
533.194,1870.15
533.699,3359.55
534.204,7846.3
534.708,8293.1
535.213,8978.5
535.717,9262.85
536.222,9100.7
536.726,9405.75
537.231,9878.1
537.735,10025.0
538.239,10139.8
538.743,10279.3
539.247,10573.3
539.751,10823.4
540.255,10720.3
540.759,11289.0
541.263,11321.9
541.767,11526.0
542.271,11927.1
542.775,12014.5
543.279,12246.8
543.782,12312.8
544.286,12507.6
544.789,12793.9
545.293,13039.0
545.796,13282.7
546.3,13279.4
546.803,13646.7
547.306,13812.3
547.81,13697.5
548.313,14324.3
548.816,14254.8
549.319,14378.0
549.822,14563.7
550.325,14556.1
550.828,14872.2
551.331,15381.2
551.834,15448.5
552.337,15570.5
552.839,15734.8
553.342,15732.4
553.844,15905.4
554.347,16061.8
554.849,16544.3
555.352,16581.6
555.854,16703.4
556.357,16699.6
556.859,17000.3
557.361,16830.0
557.863,17146.4
558.365,17337.8
558.867,17441.8
559.369,17769.3
559.871,17974.5
560.373,17853.9
560.875,18266.3
561.377,18323.5
561.878,18647.3
562.38,18876.3
562.881,18843.7
563.383,18741.8
563.884,18964.6
564.386,19145.8
564.887,19675.0
565.388,19907.9
565.89,19775.3
566.391,19938.6
566.892,19982.8
567.393,19979.8
567.894,20147.1
568.395,20178.2
568.896,20510.9
569.396,20761.5
569.897,20595.3
570.398,20934.2
570.898,21282.2
571.399,20835.3
571.9,21398.9
572.4,21555.1
572.9,21468.5
573.401,21510.6
573.901,21605.6
574.401,21152.3
574.901,21627.0
575.401,21708.1
575.901,21650.8
576.401,21899.8
576.901,21787.0
577.401,21889.6
577.901,21925.9
578.4,21839.4
578.9,21802.3
579.399,22385.1
579.899,22351.3
580.398,22207.8
580.898,22464.2
581.397,22399.3
581.896,22759.2
582.395,22498.1
582.895,22243.9
583.394,22841.9
583.893,22593.7
584.391,22715.1
584.89,22797.8
585.389,22357.1
585.888,22629.2
586.386,22713.8
586.885,22647.1
587.384,23346.3
587.882,22980.7
588.38,23081.4
588.879,22996.7
589.377,22619.0
589.875,22672.9
590.373,22708.3
590.871,22871.9
591.369,23038.1
591.867,23177.8
592.365,23207.5
592.863,23094.0
593.361,23270.3
593.858,22920.1
594.356,23226.2
594.853,22827.8
595.351,23336.2
595.848,23579.8
596.345,23083.1
596.843,23667.1
597.34,23303.9
597.837,23492.7
598.334,23242.8
598.831,23177.3
599.328,23584.4
599.824,23093.9
600.321,23367.8
600.818,23247.6
601.314,23846.1
601.811,23971.1
602.307,23264.8
602.804,23727.1
603.3,23183.4
603.796,23218.5
604.293,23433.8
604.789,23237.3
605.285,23825.3
605.781,23062.4
606.277,23568.8
606.772,23409.7
607.268,23381.2
607.764,23474.3
608.259,23075.3
608.755,22961.4
609.25,22937.9
609.746,23049.8
610.241,23035.3
610.736,23316.7
611.231,23664.7
611.727,23153.6
612.222,23210.6
612.716,23116.8
613.211,23027.8
613.706,22996.0
614.201,23453.3
614.695,22694.9
615.19,23467.1
615.684,22974.3
616.179,23015.1
616.673,22558.1
617.168,22653.9
617.662,22414.2
618.156,23354.7
618.65,22729.7
619.144,23190.3
619.638,22510.6
620.131,22582.8
620.625,22031.3
621.119,22698.3
621.612,22075.3
622.106,22444.5
622.599,21901.9
623.093,22300.3
623.586,21845.3
624.079,22141.5
624.572,22668.2
625.065,22532.8
625.558,21966.4
626.051,22035.7
626.544,21284.4
627.037,21475.2
627.529,21576.3
628.022,21784.1
628.514,21955.3
629.007,21377.2
629.499,21948.3
629.991,21491.8
630.483,20979.7
630.976,21166.8
631.468,21193.2
631.959,20939.2
632.451,20376.6
632.943,21274.6
633.435,20990.5
633.926,20770.2
634.418,20056.7
634.909,20048.4
635.401,20094.9
635.892,19958.8
636.383,19200.6
636.874,19600.7
637.365,19577.7
637.856,19570.6
638.347,19734.7
638.838,19371.5
639.329,19391.6
639.819,18516.3
640.31,18646.8
640.8,18590.2
641.291,18634.2
641.781,18031.7
642.271,18281.4
642.761,17642.7
643.251,18459.6
643.741,17578.5
644.231,17859.5
644.721,17331.0
645.211,17788.4
645.7,17099.4
646.19,17012.8
646.679,16734.3
647.169,17001.8
647.658,17113.7
648.147,16725.2
648.636,15785.7
649.125,16067.5
649.614,15775.1
650.103,15930.7
650.592,15681.6
651.08,15658.3
651.569,15560.3
652.058,15048.9
652.546,15260.3
653.034,14749.8
653.523,14269.3
654.011,14380.2
654.499,14564.2
654.987,14166.9
655.475,13941.7
655.963,13874.4
656.45,13726.3
656.938,13610.5
657.425,13459.2
657.913,13502.1
658.4,12972.4
658.888,12975.7
659.375,12798.3
659.862,12603.2
660.349,12753.8
660.836,12323.5
661.079,12182.1