File: spectra/VLFR_08-PLA_bio_Raman_33d4e9f3.csv
nm,Intensity
526.508,831.4
527.055,830.7
527.602,829.7
528.149,831.2
528.695,830.5
529.241,831.1
529.787,830.5
530.334,830.7
530.879,829.9
531.425,829.3
531.971,836.5
532.516,831.6
533.062,829.6
533.607,829.6
534.152,941.4
534.697,922.9
535.242,920.4
535.786,912.1
536.331,902.4
536.876,895.4
537.42,893.4
537.964,897.4
538.508,895.8
539.052,894.6
539.596,897.2
540.14,895.7
540.683,897.1
541.227,900.4
541.77,899.2
542.313,898.8
542.856,903.9
543.399,905.3
543.942,903.2
544.485,901.7
545.027,905.7
545.57,906.9
546.112,907.3
546.654,911.4
547.196,909.2
547.738,914.2
548.28,910.2
548.822,915.3
549.363,913.3
549.905,912.2
550.446,921.2
550.988,920.5
551.529,921.0
552.07,919.2
552.611,919.8
553.152,917.3
553.692,918.4
554.233,914.5
554.773,917.8
555.314,921.8
555.854,914.8
556.394,917.6
556.934,920.0
557.474,920.8
558.014,925.9
558.553,921.6
559.093,921.2
559.632,922.2
560.172,920.8
560.711,923.6
561.25,922.2
561.789,922.8
562.328,926.5
562.867,922.6
563.406,928.4
563.944,929.3
564.483,924.6
565.021,924.4
565.559,928.0
566.098,931.6
566.636,932.1
567.174,928.2
567.711,929.2
568.249,929.1
568.787,932.0
569.324,934.0
569.862,932.9
570.399,932.4
570.936,930.6
571.474,931.9
572.011,933.9
572.548,938.0
573.084,933.3
573.621,937.1
574.158,936.3
574.694,940.3
575.231,938.3
575.767,933.6
576.303,938.9
576.84,943.3
577.376,936.9
577.912,941.7
578.447,942.9
578.983,938.7
579.519,939.1
580.054,935.0
580.59,942.8
581.125,936.7
581.661,941.1
582.196,938.5
582.731,939.1
583.266,949.1
583.801,942.6
584.336,939.8
584.87,943.4
585.405,938.9
585.94,941.0
586.474,939.0
587.008,945.9
587.543,944.1
588.077,942.5
588.611,940.5
589.145,939.5
589.679,940.0
590.213,940.0
590.747,936.2
591.28,938.9
591.814,943.3
592.347,938.0
592.881,939.8
593.414,938.0
593.947,938.9
594.48,939.0
595.014,942.1
595.547,940.2
596.079,939.9
596.612,937.1
597.145,942.7
597.678,935.0
598.21,941.1
598.743,938.5
599.275,942.4
599.807,937.2
600.34,936.3
600.872,933.5
601.404,939.8
601.936,933.1
602.468,934.6
603.0,935.2
603.532,937.4
604.063,939.6
604.595,931.1
605.126,934.7
605.658,933.7
606.189,929.0
606.721,928.6
607.252,928.5
607.783,930.1
608.314,930.8
608.845,928.7
609.376,929.1
609.907,926.9
610.438,928.5
610.968,924.4
611.499,926.5
612.03,928.5
612.56,927.8
613.091,928.7
613.621,929.2
614.151,926.7
614.681,928.3
615.212,925.4
615.742,929.6
616.272,920.9
616.802,927.3
617.332,924.9
617.861,923.9
618.391,926.3
618.921,921.7
619.45,925.2
619.98,922.9
620.509,922.0
621.039,924.4
621.568,921.6
622.097,919.4
622.627,920.3
623.156,922.7
623.685,920.0
624.214,920.4
624.743,920.5
625.272,922.6
625.801,921.2
626.33,917.2
626.858,917.8
627.387,915.4
627.916,919.7
628.444,919.6
628.973,920.2
629.501,914.7
630.029,920.0
630.558,921.7
631.086,940.7
631.614,927.1
632.142,922.6
632.67,923.0
633.198,922.6
633.726,920.3
634.254,914.0
634.782,915.2
635.31,910.8
635.838,913.0
636.365,911.3
636.893,907.3
637.421,909.3
637.948,913.1
638.476,910.3
639.003,908.4
639.531,908.4
640.058,909.3
640.585,911.1
641.113,912.2
641.64,905.9
642.167,907.5
642.694,911.0
643.221,914.5
643.748,910.4
644.275,910.0
644.802,909.7
645.329,906.2
645.856,910.6
646.382,913.5
646.909,916.3
647.436,919.4
647.962,923.7
648.489,931.8
649.016,937.9
649.542,955.5
650.069,963.8
650.595,968.4
651.121,985.8
651.648,975.0
652.174,960.5
652.7,946.2
653.227,930.8
653.753,927.4
654.279,919.8
654.805,915.6
655.331,911.2
655.857,906.0
656.383,906.3
656.909,905.6
657.435,900.7
657.961,895.8
658.487,893.5
659.013,895.2
659.538,887.9
660.064,888.0
660.59,891.9
661.116,888.2
661.641,884.9
662.167,886.2
662.692,885.9
663.087,887.6