File: spectra/VLFR_02-HDPE_bio_Raman_e0f4c69d.csv
nm,Intensity
528.626,1861.2
529.132,1861.5
529.637,1862.4
530.143,1860.8
530.648,1861.8
531.153,1861.8
531.658,1884.4
532.164,3932.8
532.669,1865.8
533.174,1862.5
533.679,1956.2
534.184,2262.3
534.689,2274.6
535.194,2286.2
535.699,2192.1
536.203,2150.7
536.708,2122.0
537.213,2125.3
537.717,2116.0
538.222,2117.7
538.726,2098.3
539.231,2088.0
539.735,2084.7
540.239,2088.5
540.744,2076.9
541.248,2103.9
541.752,2087.9
542.256,2094.5
542.76,2092.9
543.264,2089.7
543.768,2103.8
544.272,2133.0
544.776,2106.9
545.28,2104.6
545.784,2126.5
546.287,2191.4
546.791,2158.9
547.294,2131.6
547.798,2097.5
548.301,2119.7
548.805,2116.5
549.308,2129.2
549.811,2127.9
550.315,2153.0
550.818,2121.9
551.321,2127.7
551.824,2141.3
552.327,2128.4
552.83,2123.8
553.333,2166.7
553.835,2153.8
554.338,2157.0
554.841,2150.9
555.343,2169.7
555.846,2167.7
556.349,2167.8
556.851,2167.1
557.353,2164.5
557.856,2207.4
558.358,2210.2
558.86,2185.9
559.362,2183.9
559.864,2184.3
560.366,2184.2
560.868,2204.1
561.37,2218.4
561.872,2256.2
562.374,2840.5
562.876,2248.2
563.377,2274.4
563.879,2668.0
564.38,2374.6
564.882,2309.4
565.383,2281.7
565.885,2482.3
566.386,2618.1
566.887,2262.4
567.388,2365.9
567.889,2242.7
568.391,2229.9
568.892,2239.2
569.392,2238.9
569.893,2242.3
570.394,2278.5
570.895,2301.2
571.395,2953.4
571.896,2470.5
572.397,2316.4
572.897,2263.4
573.397,2263.3
573.898,2309.9
574.398,2250.8
574.898,2268.9
575.398,2527.6
575.898,2560.0
576.398,2968.0
576.898,2742.3
577.398,2496.1
577.898,2308.9
578.398,2278.5
578.897,2279.4
579.397,2272.4
579.896,2272.6
580.396,2305.5
580.895,2305.0
581.395,2293.8
581.894,2316.7
582.393,2314.3
582.892,2320.8
583.391,2331.3
583.89,2323.7
584.389,2338.8
584.888,2346.0
585.387,2368.4
585.886,2352.9
586.384,2375.8
586.883,2410.2
587.381,2408.1
587.88,2422.5
588.378,2431.2
588.876,2433.1
589.375,2461.9
589.873,2478.6
590.371,2497.6
590.869,2524.4
591.367,2564.4
591.865,2574.4
592.363,2587.9
592.86,2607.1
593.358,2603.9
593.856,2605.1
594.353,2617.7
594.851,2641.3
595.348,2640.3
595.845,2679.6
596.342,2708.1
596.84,2694.2
597.337,2727.1
597.834,2732.5
598.331,2750.9
598.828,2735.4
599.324,2768.9
599.821,2796.6
600.318,2804.2
600.814,2822.4
601.311,2826.8
601.807,2818.9
602.304,2874.2
602.8,2825.8
603.296,2832.1
603.792,2836.7
604.288,2821.9
604.784,2842.9
605.28,2809.6
605.776,2812.9
606.272,2808.9
606.767,2798.2
607.263,2800.0
607.759,2793.0
608.254,2810.4
608.749,2775.9
609.245,2753.2
609.74,2770.7
610.235,2734.6
610.73,2774.1
611.225,2741.7
611.72,2730.3
612.215,2714.4
612.71,2686.5
613.204,2744.3
613.699,2691.6
614.194,2674.8
614.688,2712.7
615.182,2656.0
615.677,2642.4
616.171,2639.4
616.665,2665.2
617.159,2709.0
617.653,2722.7
618.147,2679.3
618.641,2667.7
619.135,2674.6
619.628,2675.1
620.122,2643.1
620.615,2685.0
621.109,2676.5
621.602,2777.8
622.095,2910.8
622.589,2846.2
623.082,2657.8
623.575,2599.5
624.068,2573.3
624.561,2574.6
625.053,2582.1
625.546,2619.9
626.039,2711.2
626.531,3333.4
627.024,6390.4
627.516,6090.0
628.008,5158.8
628.501,7499.7
628.993,4784.7
629.485,4251.7
629.977,3755.7
630.469,3625.7
630.96,3075.8
631.452,2634.5
631.944,2513.8
632.435,2484.8
632.927,2476.4
633.418,2457.5
633.91,2432.4
634.401,2399.0
634.892,2410.8
635.383,2388.0
635.874,2387.5
636.365,2396.1
636.856,2349.8
637.346,2357.6
637.837,2340.0
638.327,2353.0
638.818,2334.2
639.308,2332.7
639.799,2348.7
640.289,2342.2
640.779,2324.9
641.269,2329.2
641.759,2311.4
642.249,2320.4
642.738,2349.7
643.228,2322.6
643.718,2321.8
644.207,2334.3
644.697,2322.1
645.186,2350.1
645.675,2323.4
646.164,2327.5
646.653,2338.4
647.142,2296.3
647.631,2312.3
648.12,2303.1
648.609,2328.1
649.098,2330.1
649.586,2350.7
650.075,2348.3
650.563,2323.5
651.051,2313.8
651.539,2284.4
652.027,2288.7
652.515,2280.9
653.003,2271.7
653.491,2283.3
653.979,2279.7
654.467,2262.2
654.954,2270.0
655.442,2254.4
655.929,2235.8
656.416,2205.5
656.904,2248.8
657.391,2242.3
657.878,2240.8
658.365,2216.5
658.851,2238.4
659.338,2222.3
659.825,2195.2
660.311,2209.9
660.798,2202.8
661.041,2211.7