File: spectra/VLFR_08-PLA_bio_Raman_e9a29d0e.csv
nm,Intensity
528.637,1836.7
529.143,1838.2
529.648,1839.1
530.153,1837.6
530.659,1838.7
531.164,1840.9
531.669,1894.9
532.174,3832.2
532.679,1842.1
533.184,1845.0
533.689,2381.9
534.194,3485.0
534.699,3196.1
535.203,2952.4
535.708,2800.4
536.213,2733.2
536.717,2759.4
537.222,2669.8
537.726,2715.1
538.231,2582.3
538.735,2548.0
539.24,2561.2
539.744,2453.1
540.248,2559.7
540.752,2667.6
541.256,2625.3
541.761,2565.3
542.265,2504.0
542.769,2540.8
543.272,2780.5
543.776,2850.1
544.28,2677.3
544.784,2554.4
545.288,2522.9
545.791,2482.3
546.295,2515.5
546.798,2523.8
547.302,2525.1
547.805,2519.3
548.308,2552.6
548.812,2547.8
549.315,2582.0
549.818,2545.4
550.321,2580.6
550.824,2617.9
551.327,2621.0
551.83,2689.0
552.333,2694.2
552.836,2710.7
553.339,2642.7
553.842,2771.0
554.344,2707.3
554.847,2672.2
555.349,2610.6
555.852,2606.2
556.354,2618.6
556.857,2654.8
557.359,2843.7
557.861,3877.7
558.363,3418.9
558.866,2880.8
559.368,2788.9
559.87,2736.7
560.372,2705.1
560.873,2699.5
561.375,2670.5
561.877,2694.7
562.379,2715.9
562.88,2875.3
563.382,3161.8
563.883,2964.7
564.385,2837.6
564.886,3025.2
565.388,3048.3
565.889,3244.1
566.39,3150.4
566.891,2794.2
567.392,2803.9
567.893,2903.0
568.394,2851.5
568.895,2855.6
569.396,2832.7
569.897,2824.3
570.398,2816.9
570.898,2865.9
571.399,3025.2
571.899,3108.4
572.4,3008.1
572.9,2998.5
573.4,3035.4
573.901,2987.4
574.401,3123.0
574.901,2915.1
575.401,2844.6
575.901,2933.9
576.401,3391.6
576.901,3705.1
577.401,3012.1
577.9,2898.4
578.4,2875.0
578.9,2822.4
579.399,2852.4
579.899,2859.1
580.398,2860.4
580.897,2860.5
581.397,2851.2
581.896,2851.1
582.395,2869.4
582.894,2872.6
583.393,2865.0
583.892,2847.5
584.391,2897.9
584.889,2872.0
585.388,2887.3
585.887,2865.2
586.385,3012.0
586.884,3413.4
587.382,3609.4
587.881,3281.6
588.379,2911.7
588.877,2891.3
589.375,2860.6
589.874,2840.8
590.372,2864.1
590.87,2845.0
591.367,2841.6
591.865,2857.0
592.363,2856.2
592.861,2817.6
593.358,2860.3
593.856,2840.7
594.353,2846.8
594.851,2817.2
595.348,2837.8
595.845,2852.9
596.342,2872.9
596.84,2841.1
597.337,2843.0
597.833,2850.5
598.33,2882.1
598.827,2865.0
599.324,2822.6
599.821,2849.2
600.317,2855.8
600.814,2846.6
601.31,2841.9
601.807,2838.9
602.303,2865.8
602.799,2819.3
603.295,2834.4
603.791,2837.0
604.287,2833.2
604.783,2837.4
605.279,2850.4
605.775,2838.1
606.271,2823.0
606.766,2832.9
607.262,2815.8
607.757,2869.3
608.253,2841.3
608.748,2828.4
609.243,2787.3
609.738,2824.8
610.233,2827.4
610.729,2843.3
611.223,2828.2
611.718,2804.5
612.213,2817.2
612.708,2757.2
613.202,2835.3
613.697,2803.7
614.192,2823.2
614.686,2814.0
615.18,2828.4
615.675,2788.7
616.169,2784.8
616.663,2841.3
617.157,2808.7
617.651,2797.3
618.145,2810.3
618.638,2782.2
619.132,2784.3
619.626,2779.0
620.119,2788.3
620.613,2782.0
621.106,2791.6
621.599,2803.9
622.093,2815.6
622.586,2861.0
623.079,2947.9
623.572,2853.9
624.065,2801.9
624.558,2766.9
625.05,2770.0
625.543,2765.3
626.036,2733.8
626.528,2738.0
627.02,2755.4
627.513,2796.1
628.005,3077.3
628.497,3556.9
628.989,3348.0
629.481,3444.0
629.973,3471.4
630.465,4171.1
630.957,7340.2
631.449,5779.8
631.94,4170.7
632.432,3876.8
632.923,4598.9
633.414,4809.9
633.906,3899.5
634.397,3183.2
634.888,2835.8
635.379,2740.7
635.87,2689.1
636.361,2700.2
636.852,2666.5
637.342,2642.2
637.833,2623.1
638.323,2647.8
638.814,2642.1
639.304,2596.7
639.794,2601.4
640.285,2612.9
640.775,2610.7
641.265,2602.8
641.755,2590.5
642.244,2601.1
642.734,2577.6
643.224,2542.8
643.713,2564.6
644.203,2546.1
644.692,2501.4
645.181,2540.8
645.671,2496.6
646.16,2495.5
646.649,2489.6
647.138,2502.3
647.627,2469.3
648.115,2478.7
648.604,2471.8
649.093,2470.7
649.581,2454.6
650.07,2435.3
650.558,2455.5
651.046,2432.3
651.534,2390.5
652.023,2392.7
652.511,2404.5
652.998,2411.8
653.486,2389.8
653.974,2391.5
654.462,2359.2
654.949,2348.7
655.437,2363.3
655.924,2344.9
656.411,2344.0
656.898,2332.9
657.385,2334.4
657.872,2345.4
658.359,2331.0
658.846,2312.4
659.333,2310.5
659.82,2291.3
660.306,2297.1
660.793,2297.3
661.036,2286.2