File: spectra/VLFR_02-HDPE_bio_Raman_6e65899c.csv
nm,Intensity
526.508,829.0
527.055,829.0
527.602,829.4
528.149,829.9
528.695,830.6
529.241,828.6
529.787,830.2
530.334,829.9
530.879,830.4
531.425,830.7
531.971,838.1
532.516,832.6
533.062,829.8
533.607,830.3
534.152,866.4
534.697,859.4
535.242,852.1
535.786,847.2
536.331,844.9
536.876,844.8
537.42,842.4
537.964,843.9
538.508,840.3
539.052,842.3
539.596,840.3
540.14,838.8
540.683,839.1
541.227,838.3
541.77,837.2
542.313,838.5
542.856,839.3
543.399,838.8
543.942,838.3
544.485,838.0
545.027,838.8
545.57,838.5
546.112,838.2
546.654,838.4
547.196,837.7
547.738,839.7
548.28,838.4
548.822,839.3
549.363,839.6
549.905,839.2
550.446,838.0
550.988,839.9
551.529,837.8
552.07,836.9
552.611,840.5
553.152,839.8
553.692,839.2
554.233,842.3
554.773,841.4
555.314,840.0
555.854,841.8
556.394,840.6
556.934,842.4
557.474,846.3
558.014,842.7
558.553,845.8
559.093,843.4
559.632,842.1
560.172,841.4
560.711,843.4
561.25,842.9
561.789,843.7
562.328,844.4
562.867,847.1
563.406,848.4
563.944,896.9
564.483,858.3
565.021,855.7
565.559,854.0
566.098,956.6
566.636,859.6
567.174,847.2
567.711,847.2
568.249,846.0
568.787,845.3
569.324,843.5
569.862,844.7
570.399,848.6
570.936,852.2
571.474,933.7
572.011,861.7
572.548,849.8
573.084,846.6
573.621,848.1
574.158,852.2
574.694,842.7
575.231,853.8
575.767,905.6
576.303,900.7
576.84,881.5
577.376,866.5
577.912,850.1
578.447,846.4
578.983,842.7
579.519,845.8
580.054,845.2
580.59,844.7
581.125,845.5
581.661,844.4
582.196,845.0
582.731,847.2
583.266,846.9
583.801,844.9
584.336,845.2
584.87,845.2
585.405,845.3
585.94,847.2
586.474,844.4
587.008,845.9
587.543,848.3
588.077,847.4
588.611,846.6
589.145,846.4
589.679,850.1
590.213,847.0
590.747,849.6
591.28,847.6
591.814,849.8
592.347,852.3
592.881,849.3
593.414,852.1
593.947,852.2
594.48,851.4
595.014,852.2
595.547,851.9
596.079,853.7
596.612,853.3
597.145,855.6
597.678,853.9
598.21,853.7
598.743,857.4
599.275,857.9
599.807,861.5
600.34,858.6
600.872,857.1
601.404,856.0
601.936,857.9
602.468,859.3
603.0,855.9
603.532,855.8
604.063,856.3
604.595,856.6
605.126,856.2
605.658,854.6
606.189,857.4
606.721,856.1
607.252,854.2
607.783,854.5
608.314,855.5
608.845,854.0
609.376,852.3
609.907,854.3
610.438,855.4
610.968,858.6
611.499,853.9
612.03,854.7
612.56,853.1
613.091,852.4
613.621,852.9
614.151,853.9
614.681,852.6
615.212,853.8
615.742,852.9
616.272,853.8
616.802,854.5
617.332,854.8
617.861,855.5
618.391,857.2
618.921,855.1
619.45,857.5
619.98,856.1
620.509,856.3
621.039,860.0
621.568,862.2
622.097,872.1
622.627,866.8
623.156,862.8
623.685,858.2
624.214,858.4
624.743,857.7
625.272,858.0
625.801,860.2
626.33,875.9
626.858,972.8
627.387,1200.7
627.916,1053.2
628.444,1107.0
628.973,1099.5
629.501,1050.1
630.029,987.5
630.558,977.7
631.086,913.7
631.614,877.5
632.142,863.1
632.67,858.5
633.198,860.0
633.726,854.5
634.254,852.7
634.782,851.1
635.31,851.8
635.838,853.5
636.365,852.6
636.893,852.6
637.421,849.0
637.948,848.1
638.476,849.7
639.003,850.7
639.531,850.2
640.058,850.5
640.585,849.5
641.113,849.6
641.64,850.5
642.167,849.4
642.694,851.4
643.221,850.7
643.748,850.5
644.275,851.4
644.802,850.9
645.329,849.4
645.856,851.1
646.382,851.4
646.909,850.1
647.436,849.7
647.962,852.3
648.489,849.9
649.016,850.6
649.542,851.6
650.069,850.8
650.595,852.7
651.121,850.9
651.648,852.8
652.174,853.2
652.7,853.4
653.227,853.1
653.753,852.8
654.279,851.5
654.805,851.9
655.331,851.9
655.857,851.9
656.383,852.0
656.909,853.2
657.435,850.3
657.961,852.6
658.487,854.3
659.013,854.1
659.538,852.0
660.064,854.1
660.59,851.0
661.116,851.7
661.641,848.9
662.167,849.7
662.692,852.4
663.087,848.1