File: spectra/VLFR_02-HDPE_nobio_Raman_5ba4047e.csv
nm,Intensity
526.486,831.2
527.033,830.9
527.579,829.8
528.126,831.1
528.672,830.6
529.219,828.9
529.765,830.3
530.311,830.2
530.857,829.8
531.403,830.9
531.948,831.8
532.494,832.5
533.039,831.0
533.585,832.0
534.13,919.3
534.675,904.3
535.22,889.8
535.764,876.8
536.309,870.8
536.854,867.0
537.398,867.0
537.942,865.3
538.486,862.4
539.03,859.6
539.574,858.4
540.118,854.5
540.662,851.5
541.205,854.4
541.749,850.9
542.292,853.2
542.835,850.0
543.378,847.8
543.921,850.7
544.464,848.6
545.006,848.2
545.549,848.3
546.091,849.3
546.634,845.8
547.176,846.4
547.718,850.5
548.26,847.7
548.802,845.0
549.343,845.4
549.885,846.2
550.426,847.3
550.968,845.8
551.509,847.2
552.05,846.5
552.591,846.3
553.132,851.1
553.673,853.3
554.214,851.8
554.754,849.8
555.295,855.0
555.835,857.1
556.375,856.4
556.915,859.1
557.455,866.1
557.995,865.9
558.535,867.1
559.075,866.3
559.614,864.4
560.154,863.6
560.693,863.1
561.232,866.3
561.772,868.7
562.311,873.7
562.85,878.1
563.388,882.8
563.927,935.6
564.466,908.6
565.004,900.1
565.543,901.4
566.081,986.6
566.619,906.3
567.157,895.5
567.695,897.3
568.233,897.2
568.771,903.1
569.309,913.0
569.846,914.9
570.384,922.8
570.921,937.8
571.458,1036.4
571.995,980.0
572.532,967.1
573.069,964.7
573.606,976.1
574.143,998.5
574.68,1005.3
575.216,1031.3
575.753,1125.6
576.289,1189.7
576.825,1187.2
577.361,1184.2
577.897,1189.5
578.433,1221.6
578.969,1262.4
579.505,1317.9
580.041,1362.5
580.576,1401.4
581.112,1456.1
581.647,1491.8
582.183,1538.5
582.718,1578.8
583.253,1624.0
583.788,1633.0
584.323,1657.3
584.858,1665.8
585.392,1695.8
585.927,1714.9
586.462,1739.5
586.996,1747.9
587.53,1758.0
588.065,1782.1
588.599,1799.3
589.133,1802.1
589.667,1808.2
590.201,1823.0
590.735,1852.6
591.268,1850.9
591.802,1877.1
592.335,1866.0
592.869,1857.9
593.402,1862.7
593.936,1863.7
594.469,1874.3
595.002,1870.0
595.535,1885.2
596.068,1899.8
596.601,1916.5
597.133,1918.9
597.666,1922.7
598.199,1960.1
598.731,1977.6
599.264,2004.9
599.796,2018.3
600.328,2006.3
600.86,2001.1
601.393,1997.3
601.925,1984.2
602.457,1981.5
602.988,1954.1
603.52,1936.1
604.052,1908.6
604.583,1862.2
605.115,1823.6
605.646,1781.2
606.178,1750.3
606.709,1704.1
607.24,1687.9
607.771,1668.4
608.302,1652.3
608.833,1615.1
609.364,1592.4
609.895,1576.9
610.426,1559.7
610.957,1538.1
611.487,1516.4
612.018,1521.4
612.548,1495.6
613.078,1487.0
613.609,1483.7
614.139,1461.9
614.669,1441.9
615.199,1439.1
615.729,1421.3
616.259,1400.3
616.789,1390.9
617.319,1384.7
617.849,1375.6
618.378,1368.7
618.908,1364.0
619.437,1350.0
619.967,1344.0
620.496,1340.1
621.025,1338.4
621.555,1346.9
622.084,1354.0
622.613,1350.2
623.142,1332.6
623.671,1330.9
624.2,1333.8
624.729,1328.7
625.258,1338.2
625.786,1335.6
626.315,1358.3
626.844,1519.4
627.372,1947.7
627.901,1713.7
628.429,1818.0
628.957,1814.7
629.486,1732.9
630.014,1643.7
630.542,1637.3
631.07,1520.9
631.598,1449.6
632.126,1427.5
632.654,1415.9
633.182,1425.8
633.71,1422.4
634.237,1418.9
634.765,1430.4
635.293,1434.0
635.82,1430.3
636.348,1425.9
636.875,1427.6
637.403,1422.7
637.93,1424.4
638.458,1418.4
638.985,1421.8
639.512,1418.6
640.039,1422.2
640.566,1418.6
641.093,1426.1
641.62,1425.1
642.147,1417.6
642.674,1421.2
643.201,1414.9
643.728,1405.5
644.255,1405.7
644.781,1400.6
645.308,1396.7
645.835,1393.4
646.361,1398.4
646.888,1391.8
647.414,1392.0
647.941,1387.2
648.467,1387.9
648.993,1372.6
649.52,1369.3
650.046,1365.7
650.572,1363.5
651.098,1355.1
651.625,1356.3
652.151,1358.0
652.677,1355.4
653.203,1359.3
653.729,1359.8
654.255,1351.8
654.78,1344.9
655.306,1342.8
655.832,1336.5
656.358,1333.1
656.884,1324.9
657.409,1321.0
657.935,1312.6
658.461,1301.1
658.986,1289.3
659.512,1278.6
660.037,1266.5
660.563,1252.0
661.088,1235.8
661.614,1223.3
662.139,1207.7
662.664,1191.8
663.058,1193.8