File: spectra/VLFR_09-PET_bio_Raman_55a1e595.csv
nm,Intensity
528.626,1869.4
529.132,1871.1
529.637,1870.7
530.143,1870.3
530.648,1870.5
531.153,1881.0
531.658,2030.4
532.164,10368.6
532.669,1881.9
533.174,1895.4
533.679,4364.6
534.184,12231.4
534.689,10149.9
535.194,8649.7
535.699,7213.5
536.203,6092.6
536.708,5794.2
537.213,5439.9
537.717,5224.2
538.222,5176.6
538.726,5119.2
539.231,5334.7
539.735,5640.3
540.239,5551.3
540.744,5373.3
541.248,5147.3
541.752,5216.9
542.256,5211.8
542.76,5236.3
543.264,5374.6
543.768,5331.2
544.272,5456.3
544.776,5463.1
545.28,5534.3
545.784,5598.9
546.287,5559.8
546.791,5700.7
547.294,5725.5
547.798,5845.1
548.301,5833.0
548.805,6044.9
549.308,5828.7
549.811,5872.8
550.315,6401.7
550.818,7871.0
551.321,6172.3
551.824,6226.2
552.327,6388.8
552.83,7263.8
553.333,6368.1
553.835,6531.9
554.338,6548.3
554.841,6706.5
555.343,7199.0
555.846,7499.5
556.349,7565.8
556.851,7739.2
557.353,10555.9
557.856,10581.0
558.358,7979.1
558.86,7584.6
559.362,7364.8
559.864,7194.1
560.366,7266.0
560.868,7558.5
561.37,7846.2
561.872,8618.7
562.374,8451.9
562.876,8031.9
563.377,7965.3
563.879,7898.1
564.38,8484.1
564.882,10395.0
565.383,10370.6
565.885,10707.3
566.386,8913.9
566.887,8227.9
567.388,8904.2
567.889,9746.6
568.391,8765.8
568.892,8400.2
569.392,8602.5
569.893,8875.3
570.394,9798.6
570.895,13148.1
571.395,17174.7
571.896,12178.7
572.397,9946.9
572.897,9109.7
573.397,9102.6
573.898,9230.8
574.398,9160.7
574.898,9372.7
575.398,10654.3
575.898,9564.5
576.398,9807.0
576.898,10281.3
577.398,9652.5
577.898,9210.4
578.398,9278.9
578.897,9317.7
579.397,9448.5
579.896,9496.0
580.396,9615.5
580.895,10455.7
581.395,10925.3
581.894,24293.9
582.393,24354.1
582.892,10602.4
583.391,9886.5
583.89,9805.9
584.389,10155.5
584.888,10203.4
585.387,12553.0
585.886,22956.4
586.384,18900.4
586.883,11530.2
587.381,10376.5
587.88,10059.0
588.378,10117.3
588.876,9802.7
589.375,10011.9
589.873,9674.7
590.371,9860.8
590.869,9819.6
591.367,10007.5
591.865,10031.4
592.363,9973.9
592.86,10102.4
593.358,9900.6
593.856,9894.6
594.353,10042.3
594.851,10058.8
595.348,10201.4
595.845,10407.6
596.342,10259.1
596.84,10260.1
597.337,10256.7
597.834,10256.4
598.331,10442.8
598.828,10358.3
599.324,10230.4
599.821,10577.8
600.318,10557.9
600.814,10654.2
601.311,10540.3
601.807,10626.0
602.304,10934.4
602.8,10798.6
603.296,10964.1
603.792,10847.0
604.288,10894.5
604.784,10912.0
605.28,11130.0
605.776,11280.6
606.272,11236.2
606.767,11404.0
607.263,11212.0
607.759,11220.4
608.254,11627.5
608.749,11647.2
609.245,11505.6
609.74,11890.3
610.235,11734.3
610.73,12187.0
611.225,11874.8
611.72,12076.7
612.215,11994.0
612.71,12535.6
613.204,12236.2
613.699,12425.9
614.194,12686.8
614.688,12622.8
615.182,12959.9
615.677,13002.9
616.171,12886.8
616.665,13109.9
617.159,13242.5
617.653,13683.5
618.147,13543.3
618.641,13809.5
619.135,13704.6
619.628,14001.8
620.122,13938.0
620.615,13838.5
621.109,13896.0
621.602,14036.0
622.095,14285.2
622.589,14210.9
623.082,14359.2
623.575,14655.5
624.068,14563.5
624.561,14471.6
625.053,14785.7
625.546,14789.4
626.039,14672.5
626.531,14660.3
627.024,14986.7
627.516,15275.7
628.008,15252.6
628.501,15314.3
628.993,15551.0
629.485,15898.7
629.977,16043.2
630.469,15365.8
630.96,16296.0
631.452,16862.4
631.944,17915.6
632.435,17331.4
632.927,17203.8
633.418,16652.5
633.91,16696.0
634.401,15485.7
634.892,16306.2
635.383,16231.6
635.874,17528.8
636.365,20148.7
636.856,18777.3
637.346,16827.7
637.837,16402.1
638.327,16346.7
638.818,16391.7
639.308,16047.4
639.799,16105.4
640.289,15887.6
640.779,16029.7
641.269,15807.0
641.759,16197.4
642.249,15943.5
642.738,16107.6
643.228,15848.6
643.718,15951.7
644.207,16247.8
644.697,15535.0
645.186,16019.3
645.675,15501.0
646.164,15602.4
646.653,15706.0
647.142,15687.1
647.631,15649.6
648.12,15684.8
648.609,15210.3
649.098,15394.0
649.586,15049.6
650.075,15088.7
650.563,14962.7
651.051,14921.1
651.539,15226.1
652.027,14992.4
652.515,14660.2
653.003,14758.2
653.491,14672.2
653.979,14132.8
654.467,14563.3
654.954,14481.0
655.442,13912.6
655.929,14433.2
656.416,14149.8
656.904,13904.6
657.391,14161.7
657.878,13210.3
658.365,13335.7
658.851,13405.2
659.338,13155.9
659.825,12697.3
660.311,13052.2
660.798,13067.6
661.041,12852.1