File: spectra/VLFR_08-PLA_nobio_Raman_9e4f630f.csv
nm,Intensity
526.5,828.3
527.047,828.1
527.594,828.1
528.14,828.9
528.687,829.0
529.233,828.7
529.779,828.4
530.325,828.6
530.871,830.8
531.417,830.3
531.962,831.3
532.508,827.8
533.053,828.5
533.599,832.5
534.144,1093.3
534.689,1060.1
535.234,1021.2
535.778,1006.3
536.323,1000.3
536.867,1006.0
537.412,996.8
537.956,995.1
538.5,991.8
539.044,993.2
539.588,990.5
540.132,986.1
540.675,999.9
541.219,1011.5
541.762,1001.7
542.305,995.4
542.848,1000.4
543.391,1022.0
543.934,1031.3
544.477,1016.9
545.02,1007.2
545.562,1004.0
546.105,1003.9
546.647,1010.4
547.189,1014.1
547.731,1012.7
548.273,1010.9
548.815,1015.0
549.356,1025.4
549.898,1019.5
550.439,1024.7
550.981,1026.1
551.522,1033.2
552.063,1036.6
552.604,1033.3
553.145,1034.2
553.686,1035.8
554.226,1050.3
554.767,1037.2
555.307,1034.9
555.848,1035.4
556.388,1036.6
556.928,1052.3
557.468,1050.1
558.008,1170.0
558.547,1080.2
559.087,1056.6
559.626,1057.0
560.166,1053.7
560.705,1049.4
561.244,1053.4
561.783,1048.5
562.322,1057.8
562.861,1064.3
563.4,1099.8
563.939,1075.5
564.477,1073.3
565.015,1099.5
565.554,1088.1
566.092,1120.3
566.63,1084.4
567.168,1070.8
567.706,1076.4
568.244,1084.2
568.781,1085.1
569.319,1081.5
569.857,1080.6
570.394,1080.8
570.931,1083.9
571.468,1100.3
572.005,1103.1
572.542,1105.7
573.079,1106.3
573.616,1106.6
574.153,1108.3
574.689,1122.7
575.226,1097.1
575.762,1102.8
576.298,1119.6
576.834,1179.7
577.371,1124.8
577.907,1104.7
578.442,1107.5
578.978,1101.5
579.514,1105.9
580.049,1100.3
580.585,1101.4
581.12,1105.9
581.656,1103.2
582.191,1112.0
582.726,1109.1
583.261,1115.5
583.796,1113.8
584.331,1108.5
584.865,1113.8
585.4,1118.1
585.935,1113.2
586.469,1130.9
587.004,1169.9
587.538,1188.9
588.072,1136.2
588.606,1118.4
589.14,1112.3
589.674,1111.3
590.208,1114.9
590.742,1113.1
591.275,1117.1
591.809,1121.9
592.342,1122.5
592.876,1110.7
593.409,1111.0
593.942,1114.4
594.476,1116.9
595.009,1117.7
595.542,1122.9
596.075,1120.6
596.607,1113.2
597.14,1117.7
597.673,1114.7
598.205,1124.5
598.738,1127.5
599.27,1121.5
599.803,1119.8
600.335,1121.7
600.867,1118.3
601.399,1116.9
601.931,1119.3
602.463,1119.8
602.995,1118.6
603.527,1119.3
604.058,1119.0
604.59,1121.3
605.122,1109.3
605.653,1106.1
606.184,1104.5
606.716,1110.4
607.247,1108.4
607.778,1107.2
608.309,1114.4
608.84,1112.9
609.371,1110.4
609.902,1109.0
610.433,1110.0
610.964,1110.6
611.494,1107.7
612.025,1108.6
612.556,1112.0
613.086,1115.0
613.616,1119.5
614.147,1120.2
614.677,1113.7
615.207,1115.1
615.737,1117.2
616.267,1114.9
616.797,1113.6
617.327,1119.2
617.857,1116.2
618.387,1116.6
618.917,1117.4
619.446,1114.5
619.976,1110.2
620.505,1111.1
621.035,1110.5
621.564,1108.4
622.093,1101.8
622.623,1120.0
623.152,1124.3
623.681,1118.8
624.21,1118.9
624.739,1113.8
625.268,1111.0
625.797,1106.5
626.326,1112.3
626.855,1107.1
627.383,1109.7
627.912,1117.1
628.441,1189.7
628.969,1181.4
629.498,1172.0
630.026,1178.8
630.554,1241.1
631.083,1630.8
631.611,1358.4
632.139,1232.4
632.667,1221.9
633.195,1310.6
633.724,1276.5
634.252,1171.8
634.779,1122.9
635.307,1103.4
635.835,1101.2
636.363,1094.6
636.891,1093.0
637.418,1089.0
637.946,1085.4
638.474,1088.4
639.001,1090.6
639.529,1087.3
640.056,1084.6
640.583,1096.3
641.111,1083.0
641.638,1087.9
642.165,1082.1
642.692,1082.4
643.22,1071.2
643.747,1072.2
644.274,1066.8
644.801,1065.1
645.328,1062.3
645.854,1065.0
646.381,1058.6
646.908,1059.3
647.435,1066.8
647.962,1062.1
648.488,1054.3
649.015,1061.2
649.542,1055.5
650.068,1050.9
650.595,1056.3
651.121,1056.8
651.648,1054.1
652.174,1049.2
652.7,1050.2
653.227,1052.7
653.753,1048.2
654.279,1051.3
654.805,1046.7
655.331,1043.9
655.858,1044.0
656.384,1043.6
656.91,1047.7
657.436,1042.3
657.962,1049.0
658.488,1041.2
659.013,1037.2
659.539,1039.1
660.065,1036.8
660.591,1039.0
661.117,1032.4
661.642,1038.5
662.168,1027.6
662.694,1037.1
663.088,1032.5