File: spectra/VLFR_07-PET_bio_Raman_82455de9.csv
nm,Intensity
791.588,11131.6
792.685,10472.3
793.781,10165.9
794.878,9931.9
795.975,9925.1
797.071,9836.2
798.168,9774.8
799.264,9744.1
800.36,9813.4
801.456,9773.6
802.552,9788.1
803.648,9594.0
804.744,9491.5
805.84,9546.5
806.936,9393.7
808.031,9397.3
809.127,9322.6
810.222,9232.7
811.317,9118.9
812.412,9118.6
813.507,9033.8
814.602,8966.5
815.697,8897.4
816.792,8815.0
817.887,8689.2
818.981,8659.2
820.076,8595.1
821.17,8622.8
822.265,8405.4
823.359,8276.6
824.453,8293.9
825.547,8332.9
826.641,8212.1
827.735,8100.4
828.828,8066.9
829.922,8037.3
831.016,8069.0
832.109,7933.9
833.202,7873.6
834.295,7808.7
835.388,7689.0
836.481,7695.8
837.574,7783.0
838.667,7713.0
839.76,7640.5
840.852,7636.9
841.945,7675.4
843.037,7574.7
844.129,7435.6
845.221,7242.5
846.314,7211.0
847.405,7118.4
848.497,7167.8
849.589,7101.2
850.68,7057.8
851.772,7047.5
852.863,6967.6
853.955,6951.1
855.046,6907.2
856.137,6842.1
857.228,6836.1
858.318,6850.3
859.409,6853.5
860.5,6824.7
861.59,6771.9
862.681,6658.1
863.771,6649.2
864.861,6662.8
865.951,6535.4
867.041,6547.1
868.131,6494.5
869.22,6489.5
870.31,6497.0
871.399,6632.4
872.488,6632.8
873.578,6670.9
874.667,6523.3
875.756,6408.4
876.845,6346.1
877.933,6261.3
879.022,6216.9
880.11,6163.7
881.199,6155.2
882.287,6189.6
883.375,6060.2
884.463,6136.4
885.551,6049.8
886.639,6044.6
887.726,5954.8
888.814,5946.7
889.901,5907.3
890.988,5871.2
892.075,5850.9
893.162,5818.1
894.249,5743.8
895.336,5685.5
896.423,5711.6
897.509,5769.9
898.595,6035.6
899.682,5817.3
900.768,5519.3
901.854,5474.7
902.94,5467.6
904.025,5405.7
905.111,5418.9
906.196,5468.0
907.282,5606.3
908.367,5570.7
909.452,5408.2
910.537,5242.7
911.622,5192.3
912.706,5138.8
913.791,5075.9
914.875,5057.5
915.959,5009.6
917.044,5024.0
918.128,4963.9
919.211,4934.8
920.295,4888.4
921.379,4874.7
922.462,4878.0
923.546,4821.0
924.629,4776.4
925.712,4755.4
926.795,4710.1
927.877,4690.1
928.96,4645.0
930.043,4635.7
931.125,4599.7
932.207,4565.3
933.289,4527.2
934.371,4523.6
935.453,4501.5
936.535,4473.0
937.616,4457.3
938.697,4420.6
939.779,4415.0
940.86,4379.8
941.941,4366.0
943.022,4352.2
944.102,4318.2
945.183,4309.9
946.263,4296.3
947.343,4277.3
948.423,4245.3
949.503,4245.6
950.583,4229.1
951.663,4208.4
952.742,4205.0
953.822,4181.3
954.901,4173.5
955.98,4157.3
957.059,4138.8
958.137,4114.9
959.216,4123.0
960.294,4096.5
961.373,4090.1
962.451,4080.4
963.529,4071.1
964.607,4064.9
965.684,4059.3
966.762,4052.7
967.839,4028.2
968.917,4028.5
969.994,4021.3
971.071,4008.2
972.147,4003.4
973.224,3995.6
974.3,3983.4
975.377,3974.4
976.453,3971.1
977.529,3953.4
978.605,3951.4
979.68,3941.4
980.756,3952.2
981.831,3938.2
982.907,3933.2
983.982,3924.0
985.057,3918.4
986.131,3916.6
987.206,3914.1
988.28,3904.1
989.355,3891.5
990.429,3894.6
991.503,3888.9
992.576,3883.4
993.65,3876.6
994.723,3872.3
995.797,3869.2
996.87,3863.3
997.943,3861.9
999.016,3855.1
1000.09,3853.6
1001.16,3845.8
1002.23,3844.4
1003.31,3836.9
1004.38,3836.8
1005.45,3829.6
1006.52,3828.0
1007.59,3826.6
1008.66,3821.6
1009.73,3824.1
1010.81,3814.6
1011.88,3818.5
1012.95,3815.7
1014.02,3813.2
1015.09,3810.5
1016.16,3806.2
1017.23,3804.5
1018.3,3803.7
1019.37,3797.8
1020.44,3799.6
1021.51,3798.6
1022.58,3800.8
1023.64,3800.2
1024.71,3798.1
1025.78,3792.5
1026.85,3787.0
1027.92,3785.8
1028.99,3783.0
1030.05,3778.3
1031.12,3776.8
1032.19,3780.3
1033.26,3780.4
1034.32,3779.5
1035.39,3779.6
1036.46,3778.4
1037.52,3776.6
1038.59,3773.1
1039.66,3772.7
1040.72,3771.3
1041.79,3768.3
1042.86,3765.8
1043.92,3768.4
1044.99,3766.6
1046.05,3765.4
1047.12,3765.2
1048.18,3764.2
1049.25,3764.1
1050.31,3764.8
1051.37,3763.7
1052.44,3762.4
1053.5,3763.3
1054.57,3760.3
1055.63,3761.8
1056.69,3761.6
1057.76,3763.0
1058.82,3761.8
1059.88,3759.1
1060.95,3760.3
1062.01,3760.4
1063.07,3759.5
1064.13,3760.3
1065.19,3760.7
1066.26,3759.2
1067.32,3757.8
1068.11,3757.7