File: spectra/VLFR_06-PET_bio_Raman_ae392d4b.csv
nm,Intensity
526.508,830.7
527.055,829.0
527.602,830.1
528.149,830.3
528.695,830.3
529.241,829.5
529.787,830.3
530.334,830.2
530.879,830.4
531.425,830.8
531.971,837.4
532.516,832.8
533.062,829.3
533.607,835.8
534.152,1563.4
534.697,1363.8
535.242,1165.0
535.786,1046.0
536.331,969.9
536.876,940.4
537.42,929.3
537.964,928.5
538.508,931.1
539.052,925.6
539.596,934.6
540.14,939.1
540.683,919.6
541.227,910.9
541.77,913.4
542.313,907.6
542.856,911.2
543.399,910.1
543.942,916.9
544.485,911.5
545.027,913.9
545.57,917.1
546.112,923.0
546.654,921.5
547.196,919.9
547.738,921.5
548.28,924.3
548.822,930.1
549.363,929.2
549.905,928.9
550.446,942.3
550.988,942.8
551.529,940.4
552.07,938.0
552.611,942.7
553.152,953.5
553.692,945.0
554.233,949.1
554.773,950.5
555.314,957.0
555.854,984.9
556.394,993.8
556.934,992.4
557.474,1081.9
558.014,1012.0
558.553,1009.8
559.093,983.8
559.632,970.1
560.172,972.3
560.711,975.4
561.25,977.5
561.789,978.1
562.328,992.1
562.867,999.5
563.406,1006.5
563.944,999.7
564.483,1007.2
565.021,1030.6
565.559,1070.8
566.098,1075.9
566.636,1020.6
567.174,1010.9
567.711,1062.7
568.249,1015.9
568.787,1017.6
569.324,1026.7
569.862,1042.8
570.399,1063.2
570.936,1149.4
571.474,1208.9
572.011,1122.5
572.548,1057.5
573.084,1045.1
573.621,1044.6
574.158,1066.7
574.694,1051.0
575.231,1076.0
575.767,1067.3
576.303,1075.7
576.84,1082.9
577.376,1069.0
577.912,1068.1
578.447,1073.6
578.983,1070.6
579.519,1076.5
580.054,1071.2
580.59,1081.2
581.125,1095.4
581.661,1140.7
582.196,1836.4
582.731,1126.3
583.266,1100.1
583.801,1102.1
584.336,1109.2
584.87,1116.0
585.405,1175.6
585.94,1489.9
586.474,1340.0
587.008,1146.4
587.543,1121.9
588.077,1122.5
588.611,1116.3
589.145,1114.0
589.679,1116.1
590.213,1117.2
590.747,1119.3
591.28,1111.7
591.814,1118.1
592.347,1119.9
592.881,1127.7
593.414,1118.3
593.947,1124.9
594.48,1131.5
595.014,1133.8
595.547,1134.0
596.079,1134.6
596.612,1136.7
597.145,1137.1
597.678,1136.2
598.21,1138.6
598.743,1144.5
599.275,1142.7
599.807,1147.3
600.34,1142.7
600.872,1142.2
601.404,1146.2
601.936,1149.1
602.468,1145.1
603.0,1153.5
603.532,1148.8
604.063,1150.5
604.595,1145.9
605.126,1155.2
605.658,1142.9
606.189,1148.6
606.721,1139.7
607.252,1148.1
607.783,1149.7
608.314,1143.0
608.845,1154.0
609.376,1151.5
609.907,1156.5
610.438,1158.4
610.968,1146.3
611.499,1152.6
612.03,1160.8
612.56,1163.6
613.091,1174.0
613.621,1169.2
614.151,1175.9
614.681,1175.0
615.212,1172.2
615.742,1172.4
616.272,1181.0
616.802,1183.3
617.332,1185.6
617.861,1192.6
618.391,1194.4
618.921,1182.1
619.45,1185.4
619.98,1188.0
620.509,1177.0
621.039,1186.7
621.568,1190.2
622.097,1188.1
622.627,1193.9
623.156,1197.5
623.685,1200.4
624.214,1204.7
624.743,1215.7
625.272,1218.0
625.801,1219.8
626.33,1219.0
626.858,1218.0
627.387,1220.4
627.916,1223.7
628.444,1237.1
628.973,1265.9
629.501,1255.4
630.029,1258.9
630.558,1260.8
631.086,1314.0
631.614,1395.9
632.142,1383.4
632.67,1330.3
633.198,1324.0
633.726,1309.6
634.254,1299.1
634.782,1290.6
635.31,1294.1
635.838,1343.7
636.365,1427.8
636.893,1437.2
637.421,1344.6
637.948,1320.0
638.476,1320.0
639.003,1319.8
639.531,1326.0
640.058,1326.4
640.585,1325.9
641.113,1338.9
641.64,1337.2
642.167,1341.3
642.694,1348.6
643.221,1344.4
643.748,1336.6
644.275,1344.9
644.802,1344.5
645.329,1340.0
645.856,1346.5
646.382,1351.3
646.909,1352.6
647.436,1365.4
647.962,1360.4
648.489,1367.8
649.016,1363.6
649.542,1370.1
650.069,1375.9
650.595,1366.8
651.121,1371.3
651.648,1372.2
652.174,1375.7
652.7,1373.1
653.227,1375.8
653.753,1377.2
654.279,1385.9
654.805,1382.1
655.331,1377.8
655.857,1376.3
656.383,1390.7
656.909,1391.0
657.435,1377.5
657.961,1374.8
658.487,1387.3
659.013,1380.6
659.538,1398.8
660.064,1390.7
660.59,1384.6
661.116,1387.4
661.641,1373.2
662.167,1369.4
662.692,1385.8
663.087,1372.4