File: spectra/VLFR_06-PET_bio_Raman_397dbc13.csv
nm,Intensity
526.547,832.3
527.095,832.6
527.642,832.45
528.189,832.1
528.736,831.45
529.283,831.9
529.829,832.65
530.376,833.1
530.922,831.9
531.468,832.5
532.014,839.8
532.56,833.55
533.106,834.0
533.651,851.5
534.196,2003.6
534.742,1643.45
535.287,1334.85
535.832,1147.75
536.376,1040.35
536.921,996.55
537.465,981.25
538.01,974.75
538.554,976.9
539.098,974.05
539.642,989.05
540.186,994.8
540.729,957.35
541.273,946.35
541.816,942.2
542.36,945.8
542.903,944.45
543.446,946.85
543.988,956.8
544.531,950.25
545.074,954.5
545.616,954.65
546.158,952.45
546.701,959.05
547.243,963.55
547.785,963.2
548.326,966.95
548.868,970.9
549.41,971.95
549.951,974.35
550.492,1001.75
551.034,991.95
551.575,985.8
552.116,989.05
552.656,1000.0
553.197,1010.4
553.738,998.8
554.278,1000.35
554.819,1003.7
555.359,1017.1
555.899,1060.55
556.439,1072.8
556.979,1087.25
557.519,1233.35
558.058,1099.9
558.598,1105.75
559.137,1054.8
559.677,1037.35
560.216,1038.9
560.755,1042.55
561.294,1046.05
561.833,1056.45
562.371,1065.8
562.91,1084.8
563.449,1088.65
563.987,1077.25
564.525,1087.05
565.064,1138.2
565.602,1200.05
566.14,1193.25
566.678,1104.55
567.216,1095.8
567.753,1175.6
568.291,1109.2
568.828,1108.45
569.366,1109.2
569.903,1140.1
570.44,1196.2
570.977,1318.1
571.514,1409.5
572.051,1270.85
572.588,1167.8
573.125,1145.55
573.661,1153.55
574.198,1178.85
574.734,1161.95
575.271,1199.55
575.807,1171.8
576.343,1205.4
576.879,1215.25
577.415,1180.85
577.951,1171.75
578.486,1181.7
579.022,1182.95
579.557,1183.25
580.093,1192.2
580.628,1202.7
581.164,1215.05
581.699,1319.45
582.234,2463.1
582.769,1262.5
583.304,1230.55
583.838,1219.7
584.373,1233.55
584.908,1252.1
585.442,1382.85
585.977,1872.8
586.511,1565.3
587.045,1292.25
587.58,1258.4
588.114,1247.05
588.648,1248.35
589.182,1246.05
589.715,1247.7
590.249,1254.35
590.783,1255.1
591.316,1259.55
591.85,1255.2
592.383,1260.0
592.917,1254.2
593.45,1259.85
593.983,1263.15
594.516,1261.95
595.049,1268.0
595.582,1265.45
596.115,1272.05
596.648,1278.45
597.18,1273.45
597.713,1282.0
598.245,1285.05
598.778,1291.75
599.31,1293.95
599.842,1287.05
600.375,1288.15
600.907,1290.3
601.439,1292.35
601.971,1288.7
602.503,1290.2
603.034,1295.35
603.566,1296.55
604.098,1292.7
604.629,1294.85
605.161,1295.1
605.692,1286.55
606.224,1279.55
606.755,1287.35
607.286,1288.3
607.817,1290.45
608.348,1301.55
608.879,1298.15
609.41,1302.4
609.941,1299.7
610.472,1303.25
611.002,1300.95
611.533,1301.15
612.063,1307.75
612.594,1313.8
613.124,1321.6
613.655,1328.2
614.185,1328.3
614.715,1330.4
615.245,1330.65
615.775,1332.3
616.305,1335.3
616.835,1337.0
617.365,1340.5
617.895,1353.85
618.425,1355.4
618.954,1347.55
619.484,1348.7
620.013,1350.5
620.543,1344.75
621.072,1350.7
621.602,1345.6
622.131,1360.15
622.66,1373.1
623.189,1373.05
623.718,1380.15
624.247,1386.4
624.776,1391.0
625.305,1396.75
625.834,1401.05
626.363,1396.85
626.891,1397.2
627.42,1407.0
627.949,1413.35
628.477,1435.4
629.006,1465.5
629.534,1464.65
630.062,1461.8
630.591,1469.4
631.119,1540.15
631.647,1683.55
632.175,1648.75
632.703,1569.85
633.231,1559.85
633.759,1537.2
634.287,1511.25
634.815,1504.0
635.343,1519.0
635.871,1597.75
636.398,1722.5
636.926,1698.15
637.454,1563.65
637.981,1543.15
638.509,1537.35
639.036,1544.35
639.564,1546.85
640.091,1541.6
640.618,1546.6
641.146,1553.3
641.673,1557.3
642.2,1564.1
642.727,1575.25
643.254,1576.65
643.781,1564.8
644.308,1566.15
644.835,1562.45
645.362,1562.95
645.889,1573.55
646.416,1577.3
646.942,1584.85
647.469,1581.7
647.996,1593.6
648.522,1584.9
649.049,1591.5
649.576,1595.65
650.102,1590.7
650.629,1593.5
651.155,1591.5
651.682,1599.45
652.208,1604.7
652.734,1605.05
653.261,1614.7
653.787,1612.15
654.313,1612.3
654.839,1609.6
655.365,1612.85
655.892,1612.65
656.418,1614.9
656.944,1615.55
657.47,1619.15
657.996,1620.55
658.522,1624.45
659.048,1622.15
659.574,1623.3
660.099,1626.65
660.625,1614.1
661.151,1613.65
661.677,1603.5
662.203,1602.6
662.728,1607.35
663.123,1603.2