File: spectra/VLFR_01-LDPE_nobio_Raman_bd1f5117.csv
nm,Intensity
526.486,830.5
527.033,831.5
527.579,828.6
528.126,831.3
528.672,830.2
529.219,830.2
529.765,830.5
530.311,830.2
530.857,830.2
531.403,830.8
531.948,835.8
532.494,831.9
533.039,830.8
533.585,831.3
534.13,925.3
534.675,915.2
535.22,901.7
535.764,888.7
536.309,879.9
536.854,872.9
537.398,874.1
537.942,869.6
538.486,869.8
539.03,866.1
539.574,862.6
540.118,863.9
540.662,863.4
541.205,860.4
541.749,860.5
542.292,861.5
542.835,859.6
543.378,857.5
543.921,857.6
544.464,856.7
545.006,859.4
545.549,855.6
546.091,858.9
546.634,854.6
547.176,857.1
547.718,854.2
548.26,856.1
548.802,853.3
549.343,851.9
549.885,850.9
550.426,853.0
550.968,851.5
551.509,851.3
552.05,854.1
552.591,852.9
553.132,856.4
553.673,856.8
554.214,856.6
554.754,855.4
555.295,856.9
555.835,861.7
556.375,860.7
556.915,860.3
557.455,863.5
557.995,865.3
558.535,866.1
559.075,866.2
559.614,863.5
560.154,862.2
560.693,862.3
561.232,864.4
561.772,861.4
562.311,867.1
562.85,868.8
563.388,872.0
563.927,921.5
564.466,892.4
565.004,887.1
565.543,879.3
566.081,924.8
566.619,878.8
567.157,872.6
567.695,878.7
568.233,870.9
568.771,873.2
569.309,873.7
569.846,873.9
570.384,877.3
570.921,885.3
571.458,964.4
571.995,919.9
572.532,893.3
573.069,881.6
573.606,880.5
574.143,893.8
574.68,884.1
575.216,885.8
575.753,928.0
576.289,1038.4
576.825,988.5
577.361,947.0
577.897,904.2
578.433,899.2
578.969,897.1
579.505,899.9
580.041,904.9
580.576,901.3
581.112,905.7
581.647,909.0
582.183,913.8
582.718,916.8
583.253,921.0
583.788,933.1
584.323,937.5
584.858,939.8
585.392,950.1
585.927,960.5
586.462,971.7
586.996,982.4
587.53,996.4
588.065,1011.2
588.599,1021.6
589.133,1033.7
589.667,1047.2
590.201,1058.0
590.735,1080.5
591.268,1089.1
591.802,1102.3
592.335,1116.1
592.869,1126.4
593.402,1143.8
593.936,1160.1
594.469,1180.2
595.002,1204.6
595.535,1233.5
596.068,1262.0
596.601,1286.7
597.133,1310.5
597.666,1353.9
598.199,1375.6
598.731,1407.3
599.264,1429.4
599.796,1447.2
600.328,1470.6
600.86,1459.2
601.393,1466.0
601.925,1463.7
602.457,1460.7
602.988,1439.1
603.52,1425.5
604.052,1407.9
604.583,1376.7
605.115,1349.7
605.646,1324.2
606.178,1292.4
606.709,1275.9
607.24,1253.8
607.771,1245.0
608.302,1222.7
608.833,1217.6
609.364,1205.0
609.895,1192.3
610.426,1179.1
610.957,1174.7
611.487,1165.8
612.018,1170.8
612.548,1156.7
613.078,1163.2
613.609,1148.7
614.139,1140.6
614.669,1128.8
615.199,1126.2
615.729,1124.8
616.259,1114.7
616.789,1114.7
617.319,1111.5
617.849,1110.0
618.378,1100.4
618.908,1093.0
619.437,1089.2
619.967,1092.5
620.496,1088.3
621.025,1089.0
621.555,1092.2
622.084,1128.2
622.613,1115.3
623.142,1082.3
623.671,1070.6
624.2,1054.2
624.729,1058.0
625.258,1062.2
625.786,1066.0
626.315,1082.5
626.844,1362.9
627.372,1967.3
627.901,1592.1
628.429,1821.7
628.957,1652.9
629.486,1501.6
630.014,1370.6
630.542,1329.1
631.07,1168.6
631.598,1068.0
632.126,1038.1
632.654,1021.5
633.182,1009.1
633.71,1007.2
634.237,1003.0
634.765,998.9
635.293,1000.1
635.82,1005.5
636.348,1001.8
636.875,1002.1
637.403,1006.2
637.93,1002.5
638.458,1003.9
638.985,1009.0
639.512,1014.0
640.039,1016.3
640.566,1016.4
641.093,1025.5
641.62,1029.1
642.147,1025.2
642.674,1038.1
643.201,1039.5
643.728,1032.4
644.255,1042.1
644.781,1049.2
645.308,1048.5
645.835,1053.9
646.361,1067.6
646.888,1063.4
647.414,1070.8
647.941,1076.1
648.467,1079.3
648.993,1083.7
649.52,1087.8
650.046,1095.6
650.572,1095.7
651.098,1103.7
651.625,1108.9
652.151,1115.5
652.677,1116.4
653.203,1123.0
653.729,1131.2
654.255,1131.8
654.78,1128.8
655.306,1132.3
655.832,1132.7
656.358,1118.3
656.884,1124.4
657.409,1120.9
657.935,1107.6
658.461,1107.0
658.986,1104.3
659.512,1089.5
660.037,1085.5
660.563,1070.1
661.088,1062.2
661.614,1055.5
662.139,1045.7
662.664,1040.1
663.058,1029.1