File: spectra/VLFR_06-PET_bio_Raman_7772f868.csv
nm,Intensity
526.547,832.9
527.095,832.65
527.642,832.85
528.189,832.65
528.736,832.4
529.283,832.3
529.829,830.95
530.376,832.65
530.922,831.5
531.468,832.45
532.014,840.55
532.56,831.65
533.106,832.35
533.651,841.85
534.196,1468.5
534.742,1284.8
535.287,1117.05
535.832,1016.65
536.376,958.05
536.921,935.85
537.465,925.3
538.01,922.25
538.554,928.25
539.098,926.4
539.642,934.7
540.186,937.45
540.729,915.95
541.273,912.8
541.816,915.85
542.36,915.35
542.903,915.0
543.446,915.1
543.988,921.85
544.531,919.5
545.074,920.65
545.616,921.2
546.158,924.8
546.701,930.75
547.243,928.45
547.785,931.35
548.326,931.35
548.868,932.05
549.41,937.0
549.951,936.85
550.492,952.25
551.034,947.25
551.575,944.75
552.116,947.85
552.656,953.55
553.197,958.55
553.738,955.25
554.278,955.45
554.819,957.35
555.359,966.8
555.899,991.25
556.439,998.85
556.979,1004.2
557.519,1085.4
558.058,1013.0
558.598,1016.8
559.137,992.55
559.677,982.2
560.216,983.85
560.755,986.5
561.294,989.6
561.833,991.75
562.371,1001.85
562.91,1010.35
563.449,1011.85
563.987,1009.1
564.525,1016.1
565.064,1045.55
565.602,1076.1
566.14,1075.6
566.678,1028.65
567.216,1024.0
567.753,1063.05
568.291,1027.7
568.828,1030.85
569.366,1036.75
569.903,1050.85
570.44,1079.75
570.977,1147.5
571.514,1193.85
572.051,1123.45
572.588,1072.5
573.125,1061.0
573.661,1060.65
574.198,1076.75
574.734,1072.35
575.271,1096.2
575.807,1080.3
576.343,1097.25
576.879,1102.75
577.415,1087.4
577.951,1082.95
578.486,1087.95
579.022,1088.35
579.557,1093.95
580.093,1098.6
580.628,1100.3
581.164,1108.05
581.699,1166.35
582.234,1765.4
582.769,1139.35
583.304,1119.75
583.838,1119.35
584.373,1121.9
584.908,1130.05
585.442,1201.25
585.977,1458.35
586.511,1303.95
587.045,1159.4
587.58,1143.45
588.114,1133.95
588.648,1137.7
589.182,1136.1
589.715,1132.45
590.249,1142.3
590.783,1144.95
591.316,1143.3
591.85,1139.35
592.383,1137.6
592.917,1140.7
593.45,1145.05
593.983,1142.95
594.516,1152.95
595.049,1150.4
595.582,1149.55
596.115,1153.0
596.648,1160.8
597.18,1160.3
597.713,1163.2
598.245,1161.85
598.778,1165.45
599.31,1171.35
599.842,1167.8
600.375,1170.7
600.907,1168.55
601.439,1166.75
601.971,1165.55
602.503,1177.2
603.034,1168.2
603.566,1177.35
604.098,1175.65
604.629,1169.6
605.161,1173.05
605.692,1166.05
606.224,1161.5
606.755,1167.25
607.286,1168.75
607.817,1169.8
608.348,1179.85
608.879,1174.15
609.41,1177.75
609.941,1169.75
610.472,1175.95
611.002,1174.6
611.533,1180.95
612.063,1175.85
612.594,1186.8
613.124,1189.95
613.655,1196.45
614.185,1195.35
614.715,1198.65
615.245,1196.95
615.775,1199.65
616.305,1202.0
616.835,1204.55
617.365,1207.45
617.895,1206.9
618.425,1211.5
618.954,1215.5
619.484,1210.85
620.013,1208.15
620.543,1212.6
621.072,1213.75
621.602,1208.5
622.131,1221.0
622.66,1226.6
623.189,1229.6
623.718,1236.8
624.247,1232.4
624.776,1245.35
625.305,1249.75
625.834,1248.9
626.363,1246.75
626.891,1246.85
627.42,1253.35
627.949,1256.85
628.477,1273.05
629.006,1283.15
629.534,1286.1
630.062,1277.95
630.591,1290.45
631.119,1332.5
631.647,1407.7
632.175,1390.1
632.703,1355.1
633.231,1340.8
633.759,1335.05
634.287,1317.15
634.815,1316.35
635.343,1329.35
635.871,1371.5
636.398,1446.65
636.926,1423.2
637.454,1357.85
637.981,1336.9
638.509,1339.55
639.036,1339.2
639.564,1339.4
640.091,1346.0
640.618,1345.95
641.146,1356.4
641.673,1363.35
642.2,1361.7
642.727,1367.3
643.254,1357.05
643.781,1356.7
644.308,1361.0
644.835,1357.4
645.362,1359.55
645.889,1364.1
646.416,1366.3
646.942,1370.1
647.469,1371.35
647.996,1376.35
648.522,1371.75
649.049,1375.1
649.576,1377.95
650.102,1370.7
650.629,1381.05
651.155,1375.05
651.682,1383.3
652.208,1381.05
652.734,1381.95
653.261,1384.05
653.787,1385.15
654.313,1384.65
654.839,1380.65
655.365,1389.2
655.892,1385.85
656.418,1387.0
656.944,1391.7
657.47,1390.6
657.996,1390.75
658.522,1390.25
659.048,1386.9
659.574,1386.55
660.099,1388.0
660.625,1388.05
661.151,1376.05
661.677,1384.75
662.203,1376.2
662.728,1381.15
663.123,1375.65