File: spectra/VLFR_07-PET_bio_Raman_f918650d.csv
nm,Intensity
791.377,16625.8
792.477,15232.1
793.576,14406.7
794.676,13894.9
795.775,13764.4
796.874,13605.7
797.973,13741.4
799.072,13731.3
800.171,13462.0
801.27,13681.7
802.368,13326.4
803.467,13051.0
804.565,12953.6
805.664,12712.1
806.762,12756.2
807.86,12581.3
808.958,12331.1
810.056,12222.4
811.153,12167.9
812.251,12122.7
813.349,12204.0
814.446,11816.7
815.543,11862.4
816.64,11686.3
817.737,11719.9
818.834,11529.8
819.931,11381.5
821.028,11339.7
822.125,11254.3
823.221,10952.6
824.317,11110.2
825.414,10980.5
826.51,10984.0
827.606,10714.3
828.702,10471.1
829.797,10386.1
830.893,10506.1
831.988,10314.4
833.084,10089.5
834.179,10010.0
835.274,9684.98
836.369,9815.08
837.464,9910.72
838.559,9871.26
839.654,9699.42
840.748,9988.94
841.843,10091.2
842.937,9639.38
844.031,9346.82
845.125,9093.14
846.219,8954.36
847.313,9120.66
848.407,8935.72
849.5,8975.04
850.593,8776.1
851.687,8864.94
852.78,8778.84
853.873,8687.36
854.966,8653.06
856.059,8510.42
857.151,8611.16
858.244,8644.32
859.336,8647.24
860.428,8750.88
861.52,8458.66
862.612,8167.52
863.704,8167.0
864.796,8303.5
865.888,8052.02
866.979,8040.88
868.07,7884.72
869.162,7962.7
870.253,8059.5
871.344,8157.08
872.434,8494.46
873.525,8413.74
874.615,8075.62
875.706,7824.74
876.796,7714.14
877.886,7663.42
878.976,7511.76
880.066,7417.7
881.156,7440.84
882.245,7334.26
883.335,7395.4
884.424,7377.4
885.513,7261.32
886.602,7139.18
887.691,7097.02
888.78,7012.98
889.868,7107.84
890.957,6857.2
892.045,6933.52
893.133,6813.04
894.221,6774.4
895.309,6695.18
896.397,6637.02
897.484,6946.62
898.571,7653.46
899.659,7082.02
900.746,6488.46
901.833,6402.82
902.92,6401.4
904.006,6275.32
905.093,6262.24
906.179,6284.34
907.266,6783.36
908.352,6902.02
909.438,6430.46
910.523,6045.92
911.609,5913.92
912.695,5860.56
913.78,5788.48
914.865,5736.94
915.95,5730.88
917.035,5713.02
918.12,5591.14
919.204,5620.74
920.289,5520.0
921.373,5510.42
922.457,5471.72
923.541,5394.62
924.625,5375.24
925.709,5340.02
926.792,5280.6
927.876,5243.96
928.959,5199.54
930.042,5149.12
931.125,5037.26
932.208,5086.38
933.29,5026.12
934.373,5002.42
935.455,4951.02
936.537,4931.04
937.619,4864.48
938.701,4871.2
939.782,4832.42
940.864,4780.08
941.945,4798.28
943.026,4731.06
944.107,4703.62
945.188,4671.62
946.269,4652.06
947.349,4624.9
948.43,4615.84
949.51,4573.2
950.59,4571.88
951.67,4529.2
952.75,4523.36
953.829,4468.48
954.909,4450.66
955.988,4459.6
957.067,4428.26
958.146,4390.62
959.224,4397.12
960.303,4358.52
961.381,4344.86
962.459,4328.74
963.537,4349.28
964.615,4292.92
965.693,4282.18
966.771,4282.08
967.848,4246.12
968.925,4233.0
970.002,4228.32
971.079,4206.34
972.156,4207.66
973.232,4177.5
974.309,4163.16
975.385,4169.36
976.461,4140.76
977.537,4130.26
978.612,4125.54
979.688,4105.42
980.763,4091.84
981.838,4090.18
982.913,4076.8
983.988,4070.66
985.063,4056.16
986.137,4057.9
987.211,4042.5
988.285,4031.76
989.359,4012.98
990.433,4022.66
991.506,4006.54
992.58,3993.42
993.653,3986.2
994.726,3979.6
995.799,3971.54
996.872,3961.94
997.944,3959.22
999.016,3956.16
1000.09,3941.58
1001.16,3934.66
1002.23,3930.06
1003.3,3926.24
1004.38,3919.06
1005.45,3913.2
1006.52,3909.82
1007.59,3903.22
1008.66,3901.84
1009.73,3888.18
1010.8,3883.9
1011.87,3887.2
1012.94,3883.48
1014.01,3876.32
1015.08,3871.92
1016.15,3870.02
1017.22,3868.16
1018.29,3862.16
1019.36,3857.68
1020.42,3857.06
1021.49,3862.56
1022.56,3866.32
1023.63,3862.92
1024.7,3852.28
1025.76,3844.74
1026.83,3842.34
1027.9,3835.06
1028.97,3832.28
1030.03,3827.96
1031.1,3820.28
1032.17,3823.3
1033.23,3823.52
1034.3,3824.88
1035.36,3827.24
1036.43,3826.2
1037.5,3819.28
1038.56,3812.42
1039.63,3808.56
1040.69,3806.92
1041.76,3805.96
1042.82,3802.64
1043.89,3802.14
1044.95,3799.04
1046.01,3798.54
1047.08,3798.34
1048.14,3797.46
1049.2,3796.52
1050.27,3795.5
1051.33,3794.86
1052.39,3795.8
1053.46,3793.16
1054.52,3792.52
1055.58,3793.02
1056.64,3791.5
1057.7,3790.58
1058.77,3791.3
1059.83,3790.96
1060.89,3789.16
1061.95,3790.88
1063.01,3790.18
1064.07,3788.66
1065.13,3789.08
1066.19,3788.06
1067.25,3787.48
1068.05,3787.08