File: spectra/VLFR_07-PET_nobio_Raman_288e0136.csv
nm,Intensity
791.75,7728.9
792.846,7434.9
793.942,7295.5
795.037,7367.9
796.133,7255.4
797.228,7193.7
798.324,7245.1
799.419,7241.1
800.514,7213.7
801.61,7218.1
802.705,7026.0
803.8,7086.0
804.894,6929.4
805.989,7001.2
807.084,6907.0
808.178,6897.7
809.273,6948.3
810.367,6761.9
811.461,6802.5
812.556,6689.0
813.65,6563.2
814.744,6501.2
815.837,6493.1
816.931,6462.0
818.025,6411.4
819.118,6396.2
820.212,6363.7
821.305,6276.3
822.398,6210.0
823.491,6237.0
824.585,6171.1
825.677,6156.5
826.77,6081.1
827.863,6005.0
828.956,6019.4
830.048,5965.5
831.14,6039.1
832.233,5832.7
833.325,5871.3
834.417,5840.9
835.509,5814.1
836.601,5851.6
837.692,5826.8
838.784,5741.7
839.876,5773.6
840.967,5796.4
842.058,5708.9
843.149,5694.5
844.24,5603.5
845.331,5527.5
846.422,5509.1
847.513,5506.2
848.604,5493.4
849.694,5422.8
850.784,5444.7
851.875,5411.1
852.965,5419.5
854.055,5364.8
855.145,5311.3
856.235,5283.9
857.324,5353.8
858.414,5305.6
859.503,5327.7
860.593,5249.2
861.682,5172.4
862.771,5194.7
863.86,5212.3
864.949,5207.9
866.038,5100.8
867.126,5121.7
868.215,5137.7
869.303,5112.4
870.391,5093.4
871.479,5121.3
872.567,5131.0
873.655,5145.1
874.743,5059.7
875.831,5029.0
876.918,4947.3
878.006,4992.3
879.093,4943.8
880.18,4942.0
881.267,4963.4
882.354,4935.1
883.441,4913.1
884.527,4900.2
885.614,4861.1
886.7,4826.9
887.786,4823.2
888.872,4759.3
889.958,4766.5
891.044,4787.6
892.13,4703.4
893.216,4664.9
894.301,4678.9
895.386,4648.5
896.472,4652.5
897.557,4721.3
898.642,4724.0
899.726,4626.1
900.811,4530.4
901.896,4530.0
902.98,4526.3
904.064,4496.0
905.148,4517.0
906.232,4531.4
907.316,4593.5
908.4,4497.7
909.484,4440.3
910.567,4391.7
911.65,4385.7
912.734,4345.0
913.817,4357.8
914.9,4317.4
915.982,4326.7
917.065,4279.3
918.147,4283.8
919.23,4285.0
920.312,4268.4
921.394,4229.2
922.476,4223.9
923.558,4214.4
924.639,4201.7
925.721,4166.3
926.802,4163.2
927.884,4138.6
928.965,4134.4
930.046,4099.5
931.126,4072.9
932.207,4067.2
933.288,4060.0
934.368,4045.5
935.448,4043.5
936.528,4011.5
937.608,4001.5
938.688,4027.7
939.767,3998.3
940.847,3991.6
941.926,3978.9
943.005,3963.6
944.084,3962.4
945.163,3948.1
946.242,3942.6
947.321,3944.0
948.399,3924.5
949.477,3920.6
950.556,3925.9
951.634,3907.7
952.711,3902.0
953.789,3900.9
954.867,3897.2
955.944,3883.1
957.021,3883.5
958.098,3879.9
959.175,3869.9
960.252,3858.9
961.328,3872.9
962.405,3870.1
963.481,3850.5
964.557,3850.5
965.633,3845.1
966.709,3841.4
967.785,3840.9
968.86,3835.5
969.936,3839.5
971.011,3830.0
972.086,3827.2
973.161,3822.0
974.235,3814.2
975.31,3811.6
976.384,3810.0
977.459,3802.2
978.533,3801.0
979.607,3802.6
980.68,3801.6
981.754,3801.1
982.827,3797.2
983.901,3792.4
984.974,3793.4
986.047,3793.5
987.119,3785.9
988.192,3788.4
989.264,3788.3
990.337,3774.5
991.409,3779.1
992.481,3776.9
993.553,3774.0
994.624,3771.7
995.696,3771.9
996.767,3764.9
997.838,3766.7
998.909,3761.9
999.98,3758.2
1001.05,3760.7
1002.12,3754.5
1003.19,3751.7
1004.26,3754.4
1005.33,3749.1
1006.4,3750.2
1007.47,3747.6
1008.54,3744.5
1009.61,3742.2
1010.68,3743.3
1011.75,3743.2
1012.82,3739.8
1013.88,3736.7
1014.95,3740.6
1016.02,3734.3
1017.09,3736.4
1018.16,3733.5
1019.22,3732.4
1020.29,3733.7
1021.36,3732.9
1022.43,3732.5
1023.49,3729.4
1024.56,3729.6
1025.63,3726.5
1026.69,3723.3
1027.76,3726.0
1028.83,3722.7
1029.89,3719.9
1030.96,3720.4
1032.02,3722.8
1033.09,3719.9
1034.15,3719.7
1035.22,3722.1
1036.28,3719.0
1037.35,3716.3
1038.41,3716.9
1039.48,3718.7
1040.54,3716.7
1041.6,3713.6
1042.67,3714.8
1043.73,3719.0
1044.79,3714.7
1045.86,3713.4
1046.92,3714.3
1047.98,3714.6
1049.05,3710.5
1050.11,3714.1
1051.17,3712.8
1052.23,3711.2
1053.29,3711.9
1054.36,3712.8
1055.42,3713.7
1056.48,3712.5
1057.54,3712.9
1058.6,3711.8
1059.66,3709.9
1060.72,3712.3
1061.78,3712.0
1062.84,3709.0
1063.9,3710.2
1064.96,3711.9
1066.02,3711.2
1067.08,3711.5
1067.88,3711.7