File: spectra/VLFR_02-HDPE_bio_Raman_f4049e4e.csv
nm,Intensity
526.547,832.35
527.095,831.65
527.642,832.15
528.189,833.5
528.736,832.1
529.283,832.8
529.829,832.4
530.376,832.9
530.922,833.0
531.468,832.5
532.014,835.65
532.56,832.4
533.106,832.15
533.651,833.15
534.196,897.1
534.742,895.95
535.287,892.7
535.832,866.45
536.376,857.6
536.921,856.15
537.465,854.4
538.01,853.8
538.554,852.5
539.098,849.75
539.642,846.4
540.186,847.3
540.729,846.4
541.273,847.05
541.816,847.95
542.36,846.6
542.903,846.55
543.446,846.65
543.988,846.45
544.531,846.8
545.074,846.9
545.616,845.85
546.158,848.15
546.701,847.75
547.243,846.8
547.785,846.75
548.326,847.0
548.868,846.4
549.41,846.55
549.951,845.7
550.492,845.95
551.034,847.1
551.575,846.45
552.116,848.05
552.656,846.55
553.197,846.65
553.738,850.05
554.278,850.45
554.819,849.6
555.359,849.9
555.899,851.95
556.439,851.5
556.979,853.5
557.519,854.55
558.058,856.3
558.598,855.2
559.137,854.8
559.677,853.55
560.216,854.25
560.755,853.05
561.294,853.85
561.833,854.9
562.371,857.2
562.91,856.1
563.449,860.55
563.987,957.5
564.525,876.0
565.064,868.1
565.602,865.35
566.14,942.0
566.678,866.55
567.216,861.95
567.753,865.8
568.291,858.4
568.828,859.15
569.366,860.0
569.903,861.3
570.44,866.1
570.977,871.25
571.514,1036.4
572.051,884.8
572.588,865.8
573.125,864.3
573.661,865.85
574.198,870.65
574.734,864.1
575.271,869.95
575.807,900.35
576.343,1030.85
576.879,949.45
577.415,920.1
577.951,879.1
578.486,874.1
579.022,873.8
579.557,873.45
580.093,875.05
580.628,876.45
581.164,875.7
581.699,878.75
582.234,880.15
582.769,881.9
583.304,883.95
583.838,884.95
584.373,887.35
584.908,891.2
585.442,889.7
585.977,892.85
586.511,894.65
587.045,898.55
587.58,898.75
588.114,901.75
588.648,901.95
589.182,905.15
589.715,906.75
590.249,908.85
590.783,912.0
591.316,912.5
591.85,914.65
592.383,915.85
592.917,915.6
593.45,918.65
593.983,920.3
594.516,923.0
595.049,924.85
595.582,927.35
596.115,931.35
596.648,934.3
597.18,936.4
597.713,940.45
598.245,941.05
598.778,948.4
599.31,949.3
599.842,953.65
600.375,951.2
600.907,951.7
601.439,950.75
601.971,956.75
602.503,957.3
603.034,954.9
603.566,951.3
604.098,947.3
604.629,945.2
605.161,941.2
605.692,936.95
606.224,930.2
606.755,925.1
607.286,923.9
607.817,922.4
608.348,917.95
608.879,914.7
609.41,911.65
609.941,912.0
610.472,911.95
611.002,910.6
611.533,906.05
612.063,905.55
612.594,904.0
613.124,902.8
613.655,904.05
614.185,901.65
614.715,899.8
615.245,898.65
615.775,897.05
616.305,900.5
616.835,905.0
617.365,907.95
617.895,910.15
618.425,908.05
618.954,905.2
619.484,908.75
620.013,908.85
620.543,908.0
621.072,916.45
621.602,932.5
622.131,973.3
622.66,959.9
623.189,916.4
623.718,908.3
624.247,905.5
624.776,903.3
625.305,908.05
625.834,920.95
626.363,970.5
626.891,1394.75
627.42,1879.85
627.949,1470.2
628.477,1928.45
629.006,1422.65
629.534,1309.6
630.062,1175.3
630.591,1140.0
631.119,997.05
631.647,924.85
632.175,904.9
632.703,902.75
633.231,898.4
633.759,894.15
634.287,890.85
634.815,888.0
635.343,886.9
635.871,887.05
636.398,886.2
636.926,884.95
637.454,880.0
637.981,881.35
638.509,879.1
639.036,879.7
639.564,880.85
640.091,879.4
640.618,879.45
641.146,878.15
641.673,878.8
642.2,880.05
642.727,874.75
643.254,879.5
643.781,877.8
644.308,879.15
644.835,878.65
645.362,879.75
645.889,879.2
646.416,878.6
646.942,876.65
647.469,878.85
647.996,877.8
648.522,878.7
649.049,879.05
649.576,878.65
650.102,878.2
650.629,878.15
651.155,878.1
651.682,877.9
652.208,879.85
652.734,879.35
653.261,879.5
653.787,878.55
654.313,878.3
654.839,879.5
655.365,876.45
655.892,878.6
656.418,877.75
656.944,876.15
657.47,877.35
657.996,878.35
658.522,874.8
659.048,873.45
659.574,876.95
660.099,876.15
660.625,874.05
661.151,870.45
661.677,870.4
662.203,868.35
662.728,869.1
663.123,868.35