File: spectra/VLFR_06-PET_nobio_Raman_7cbb7457.csv
nm,Intensity
526.5,827.3
527.047,828.5
527.594,828.5
528.14,826.6
528.687,828.7
529.233,827.1
529.779,827.3
530.325,828.3
530.871,827.1
531.417,826.4
531.962,827.8
532.508,827.9
533.053,827.5
533.599,835.6
534.144,1884.9
534.689,1597.5
535.234,1309.6
535.778,1131.1
536.323,1029.4
536.867,981.8
537.412,969.6
537.956,959.4
538.5,966.2
539.044,959.6
539.588,971.4
540.132,979.3
540.675,953.6
541.219,938.6
541.762,935.5
542.305,934.4
542.848,938.2
543.391,935.9
543.934,944.9
544.477,944.1
545.02,945.8
545.562,944.9
546.105,949.4
546.647,955.3
547.189,955.0
547.731,957.0
548.273,959.2
548.815,961.8
549.356,961.9
549.898,962.4
550.439,980.4
550.981,985.7
551.522,973.9
552.063,984.4
552.604,991.9
553.145,999.4
553.686,989.8
554.226,989.0
554.767,993.5
555.307,1003.8
555.848,1048.9
556.388,1058.5
556.928,1072.1
557.468,1182.5
558.008,1091.7
558.547,1085.5
559.087,1052.7
559.626,1024.8
560.166,1029.0
560.705,1032.6
561.244,1038.9
561.783,1040.1
562.322,1059.9
562.861,1073.9
563.4,1076.3
563.939,1063.8
564.477,1076.5
565.015,1115.0
565.554,1177.0
566.092,1177.2
566.63,1094.6
567.168,1090.6
567.706,1156.1
568.244,1091.6
568.781,1095.5
569.319,1103.5
569.857,1126.4
570.394,1166.4
570.931,1289.9
571.468,1384.2
572.005,1245.7
572.542,1156.2
573.079,1142.8
573.616,1153.6
574.153,1165.9
574.689,1155.5
575.226,1182.3
575.762,1174.0
576.298,1193.0
576.834,1200.6
577.371,1182.6
577.907,1166.4
578.442,1180.1
578.978,1177.1
579.514,1184.1
580.049,1185.0
580.585,1200.0
581.12,1213.6
581.656,1291.0
582.191,2296.1
582.726,1267.7
583.261,1217.4
583.796,1225.4
584.331,1227.8
584.865,1238.1
585.4,1331.1
585.935,1793.2
586.469,1583.9
587.004,1292.1
587.538,1250.6
588.072,1247.0
588.606,1250.5
589.14,1245.8
589.674,1242.5
590.208,1248.2
590.742,1247.5
591.275,1258.8
591.809,1262.7
592.342,1263.5
592.876,1254.0
593.409,1267.7
593.942,1260.3
594.476,1262.2
595.009,1268.0
595.542,1275.0
596.075,1268.2
596.607,1271.5
597.14,1276.6
597.673,1286.2
598.205,1292.0
598.738,1294.7
599.27,1292.0
599.803,1295.1
600.335,1299.1
600.867,1297.7
601.399,1296.1
601.931,1297.7
602.463,1292.3
602.995,1297.9
603.527,1298.8
604.058,1302.3
604.59,1299.9
605.122,1288.7
605.653,1293.8
606.184,1292.5
606.716,1292.9
607.247,1290.6
607.778,1298.5
608.309,1303.6
608.84,1302.1
609.371,1311.0
609.902,1301.3
610.433,1304.4
610.964,1305.6
611.494,1307.7
612.025,1314.5
612.556,1322.8
613.086,1329.7
613.616,1330.8
614.147,1337.1
614.677,1343.6
615.207,1334.5
615.737,1327.3
616.267,1336.4
616.797,1343.1
617.327,1346.2
617.857,1346.7
618.387,1353.5
618.917,1359.7
619.446,1360.3
619.976,1343.0
620.505,1351.5
621.035,1350.3
621.564,1362.2
622.093,1365.3
622.623,1374.4
623.152,1368.7
623.681,1377.1
624.21,1378.8
624.739,1401.3
625.268,1395.9
625.797,1405.5
626.326,1400.8
626.855,1397.4
627.383,1401.4
627.912,1414.1
628.441,1439.7
628.969,1462.3
629.498,1458.2
630.026,1457.2
630.554,1461.3
631.083,1535.0
631.611,1641.2
632.139,1635.8
632.667,1576.4
633.195,1569.2
633.724,1544.4
634.252,1522.7
634.779,1504.6
635.307,1519.6
635.835,1574.4
636.363,1694.6
636.891,1698.6
637.418,1582.0
637.946,1557.2
638.474,1552.0
639.001,1549.8
639.529,1566.2
640.056,1558.6
640.583,1563.2
641.111,1570.0
641.638,1586.5
642.165,1612.3
642.692,1598.9
643.22,1587.5
643.747,1581.1
644.274,1592.4
644.801,1590.6
645.328,1593.1
645.854,1602.3
646.381,1596.4
646.908,1599.8
647.435,1618.3
647.962,1613.1
648.488,1627.2
649.015,1625.9
649.542,1625.2
650.068,1623.4
650.595,1614.6
651.121,1627.6
651.648,1626.5
652.174,1626.3
652.7,1639.3
653.227,1648.8
653.753,1644.4
654.279,1635.0
654.805,1646.1
655.331,1651.8
655.858,1641.6
656.384,1646.3
656.91,1652.7
657.436,1649.8
657.962,1655.7
658.488,1662.8
659.013,1649.0
659.539,1663.8
660.065,1658.4
660.591,1645.3
661.117,1648.2
661.642,1640.3
662.168,1643.6
662.694,1639.6
663.088,1636.5