File: spectra/VLFR_07-PET_nobio_Raman_fd9aa068.csv
nm,Intensity
791.588,9336.3
792.685,8811.0
793.781,8740.7
794.878,8504.5
795.975,8471.7
797.071,8485.1
798.168,8527.4
799.264,8496.2
800.36,8484.2
801.456,8498.9
802.552,8469.1
803.648,8460.6
804.744,8321.5
805.84,8318.8
806.936,8080.3
808.031,8128.1
809.127,8060.5
810.222,7978.3
811.317,8002.3
812.412,7841.8
813.507,7847.3
814.602,7805.7
815.697,7677.0
816.792,7635.1
817.887,7559.8
818.981,7577.7
820.076,7597.6
821.17,7488.7
822.265,7382.7
823.359,7417.4
824.453,7333.5
825.547,7379.6
826.641,7292.5
827.735,7242.0
828.828,7198.6
829.922,7199.6
831.016,7232.2
832.109,7089.4
833.202,7012.2
834.295,6961.9
835.388,6941.8
836.481,6918.0
837.574,6938.8
838.667,6883.9
839.76,6869.4
840.852,6952.7
841.945,6891.4
843.037,6696.6
844.129,6638.5
845.221,6594.6
846.314,6489.4
847.405,6420.7
848.497,6435.9
849.589,6344.9
850.681,6378.6
851.772,6326.8
852.863,6329.4
853.955,6348.6
855.046,6293.3
856.137,6261.4
857.228,6213.5
858.318,6247.9
859.409,6290.9
860.5,6278.9
861.59,6161.2
862.681,6091.7
863.771,6107.8
864.861,6120.8
865.951,6030.3
867.041,5998.8
868.131,5944.6
869.22,5955.6
870.31,6013.8
871.399,6051.6
872.488,6118.0
873.578,6131.1
874.667,6011.5
875.756,5920.4
876.845,5882.2
877.933,5783.4
879.022,5797.3
880.11,5803.3
881.199,5757.9
882.287,5721.5
883.375,5747.3
884.463,5730.7
885.551,5669.1
886.639,5671.7
887.726,5592.1
888.814,5526.1
889.901,5567.4
890.988,5505.5
892.075,5521.4
893.162,5386.0
894.249,5399.8
895.336,5379.4
896.423,5393.0
897.509,5559.1
898.595,5756.5
899.682,5488.9
900.768,5247.3
901.854,5209.3
902.94,5167.1
904.025,5155.7
905.111,5146.5
906.196,5201.7
907.282,5386.9
908.367,5330.6
909.452,5210.2
910.537,4994.3
911.622,4958.5
912.706,4922.9
913.791,4862.8
914.875,4838.4
915.959,4807.2
917.044,4793.4
918.128,4766.2
919.211,4726.3
920.295,4740.9
921.379,4667.8
922.462,4658.3
923.546,4650.1
924.629,4612.5
925.712,4591.3
926.795,4584.2
927.877,4535.4
928.96,4515.3
930.043,4487.8
931.125,4463.8
932.207,4450.1
933.289,4428.9
934.371,4411.7
935.453,4391.9
936.535,4383.9
937.616,4355.2
938.697,4342.6
939.779,4318.6
940.86,4298.0
941.941,4283.3
943.022,4275.5
944.102,4251.0
945.183,4232.2
946.263,4238.5
947.343,4220.6
948.423,4206.1
949.503,4184.9
950.583,4175.2
951.663,4161.5
952.742,4154.2
953.822,4136.0
954.901,4112.7
955.98,4116.7
957.059,4099.2
958.137,4101.2
959.216,4082.4
960.294,4065.5
961.373,4061.3
962.451,4050.2
963.529,4051.1
964.607,4033.7
965.684,4027.1
966.762,4016.6
967.839,4017.3
968.917,4005.2
969.994,4001.1
971.071,3988.5
972.147,3985.9
973.224,3975.2
974.3,3967.4
975.377,3960.5
976.453,3949.7
977.529,3955.2
978.605,3942.7
979.68,3936.2
980.756,3919.9
981.831,3928.8
982.907,3922.7
983.982,3926.1
985.057,3913.3
986.131,3913.1
987.206,3907.3
988.28,3891.9
989.355,3893.0
990.429,3891.6
991.503,3882.0
992.576,3878.6
993.65,3872.7
994.723,3869.3
995.797,3860.1
996.87,3859.6
997.943,3856.7
999.016,3855.1
1000.09,3845.8
1001.16,3846.8
1002.23,3845.5
1003.31,3843.7
1004.38,3837.9
1005.45,3827.0
1006.52,3830.9
1007.59,3830.6
1008.66,3824.6
1009.73,3815.5
1010.81,3818.4
1011.88,3818.2
1012.95,3812.8
1014.02,3812.7
1015.09,3813.0
1016.16,3810.4
1017.23,3803.1
1018.3,3800.6
1019.37,3801.6
1020.44,3805.4
1021.51,3802.4
1022.58,3806.1
1023.64,3803.0
1024.71,3799.6
1025.78,3795.7
1026.85,3792.5
1027.92,3788.7
1028.99,3787.7
1030.05,3783.3
1031.12,3782.4
1032.19,3781.7
1033.26,3782.4
1034.32,3783.1
1035.39,3785.6
1036.46,3783.5
1037.52,3777.4
1038.59,3775.1
1039.66,3773.2
1040.72,3772.1
1041.79,3770.2
1042.86,3768.1
1043.92,3771.2
1044.99,3769.0
1046.05,3766.3
1047.12,3767.4
1048.18,3767.6
1049.25,3764.9
1050.31,3766.6
1051.37,3768.8
1052.44,3766.5
1053.5,3766.2
1054.57,3765.2
1055.63,3764.4
1056.69,3764.4
1057.76,3764.6
1058.82,3762.3
1059.88,3763.6
1060.95,3761.0
1062.01,3762.5
1063.07,3762.7
1064.13,3761.6
1065.19,3761.8
1066.26,3761.0
1067.32,3762.3
1068.11,3762.0