File: spectra/VLFR_07-PET_bio_Raman_240e6f75.csv
nm,Intensity
791.588,5754.8
792.685,5684.0
793.781,5662.6
794.878,5661.8
795.975,5640.3
797.071,5665.2
798.168,5637.5
799.264,5669.8
800.36,5644.4
801.456,5597.5
802.552,5605.8
803.648,5560.1
804.744,5544.7
805.84,5585.5
806.936,5544.6
808.031,5542.9
809.127,5517.8
810.222,5423.2
811.317,5443.7
812.412,5436.6
813.507,5346.6
814.602,5315.0
815.697,5308.6
816.792,5243.5
817.887,5232.6
818.981,5211.2
820.076,5191.4
821.17,5193.0
822.265,5130.8
823.359,5100.7
824.453,5108.8
825.547,5087.6
826.641,5095.5
827.735,5030.1
828.828,5024.7
829.922,5005.3
831.016,4966.4
832.109,4960.1
833.202,4954.2
834.295,4950.2
835.388,4895.6
836.481,4889.4
837.574,4898.9
838.667,4891.8
839.76,4845.1
840.852,4881.5
841.945,4855.9
843.037,4842.4
844.129,4812.0
845.221,4773.0
846.314,4764.1
847.405,4756.9
848.497,4739.9
849.589,4719.5
850.68,4710.9
851.772,4717.1
852.863,4671.1
853.955,4649.3
855.046,4666.6
856.137,4639.9
857.228,4638.0
858.318,4624.6
859.409,4621.7
860.5,4631.8
861.59,4590.1
862.681,4606.6
863.771,4576.4
864.861,4590.4
865.951,4562.2
867.041,4531.8
868.131,4551.3
869.22,4550.5
870.31,4529.3
871.399,4543.8
872.488,4523.1
873.578,4534.9
874.667,4527.1
875.756,4492.7
876.845,4500.1
877.933,4471.3
879.022,4473.8
880.11,4461.4
881.199,4463.5
882.287,4442.6
883.375,4418.2
884.463,4449.3
885.551,4411.5
886.639,4433.6
887.726,4389.7
888.814,4402.4
889.901,4376.0
890.988,4374.5
892.075,4360.1
893.162,4345.7
894.249,4340.8
895.336,4322.2
896.423,4314.2
897.509,4327.6
898.595,4343.0
899.682,4295.4
900.768,4249.4
901.854,4255.1
902.94,4247.4
904.025,4241.2
905.111,4230.9
906.196,4225.2
907.282,4235.3
908.367,4234.6
909.452,4203.2
910.537,4170.0
911.622,4167.3
912.706,4156.4
913.791,4144.2
914.875,4126.3
915.959,4115.6
917.044,4116.6
918.128,4099.9
919.211,4094.4
920.295,4085.5
921.379,4083.7
922.462,4063.7
923.546,4053.7
924.629,4053.5
925.712,4045.8
926.795,4036.7
927.877,4013.6
928.96,3995.7
930.043,4001.2
931.125,3986.3
932.207,3979.3
933.289,3979.6
934.371,3968.0
935.453,3965.4
936.535,3952.6
937.616,3940.9
938.697,3939.5
939.779,3944.5
940.86,3930.2
941.941,3923.6
943.022,3919.4
944.102,3911.7
945.183,3907.0
946.263,3901.9
947.343,3900.0
948.423,3896.7
949.503,3886.3
950.583,3881.4
951.663,3884.1
952.742,3872.1
953.822,3862.5
954.901,3864.1
955.98,3864.8
957.059,3860.6
958.137,3852.1
959.216,3851.1
960.294,3848.6
961.373,3845.8
962.451,3840.1
963.529,3837.7
964.607,3840.6
965.684,3833.7
966.762,3833.8
967.839,3830.6
968.917,3826.5
969.994,3831.7
971.071,3825.4
972.147,3821.4
973.224,3821.8
974.3,3815.7
975.377,3815.3
976.453,3808.3
977.529,3812.5
978.605,3810.2
979.68,3811.5
980.756,3803.7
981.831,3809.0
982.907,3801.4
983.982,3802.7
985.057,3801.2
986.131,3800.4
987.206,3797.4
988.28,3796.2
989.355,3796.7
990.429,3793.3
991.503,3792.9
992.576,3790.1
993.65,3787.6
994.723,3787.7
995.797,3789.8
996.87,3785.8
997.943,3782.9
999.016,3783.3
1000.09,3781.3
1001.16,3778.0
1002.23,3779.4
1003.31,3780.5
1004.38,3776.9
1005.45,3778.1
1006.52,3776.1
1007.59,3771.4
1008.66,3771.5
1009.73,3772.6
1010.81,3773.6
1011.88,3772.1
1012.95,3771.4
1014.02,3771.0
1015.09,3770.0
1016.16,3771.0
1017.23,3769.9
1018.3,3766.4
1019.37,3766.4
1020.44,3766.9
1021.51,3765.3
1022.58,3765.3
1023.64,3764.5
1024.71,3763.4
1025.78,3763.9
1026.85,3761.8
1027.92,3761.1
1028.99,3762.3
1030.05,3759.9
1031.12,3760.2
1032.19,3759.5
1033.26,3760.3
1034.32,3760.4
1035.39,3758.1
1036.46,3757.1
1037.52,3757.6
1038.59,3759.9
1039.66,3759.2
1040.72,3757.2
1041.79,3756.7
1042.86,3755.9
1043.92,3756.7
1044.99,3758.7
1046.05,3758.1
1047.12,3757.2
1048.18,3754.5
1049.25,3754.6
1050.31,3752.7
1051.37,3754.5
1052.44,3754.6
1053.5,3755.4
1054.57,3754.6
1055.63,3754.0
1056.69,3752.7
1057.76,3754.2
1058.82,3752.6
1059.88,3752.8
1060.95,3752.2
1062.01,3753.9
1063.07,3753.1
1064.13,3755.2
1065.19,3753.5
1066.26,3754.7
1067.32,3753.0
1068.11,3754.0