File: spectra/VLFR_02-HDPE_bio_Raman_645573d7.csv
nm,Intensity
526.495,827.45
527.042,828.5
527.589,827.3
528.136,828.75
528.682,827.55
529.229,827.55
529.775,827.6
530.321,827.35
530.867,828.35
531.413,827.7
531.959,829.15
532.505,827.55
533.051,827.6
533.596,828.3
534.141,1007.25
534.687,885.8
535.232,878.35
535.777,872.8
536.321,870.1
536.866,873.1
537.41,883.05
537.955,880.15
538.499,868.6
539.043,860.25
539.587,859.25
540.131,863.05
540.675,858.4
541.219,856.7
541.762,856.95
542.305,859.0
542.849,855.55
543.392,852.9
543.935,852.5
544.478,851.15
545.02,854.1
545.563,855.8
546.106,856.65
546.648,860.75
547.19,863.5
547.732,863.3
548.274,862.45
548.816,861.8
549.358,862.9
549.9,861.65
550.441,860.65
550.983,861.1
551.524,863.7
552.065,863.8
552.606,860.65
553.147,857.5
553.688,854.9
554.229,852.75
554.769,851.45
555.31,850.9
555.85,849.45
556.391,850.7
556.931,849.7
557.471,851.0
558.011,850.0
558.551,851.2
559.09,849.1
559.63,850.0
560.169,849.95
560.709,850.35
561.248,850.5
561.787,850.2
562.326,851.95
562.865,850.9
563.404,853.5
563.943,867.7
564.481,859.2
565.02,859.65
565.558,859.4
566.096,872.55
566.634,859.95
567.172,857.5
567.71,860.1
568.248,859.5
568.786,860.7
569.324,860.2
569.861,865.05
570.399,865.15
570.936,868.25
571.473,889.65
572.01,877.7
572.547,875.25
573.084,875.7
573.621,879.9
574.158,883.75
574.694,883.3
575.231,890.8
575.767,903.75
576.303,923.55
576.84,917.55
577.376,916.45
577.912,917.55
578.448,924.05
578.984,930.45
579.519,940.5
580.055,950.65
580.59,958.2
581.126,977.0
581.661,978.6
582.196,984.95
582.731,998.4
583.267,1006.65
583.801,1014.25
584.336,1022.45
584.871,1040.6
585.406,1049.6
585.94,1069.25
586.475,1090.05
587.009,1109.55
587.543,1130.3
588.078,1151.6
588.612,1171.35
589.146,1187.2
589.68,1211.3
590.214,1236.75
590.747,1254.7
591.281,1280.7
591.815,1294.35
592.348,1309.35
592.881,1321.15
593.415,1336.95
593.948,1362.3
594.481,1381.75
595.014,1398.75
595.547,1432.3
596.08,1462.4
596.613,1492.8
597.146,1528.15
597.678,1559.7
598.211,1592.2
598.743,1631.95
599.276,1651.0
599.808,1670.4
600.34,1675.3
600.872,1683.5
601.404,1691.0
601.936,1675.0
602.468,1667.9
603.0,1643.9
603.532,1617.45
604.064,1598.0
604.595,1546.1
605.127,1516.1
605.658,1477.4
606.189,1446.45
606.721,1415.5
607.252,1396.05
607.783,1368.25
608.314,1345.2
608.845,1329.0
609.376,1307.3
609.907,1291.75
610.438,1279.85
610.968,1264.05
611.499,1248.0
612.029,1246.95
612.56,1237.25
613.09,1226.1
613.621,1224.55
614.151,1212.35
614.681,1199.6
615.211,1189.2
615.741,1178.15
616.271,1171.1
616.801,1163.35
617.331,1155.05
617.861,1143.7
618.39,1140.45
618.92,1135.95
619.45,1124.4
619.979,1121.6
620.509,1117.65
621.038,1110.4
621.567,1106.55
622.096,1107.7
622.626,1105.05
623.155,1095.35
623.684,1093.75
624.213,1086.65
624.742,1085.45
625.271,1083.95
625.799,1077.5
626.328,1080.5
626.857,1123.35
627.386,1213.6
627.914,1149.2
628.443,1189.45
628.971,1165.5
629.5,1142.45
630.028,1122.25
630.556,1115.05
631.084,1083.5
631.613,1070.25
632.141,1062.3
632.669,1060.6
633.197,1059.85
633.725,1059.9
634.253,1065.6
634.781,1066.15
635.308,1072.45
635.836,1074.75
636.364,1079.1
636.891,1081.7
637.419,1086.4
637.947,1090.1
638.474,1093.4
639.002,1103.25
639.529,1107.7
640.056,1114.8
640.584,1127.8
641.111,1133.4
641.638,1142.4
642.165,1151.45
642.692,1156.75
643.219,1156.0
643.746,1170.15
644.273,1172.15
644.8,1183.2
645.327,1190.6
645.854,1204.9
646.381,1227.85
646.908,1263.65
647.434,1279.35
647.961,1284.05
648.488,1274.35
649.014,1272.15
649.541,1265.8
650.067,1263.65
650.594,1253.95
651.12,1258.1
651.646,1258.75
652.173,1272.4
652.699,1272.05
653.225,1277.65
653.752,1283.95
654.278,1290.55
654.804,1278.45
655.33,1275.05
655.856,1258.7
656.382,1247.65
656.908,1240.5
657.434,1229.85
657.96,1213.1
658.486,1198.5
659.012,1187.1
659.538,1175.55
660.064,1164.0
660.589,1151.25
661.115,1131.0
661.641,1124.6
662.166,1107.05
662.692,1098.75
663.086,1087.05