File: spectra/VLFR_02-HDPE_nobio_Raman_f728725a.csv
nm,Intensity
526.5,827.2
527.047,828.4
527.594,827.7
528.14,827.2
528.687,825.7
529.233,826.2
529.779,826.9
530.325,827.8
530.871,827.0
531.417,826.9
531.962,834.3
532.508,828.6
533.053,826.3
533.599,827.2
534.144,879.5
534.689,874.0
535.234,871.1
535.778,851.3
536.323,844.7
536.867,841.8
537.412,843.5
537.956,843.3
538.5,842.6
539.044,840.6
539.588,840.3
540.132,837.4
540.675,837.4
541.219,836.6
541.762,837.1
542.305,837.2
542.848,836.4
543.391,834.7
543.934,836.6
544.477,834.9
545.02,838.4
545.562,836.5
546.105,834.3
546.647,836.2
547.189,837.9
547.731,834.3
548.273,836.6
548.815,835.8
549.356,836.0
549.898,835.0
550.439,834.7
550.981,834.9
551.522,835.5
552.063,836.5
552.604,837.5
553.145,838.2
553.686,838.1
554.226,839.1
554.767,838.8
555.307,839.9
555.848,839.2
556.388,840.9
556.928,840.4
557.468,842.9
558.008,843.0
558.547,844.0
559.087,841.5
559.626,842.5
560.166,840.0
560.705,841.3
561.244,839.9
561.783,840.9
562.322,842.7
562.861,844.0
563.4,847.7
563.939,903.3
564.477,855.9
565.015,853.2
565.554,851.5
566.092,899.7
566.63,851.6
567.168,847.1
567.706,852.9
568.244,845.7
568.781,842.3
569.319,845.8
569.857,845.0
570.394,849.2
570.931,854.3
571.468,943.2
572.005,868.9
572.542,852.6
573.079,849.4
573.616,848.3
574.153,855.7
574.689,847.8
575.226,850.4
575.762,880.0
576.298,982.3
576.834,914.5
577.371,893.9
577.907,863.0
578.442,855.7
578.978,858.7
579.514,853.8
580.049,857.2
580.585,859.1
581.12,859.1
581.656,860.8
582.191,862.5
582.726,864.5
583.261,866.2
583.796,867.0
584.331,867.8
584.865,871.7
585.4,876.3
585.935,877.4
586.469,882.0
587.004,883.5
587.538,891.0
588.072,891.9
588.606,896.9
589.14,900.0
589.674,904.1
590.208,912.4
590.742,915.7
591.275,920.1
591.809,926.2
592.342,931.4
592.876,931.9
593.409,933.4
593.942,941.1
594.476,948.1
595.009,948.8
595.542,958.6
596.075,961.0
596.607,966.9
597.14,968.9
597.673,966.5
598.205,978.1
598.738,982.0
599.27,985.2
599.803,987.9
600.335,986.5
600.867,991.7
601.399,985.4
601.931,984.7
602.463,983.6
602.995,984.6
603.527,974.9
604.058,971.2
604.59,967.7
605.122,958.3
605.653,954.1
606.184,948.8
606.716,947.3
607.247,943.6
607.778,938.3
608.309,936.0
608.84,933.9
609.371,931.4
609.902,926.6
610.433,925.4
610.964,925.6
611.494,922.9
612.025,917.5
612.556,919.8
613.086,914.7
613.616,919.2
614.147,912.2
614.677,914.0
615.207,908.7
615.737,912.3
616.267,908.8
616.797,911.3
617.327,915.4
617.857,910.7
618.387,910.9
618.917,911.1
619.446,911.6
619.976,909.6
620.505,906.2
621.035,913.6
621.564,919.0
622.093,943.7
622.623,935.3
623.152,909.9
623.681,901.4
624.21,902.7
624.739,901.4
625.268,901.4
625.797,906.0
626.326,931.9
626.855,1147.5
627.383,1509.1
627.912,1236.6
628.441,1464.3
628.969,1238.7
629.498,1148.0
630.026,1060.4
630.554,1043.6
631.083,951.9
631.611,907.3
632.139,897.3
632.667,893.9
633.195,891.4
633.724,888.5
634.252,884.2
634.779,886.6
635.307,885.1
635.835,881.2
636.363,883.2
636.891,880.4
637.418,882.4
637.946,880.4
638.474,881.5
639.001,878.8
639.529,879.2
640.056,879.9
640.583,880.0
641.111,881.9
641.638,881.7
642.165,881.6
642.692,883.0
643.22,883.5
643.747,884.7
644.274,884.5
644.801,887.0
645.328,886.3
645.854,884.7
646.381,886.4
646.908,887.5
647.435,890.4
647.962,888.4
648.488,889.7
649.015,889.0
649.542,888.0
650.068,887.5
650.595,891.0
651.121,892.1
651.648,889.4
652.174,889.9
652.7,891.1
653.227,889.6
653.753,893.6
654.279,889.0
654.805,887.6
655.331,889.2
655.858,889.9
656.384,889.1
656.91,887.3
657.436,887.0
657.962,883.3
658.488,881.3
659.013,884.6
659.539,881.2
660.065,881.2
660.591,881.8
661.117,875.9
661.642,876.1
662.168,870.6
662.694,872.7
663.088,868.7