File: spectra/VLFR_06-PET_nobio_Raman_07c84812.csv
nm,Intensity
526.5,827.9
527.047,829.8
527.594,829.1
528.14,829.8
528.687,829.0
529.233,828.6
529.779,829.6
530.325,829.8
530.871,829.7
531.417,828.3
531.962,835.1
532.508,828.9
533.053,828.4
533.599,831.7
534.144,1174.4
534.689,1095.0
535.234,1005.8
535.778,960.1
536.323,921.9
536.867,916.8
537.412,912.9
537.956,908.4
538.5,913.0
539.044,913.6
539.588,918.0
540.132,925.0
540.675,916.0
541.219,914.7
541.762,914.8
542.305,917.9
542.848,919.6
543.391,921.9
543.934,921.5
544.477,926.7
545.02,925.5
545.562,928.5
546.105,928.4
546.647,931.8
547.189,931.7
547.731,938.9
548.273,943.2
548.815,943.3
549.356,945.3
549.898,948.0
550.439,953.0
550.981,958.2
551.522,953.7
552.063,959.9
552.604,963.9
553.145,970.7
553.686,964.7
554.226,969.9
554.767,974.9
555.307,983.2
555.848,990.9
556.388,993.9
556.928,996.5
557.468,1035.0
558.008,1012.4
558.547,1010.1
559.087,999.1
559.626,1002.3
560.166,999.0
560.705,1005.4
561.244,1006.7
561.783,1008.1
562.322,1014.3
562.861,1025.3
563.4,1023.2
563.939,1021.6
564.477,1030.2
565.015,1049.8
565.554,1069.1
566.092,1074.7
566.63,1045.5
567.168,1051.1
567.706,1074.2
568.244,1051.7
568.781,1051.1
569.319,1060.3
569.857,1065.8
570.394,1086.0
570.931,1116.4
571.468,1147.0
572.005,1116.4
572.542,1090.1
573.079,1089.0
573.616,1088.7
574.153,1099.3
574.689,1096.1
575.226,1107.8
575.762,1107.4
576.298,1111.3
576.834,1124.7
577.371,1122.9
577.907,1116.0
578.442,1120.5
578.978,1120.8
579.514,1126.4
580.049,1131.0
580.585,1134.3
581.12,1140.2
581.656,1163.8
582.191,1466.8
582.726,1157.7
583.261,1150.8
583.796,1158.0
584.331,1163.1
584.865,1166.1
585.4,1199.2
585.935,1333.7
586.469,1278.9
587.004,1188.4
587.538,1184.5
588.072,1177.1
588.606,1185.3
589.14,1183.3
589.674,1183.8
590.208,1179.3
590.742,1183.4
591.275,1189.4
591.809,1189.2
592.342,1191.3
592.876,1194.5
593.409,1192.3
593.942,1191.9
594.476,1186.8
595.009,1208.2
595.542,1206.9
596.075,1203.4
596.607,1207.2
597.14,1208.7
597.673,1210.6
598.205,1218.9
598.738,1210.7
599.27,1211.3
599.803,1215.0
600.335,1213.5
600.867,1217.1
601.399,1218.1
601.931,1215.6
602.463,1222.1
602.995,1221.6
603.527,1223.1
604.058,1225.7
604.59,1215.6
605.122,1212.8
605.653,1208.4
606.184,1207.7
606.716,1215.3
607.247,1206.5
607.778,1219.1
608.309,1213.2
608.84,1220.5
609.371,1222.9
609.902,1227.8
610.433,1219.7
610.964,1221.1
611.494,1231.4
612.025,1218.9
612.556,1227.5
613.086,1236.7
613.616,1235.9
614.147,1240.8
614.677,1240.9
615.207,1237.4
615.737,1238.9
616.267,1238.1
616.797,1243.2
617.327,1244.7
617.857,1245.3
618.387,1252.7
618.917,1250.0
619.446,1251.3
619.976,1249.2
620.505,1248.2
621.035,1254.1
621.564,1253.3
622.093,1255.2
622.623,1270.9
623.152,1268.1
623.681,1269.7
624.21,1278.0
624.739,1280.9
625.268,1277.4
625.797,1277.3
626.326,1282.3
626.855,1284.6
627.383,1285.5
627.912,1294.8
628.441,1298.1
628.969,1318.4
629.498,1309.3
630.026,1310.0
630.554,1311.5
631.083,1338.1
631.611,1382.0
632.139,1372.6
632.667,1359.0
633.195,1364.9
633.724,1348.4
634.252,1353.8
634.779,1342.4
635.307,1342.4
635.835,1373.5
636.363,1405.5
636.891,1420.1
637.418,1385.0
637.946,1370.5
638.474,1371.2
639.001,1377.6
639.529,1385.7
640.056,1381.3
640.583,1389.5
641.111,1395.6
641.638,1392.9
642.165,1400.4
642.692,1401.1
643.22,1402.5
643.747,1401.9
644.274,1401.1
644.801,1400.5
645.328,1403.8
645.854,1398.1
646.381,1405.5
646.908,1405.4
647.435,1409.4
647.962,1412.6
648.488,1409.0
649.015,1415.2
649.542,1416.7
650.068,1407.4
650.595,1418.8
651.121,1411.4
651.648,1418.8
652.174,1420.8
652.7,1421.7
653.227,1407.3
653.753,1414.3
654.279,1431.4
654.805,1422.3
655.331,1424.2
655.858,1420.1
656.384,1420.6
656.91,1436.2
657.436,1425.8
657.962,1424.0
658.488,1416.1
659.013,1429.8
659.539,1431.7
660.065,1435.8
660.591,1430.8
661.117,1416.8
661.642,1418.2
662.168,1417.9
662.694,1412.6
663.088,1411.6