File: spectra/VLFR_09-PET_bio_Raman_02b7ccbb.csv
nm,Intensity
526.547,831.55
527.095,833.75
527.642,832.55
528.189,831.75
528.736,832.7
529.283,832.85
529.829,832.3
530.376,832.8
530.922,832.65
531.468,832.8
532.014,835.1
532.56,831.85
533.106,832.9
533.651,847.2
534.196,1879.95
534.742,1741.0
535.287,1588.2
535.832,1523.0
536.376,1471.5
536.921,1454.5
537.465,1448.95
538.01,1455.65
538.554,1455.1
539.098,1464.2
539.642,1500.45
540.186,1509.75
540.729,1495.8
541.273,1496.75
541.816,1508.8
542.36,1517.8
542.903,1519.2
543.446,1539.35
543.988,1554.45
544.531,1556.75
545.074,1571.25
545.616,1581.1
546.158,1593.35
546.701,1601.65
547.243,1608.45
547.785,1606.7
548.326,1625.3
548.868,1638.0
549.41,1648.4
549.951,1643.55
550.492,1683.15
551.034,1679.45
551.575,1684.0
552.116,1685.6
552.656,1702.65
553.197,1708.5
553.738,1725.7
554.278,1730.45
554.819,1736.95
555.359,1752.7
555.899,1774.2
556.439,1788.7
556.979,1804.85
557.519,1960.25
558.058,1844.45
558.598,1827.6
559.137,1815.1
559.677,1827.95
560.216,1831.35
560.755,1849.25
561.294,1859.3
561.833,1885.4
562.371,1900.05
562.91,1901.5
563.449,1919.75
563.987,1933.4
564.525,1970.6
565.064,2071.2
565.602,2040.4
566.14,2028.6
566.678,1987.15
567.216,1972.8
567.753,2023.05
568.291,2003.95
568.828,2022.25
569.366,2038.25
569.903,2056.7
570.44,2098.45
570.977,2230.0
571.514,2357.95
572.051,2184.55
572.588,2121.65
573.125,2119.65
573.661,2138.9
574.198,2147.15
574.734,2156.15
575.271,2188.05
575.807,2189.0
576.343,2190.5
576.879,2216.6
577.415,2219.65
577.951,2208.55
578.486,2209.15
579.022,2233.05
579.557,2230.8
580.093,2243.6
580.628,2261.95
581.164,2276.2
581.699,2396.7
582.234,3545.9
582.769,2346.25
583.304,2306.6
583.838,2326.05
584.373,2321.65
584.908,2337.6
585.442,2417.35
585.977,2951.8
586.511,2649.4
587.045,2423.95
587.58,2396.55
588.114,2386.85
588.648,2371.4
589.182,2372.8
589.715,2371.8
590.249,2389.7
590.783,2399.3
591.316,2410.9
591.85,2415.8
592.383,2418.6
592.917,2413.15
593.45,2415.95
593.983,2410.15
594.516,2440.75
595.049,2450.6
595.582,2467.9
596.115,2455.55
596.648,2459.55
597.18,2491.15
597.713,2481.5
598.245,2503.95
598.778,2520.15
599.31,2524.9
599.842,2534.75
600.375,2523.85
600.907,2527.35
601.439,2536.2
601.971,2524.85
602.503,2540.45
603.034,2561.5
603.566,2583.4
604.098,2586.6
604.629,2582.25
605.161,2569.5
605.692,2564.0
606.224,2563.45
606.755,2580.7
607.286,2599.75
607.817,2630.55
608.348,2641.4
608.879,2649.35
609.41,2671.8
609.941,2675.85
610.472,2679.45
611.002,2699.45
611.533,2722.05
612.063,2749.85
612.594,2794.85
613.124,2827.15
613.655,2862.35
614.185,2883.95
614.715,2893.2
615.245,2902.0
615.775,2906.3
616.305,2943.65
616.835,2973.2
617.365,3008.0
617.895,3030.7
618.425,3074.05
618.954,3069.8
619.484,3082.75
620.013,3112.45
620.543,3114.7
621.072,3151.2
621.602,3171.9
622.131,3199.2
622.66,3241.9
623.189,3274.8
623.718,3309.8
624.247,3330.05
624.776,3371.35
625.305,3387.35
625.834,3400.35
626.363,3416.9
626.891,3449.1
627.42,3452.55
627.949,3473.05
628.477,3521.05
629.006,3548.95
629.534,3600.9
630.062,3610.45
630.591,3636.4
631.119,3700.15
631.647,3775.0
632.175,3800.55
632.703,3759.75
633.231,3788.05
633.759,3783.1
634.287,3775.75
634.815,3789.0
635.343,3823.55
635.871,3890.9
636.398,4014.6
636.926,4002.0
637.454,3937.8
637.981,3945.9
638.509,3948.95
639.036,3975.6
639.564,3964.75
640.091,4003.55
640.618,4018.15
641.146,4053.05
641.673,4061.3
642.2,4080.45
642.727,4079.75
643.254,4057.9
643.781,4051.05
644.308,4070.15
644.835,4070.55
645.362,4060.45
645.889,4091.65
646.416,4091.8
646.942,4112.0
647.469,4122.1
647.996,4133.1
648.522,4119.6
649.049,4141.7
649.576,4140.2
650.102,4133.0
650.629,4120.35
651.155,4130.2
651.682,4164.45
652.208,4176.45
652.734,4176.8
653.261,4190.5
653.787,4173.15
654.313,4206.05
654.839,4195.95
655.365,4192.3
655.892,4197.55
656.418,4197.05
656.944,4224.1
657.47,4219.95
657.996,4214.5
658.522,4227.75
659.048,4221.25
659.574,4258.95
660.099,4261.8
660.625,4224.15
661.151,4214.75
661.677,4178.6
662.203,4165.5
662.728,4181.85
663.123,4173.7