File: spectra/VLFR_09-PET_bio_Raman_066249d6.csv
nm,Intensity
528.635,1850.6
529.14,1852.0
529.645,1852.4
530.151,1850.1
530.656,1851.1
531.161,1852.6
531.666,1898.8
532.171,4408.9
532.676,1861.0
533.181,1872.2
533.686,4140.9
534.191,10301.8
534.696,9091.4
535.201,7911.5
535.705,7193.5
536.21,6490.2
536.715,6283.9
537.219,6137.8
537.724,6081.5
538.228,6084.4
538.733,6170.9
539.237,6323.6
539.741,6642.8
540.246,6573.7
540.75,6576.4
541.254,6474.2
541.758,6488.2
542.262,6670.1
542.766,6780.5
543.27,6847.9
543.774,6914.1
544.278,6961.5
544.781,7004.5
545.285,7071.3
545.789,7041.5
546.292,7308.1
546.796,7391.6
547.299,7273.3
547.803,7361.5
548.306,7612.9
548.809,7880.9
549.313,7681.1
549.816,7778.2
550.319,8172.7
550.822,8912.6
551.325,8161.5
551.828,8280.8
552.331,8248.3
552.834,8913.2
553.337,8459.5
553.839,8564.2
554.342,8704.0
554.845,8837.3
555.347,9056.6
555.85,9453.2
556.352,9432.1
556.854,9743.1
557.357,11155.3
557.859,11066.4
558.361,10046.3
558.863,9908.2
559.365,9743.1
559.867,9779.3
560.369,9778.9
560.871,10002.6
561.373,10314.7
561.875,10834.1
562.377,10806.6
562.878,10555.0
563.38,10559.3
563.881,10538.6
564.383,10812.5
564.884,12207.5
565.386,12402.0
565.887,12497.2
566.388,11337.0
566.889,11132.7
567.391,11505.3
567.892,11906.2
568.393,11417.0
568.893,11350.0
569.394,11807.4
569.895,11920.8
570.396,12517.0
570.897,14750.6
571.397,16439.6
571.898,13845.2
572.398,12793.2
572.899,12385.8
573.399,12305.0
573.899,12196.3
574.399,12102.5
574.9,12533.5
575.4,13419.8
575.9,12733.2
576.4,13004.1
576.899,13164.8
577.399,12968.4
577.899,12801.7
578.399,12714.3
578.898,12570.0
579.398,12897.1
579.897,12903.3
580.397,13363.5
580.896,13692.0
581.396,14263.9
581.895,22989.0
582.394,20883.4
582.893,14247.9
583.392,13426.7
583.891,13681.7
584.39,13667.2
584.889,13688.7
585.387,15327.3
585.886,21926.5
586.385,18436.6
586.883,14669.7
587.382,14225.3
587.88,14132.5
588.379,14098.6
588.877,13714.4
589.375,13901.4
589.873,13957.1
590.371,13979.8
590.869,13769.6
591.367,14185.2
591.865,14205.4
592.363,14050.8
592.86,13745.2
593.358,14074.4
593.856,14300.7
594.353,14207.5
594.851,14143.9
595.348,14460.5
595.845,14282.7
596.342,14600.7
596.84,14378.4
597.337,14765.0
597.834,14750.0
598.331,14531.0
598.827,14766.0
599.324,14550.2
599.821,14574.8
600.318,15006.9
600.814,14876.6
601.311,15036.0
601.807,15189.7
602.303,15029.2
602.8,15099.1
603.296,15074.5
603.792,15252.0
604.288,15521.7
604.784,15354.9
605.28,15049.9
605.776,15830.4
606.272,15454.9
606.767,15904.8
607.263,15767.3
607.758,15904.2
608.254,16075.3
608.749,15652.9
609.244,16584.0
609.74,16093.0
610.235,16194.2
610.73,16348.7
611.225,16368.9
611.72,16663.5
612.215,16694.1
612.709,16684.0
613.204,17007.7
613.699,16988.8
614.193,17361.9
614.688,17543.3
615.182,17483.7
615.676,17414.6
616.171,18071.8
616.665,17947.3
617.159,18183.3
617.653,18203.9
618.147,18499.2
618.641,18766.0
619.134,18572.6
619.628,19212.6
620.122,18971.0
620.615,19249.9
621.109,19141.1
621.602,19755.3
622.095,19311.6
622.588,19893.7
623.082,20123.6
623.575,20257.0
624.068,20027.2
624.56,20654.8
625.053,20894.7
625.546,20300.2
626.039,20867.6
626.531,20910.2
627.024,21321.4
627.516,21424.5
628.008,21561.5
628.501,21654.0
628.993,21930.0
629.485,22286.3
629.977,22087.3
630.469,22128.5
630.961,23009.5
631.452,23811.8
631.944,23782.2
632.436,23729.8
632.927,23563.0
633.418,23279.7
633.91,23837.3
634.401,23242.5
634.892,23680.0
635.383,23314.9
635.874,24475.0
636.365,25857.3
636.856,24622.4
637.347,23537.7
637.837,23488.5
638.328,24087.1
638.818,23977.4
639.309,23817.0
639.799,23822.5
640.289,23622.6
640.78,23358.4
641.27,24209.4
641.76,23995.2
642.249,23868.7
642.739,23748.3
643.229,23260.8
643.719,23069.4
644.208,24023.1
644.698,23489.5
645.187,23481.7
645.676,23273.5
646.165,23530.2
646.655,23882.8
647.144,22793.7
647.633,22620.2
648.121,23630.6
648.61,23475.2
649.099,23019.7
649.587,22982.5
650.076,22274.5
650.564,22795.6
651.053,22387.5
651.541,22254.8
652.029,22345.2
652.517,22304.3
653.005,22411.5
653.493,21239.5
653.981,21600.2
654.468,21659.5
654.956,21003.8
655.444,21206.8
655.931,21522.5
656.418,21135.4
656.906,20766.4
657.393,20272.4
657.88,20068.0
658.367,20063.7
658.854,19538.4
659.341,19420.2
659.827,19484.4
660.314,18803.7
660.8,18664.8
661.044,19157.9