File: spectra/VLFR_06-PET_nobio_Raman_2ab89b78.csv
nm,Intensity
526.486,830.0
527.033,831.1
527.579,831.4
528.126,831.6
528.672,830.1
529.219,830.6
529.765,829.6
530.311,830.6
530.857,830.4
531.403,828.7
531.948,836.5
532.494,833.5
533.039,829.2
533.585,839.7
534.13,2315.0
534.675,1923.8
535.22,1516.5
535.764,1272.7
536.309,1112.5
536.854,1057.1
537.398,1033.4
537.942,1022.2
538.486,1033.4
539.03,1026.5
539.574,1040.4
540.118,1053.9
540.662,1009.7
541.205,992.2
541.749,987.3
542.292,987.4
542.835,994.7
543.378,999.0
543.921,1010.2
544.464,1002.2
545.006,1005.5
545.549,1013.2
546.091,1011.5
546.634,1010.4
547.176,1021.3
547.718,1020.8
548.26,1025.0
548.802,1028.8
549.343,1027.5
549.885,1031.6
550.426,1052.3
550.968,1068.6
551.509,1048.2
552.05,1052.1
552.591,1060.5
553.132,1088.6
553.673,1065.3
554.214,1067.9
554.754,1070.9
555.295,1087.0
555.835,1153.5
556.375,1155.7
556.915,1168.0
557.455,1321.5
557.995,1205.6
558.535,1197.2
559.075,1148.3
559.614,1118.4
560.154,1111.5
560.693,1124.6
561.232,1135.5
561.772,1147.8
562.311,1160.7
562.85,1171.2
563.388,1183.0
563.927,1175.1
564.466,1185.5
565.004,1232.6
565.543,1322.6
566.081,1324.4
566.619,1219.1
567.157,1195.9
567.695,1298.6
568.233,1214.7
568.771,1211.4
569.309,1224.2
569.846,1258.0
570.384,1312.8
570.921,1460.6
571.458,1617.5
571.995,1429.0
572.532,1298.9
573.069,1268.5
573.606,1274.2
574.143,1317.4
574.68,1297.6
575.216,1338.7
575.753,1312.6
576.289,1350.4
576.825,1365.7
577.361,1327.7
577.897,1315.4
578.433,1325.5
578.969,1321.8
579.505,1342.0
580.041,1342.1
580.576,1340.8
581.112,1386.6
581.647,1476.7
582.183,2851.2
582.718,1456.6
583.253,1393.4
583.788,1394.6
584.323,1405.7
584.858,1431.8
585.392,1540.8
585.927,2175.8
586.462,1910.4
586.996,1490.4
587.53,1441.2
588.065,1442.6
588.599,1442.3
589.133,1438.2
589.667,1442.5
590.201,1446.4
590.735,1443.8
591.268,1453.2
591.802,1456.3
592.335,1450.8
592.869,1460.0
593.402,1464.5
593.936,1468.0
594.469,1473.8
595.002,1469.9
595.535,1483.9
596.068,1482.1
596.601,1481.9
597.133,1484.5
597.666,1488.7
598.199,1489.4
598.731,1501.7
599.264,1507.9
599.796,1505.1
600.328,1510.8
600.86,1497.8
601.393,1513.6
601.925,1508.6
602.457,1509.6
602.988,1512.6
603.52,1524.2
604.052,1521.9
604.583,1519.6
605.115,1512.4
605.646,1511.1
606.178,1506.5
606.709,1515.8
607.24,1511.4
607.771,1523.7
608.302,1518.6
608.833,1512.9
609.364,1528.7
609.895,1529.1
610.426,1536.9
610.957,1528.6
611.487,1544.4
612.018,1537.0
612.548,1556.9
613.078,1563.7
613.609,1570.5
614.139,1574.9
614.669,1572.9
615.199,1584.5
615.729,1577.5
616.259,1588.5
616.789,1590.4
617.319,1602.9
617.849,1616.9
618.378,1615.1
618.908,1615.0
619.437,1610.1
619.967,1605.1
620.496,1608.5
621.025,1614.5
621.555,1602.5
622.084,1628.4
622.613,1630.1
623.142,1640.8
623.671,1660.4
624.2,1659.7
624.729,1674.3
625.258,1681.9
625.786,1678.4
626.315,1673.6
626.844,1686.8
627.372,1706.4
627.901,1700.2
628.429,1729.6
628.957,1767.1
629.486,1781.2
630.014,1760.3
630.542,1771.2
631.07,1861.4
631.598,2023.2
632.126,2016.0
632.654,1934.0
633.182,1895.9
633.71,1892.6
634.237,1857.2
634.765,1856.0
635.293,1881.1
635.82,1947.9
636.348,2099.1
636.875,2139.9
637.403,1943.2
637.93,1917.5
638.458,1920.0
638.985,1914.2
639.512,1928.4
640.039,1935.7
640.566,1941.8
641.093,1947.7
641.62,1962.7
642.147,1964.8
642.674,1990.6
643.201,1961.9
643.728,1972.0
644.255,1969.3
644.781,1984.8
645.308,1968.4
645.835,1990.9
646.361,2008.4
646.888,2009.6
647.414,2028.1
647.941,2023.8
648.467,2025.8
648.993,2013.1
649.52,2020.9
650.046,2025.1
650.572,2020.5
651.098,2027.9
651.625,2047.1
652.151,2027.9
652.677,2052.9
653.203,2051.1
653.729,2060.6
654.255,2071.1
654.78,2059.3
655.306,2061.6
655.832,2063.0
656.358,2049.4
656.884,2061.5
657.409,2075.4
657.935,2066.0
658.461,2071.8
658.986,2062.2
659.512,2076.3
660.037,2071.3
660.563,2073.1
661.088,2066.7
661.614,2042.9
662.139,2037.6
662.664,2055.8
663.058,2038.8