File: spectra/VLFR_02-HDPE_bio_Raman_29be2997.csv
nm,Intensity
528.629,1850.6
529.134,1850.25
529.639,1850.6
530.145,1850.8
530.65,1850.85
531.155,1851.9
531.66,1878.55
532.165,2838.4
532.67,1851.95
533.175,1850.85
533.68,1883.55
534.185,1964.3
534.69,1966.35
535.195,1959.55
535.699,1932.0
536.204,1924.2
536.709,1926.15
537.213,1924.25
537.718,1919.7
538.222,1923.05
538.727,1933.35
539.231,1942.95
539.735,1918.15
540.239,1917.55
540.744,1915.85
541.248,1914.5
541.752,1917.2
542.256,1919.4
542.76,1926.95
543.264,1918.5
543.768,1919.0
544.271,1913.55
544.775,1911.95
545.279,1915.7
545.783,1913.6
546.286,1922.0
546.79,1921.3
547.293,1921.05
547.797,1920.8
548.3,1919.95
548.803,1925.05
549.306,1922.7
549.81,1926.2
550.313,1927.95
550.816,1935.8
551.319,1934.0
551.822,1927.7
552.325,1929.6
552.828,1931.55
553.33,1929.7
553.833,1931.8
554.336,1931.55
554.838,1934.7
555.341,1936.5
555.843,1940.15
556.346,1936.6
556.848,1934.15
557.35,1940.8
557.853,1941.4
558.355,1940.7
558.857,1944.4
559.359,1939.9
559.861,1947.7
560.363,1938.55
560.865,1936.75
561.367,1941.05
561.869,1947.65
562.37,1952.85
562.872,1954.15
563.374,1962.0
563.875,2084.45
564.376,1988.0
564.878,1978.75
565.379,1975.25
565.881,2061.0
566.382,2063.6
566.883,1969.55
567.384,1984.35
567.885,1961.35
568.386,1962.0
568.887,1962.3
569.388,1963.2
569.888,1965.45
570.389,1974.85
570.89,1984.9
571.39,2190.0
571.891,2032.0
572.391,1986.85
572.892,1964.15
573.392,1969.65
573.892,1983.35
574.393,1964.4
574.893,1967.65
575.393,2082.1
575.893,2065.2
576.393,2126.85
576.893,2073.25
577.392,2013.05
577.892,1966.25
578.392,1964.05
578.891,1961.0
579.391,1960.45
579.89,1964.25
580.39,1963.5
580.889,1965.6
581.388,1965.0
581.888,1960.5
582.387,1958.1
582.886,1955.55
583.385,1955.55
583.884,1957.7
584.383,1952.8
584.881,1951.35
585.38,1951.65
585.879,1956.3
586.377,1953.55
586.876,1948.4
587.374,1955.05
587.873,1952.65
588.371,1956.0
588.869,1954.65
589.368,1953.9
589.866,1951.1
590.364,1960.65
590.862,1947.55
591.36,1953.55
591.857,1957.6
592.355,1958.05
592.853,1962.55
593.35,1963.0
593.848,1960.1
594.345,1960.9
594.843,1959.4
595.34,1964.75
595.837,1967.35
596.335,1964.85
596.832,1973.8
597.329,1963.05
597.826,1970.15
598.323,1969.5
598.819,1978.05
599.316,1979.5
599.813,1974.3
600.309,1974.05
600.806,1965.4
601.302,1972.05
601.799,1972.7
602.295,1975.65
602.791,1980.1
603.288,1981.4
603.784,1978.55
604.28,1979.95
604.776,1978.2
605.272,1978.7
605.767,1973.5
606.263,1969.85
606.759,1972.3
607.254,1973.7
607.75,1975.2
608.245,1973.45
608.74,1967.05
609.236,1970.5
609.731,1966.15
610.226,1968.55
610.721,1974.0
611.216,1974.0
611.711,1970.8
612.206,1976.15
612.7,1969.15
613.195,1967.85
613.69,1973.9
614.184,1962.35
614.679,1972.95
615.173,1966.0
615.667,1971.05
616.161,1966.95
616.656,1968.25
617.15,1982.45
617.644,1979.95
618.137,1971.6
618.631,1987.8
619.125,1981.45
619.619,1988.3
620.112,1984.6
620.606,1983.65
621.099,2002.55
621.592,2019.85
622.086,2050.7
622.579,2038.2
623.072,1996.65
623.565,1986.55
624.058,1985.45
624.551,1985.75
625.043,1985.35
625.536,2001.05
626.029,2029.4
626.521,2201.5
627.014,3149.2
627.506,2885.05
627.998,2683.65
628.49,3249.55
628.983,2593.0
629.475,2482.85
629.966,2322.25
630.458,2303.6
630.95,2140.95
631.442,2024.0
631.933,1997.3
632.425,1991.0
632.916,1976.05
633.408,1970.25
633.899,1968.15
634.39,1969.7
634.881,1956.5
635.372,1956.3
635.863,1955.65
636.354,1951.35
636.845,1950.85
637.336,1949.55
637.826,1948.3
638.317,1945.75
638.807,1946.35
639.298,1945.15
639.788,1947.6
640.278,1948.55
640.768,1942.0
641.258,1946.25
641.748,1940.8
642.238,1938.55
642.728,1939.05
643.217,1939.05
643.707,1939.15
644.197,1936.35
644.686,1940.4
645.175,1937.35
645.664,1940.05
646.154,1943.9
646.643,1943.9
647.132,1942.25
647.621,1938.1
648.109,1937.2
648.598,1945.05
649.087,1939.05
649.575,1945.05
650.064,1939.25
650.552,1940.65
651.04,1933.6
651.528,1941.3
652.017,1931.8
652.505,1936.5
652.992,1940.2
653.48,1927.6
653.968,1933.85
654.456,1931.1
654.943,1928.7
655.431,1925.6
655.918,1920.65
656.405,1926.9
656.893,1922.5
657.38,1920.3
657.867,1916.75
658.354,1916.2
658.84,1917.8
659.327,1918.15
659.814,1918.65
660.3,1909.9
660.787,1910.65
661.03,1915.35