File: spectra/VLFR_07-PET_bio_Raman_324d0f71.csv
nm,Intensity
791.377,10327.4
792.477,9449.02
793.576,8853.92
794.676,8651.88
795.775,8511.74
796.874,8406.04
797.973,8419.14
799.072,8465.06
800.171,8397.1
801.27,8359.92
802.368,8437.94
803.467,8310.0
804.565,8269.9
805.664,8096.54
806.762,8047.84
807.86,8012.14
808.958,7914.78
810.056,7844.48
811.153,7811.28
812.251,7826.08
813.349,7615.68
814.446,7603.86
815.543,7578.82
816.64,7584.64
817.737,7438.98
818.834,7402.96
819.931,7299.58
821.028,7268.08
822.125,7231.3
823.221,7089.14
824.317,7079.14
825.414,7100.62
826.51,7078.66
827.606,6943.56
828.702,6842.84
829.797,6792.38
830.893,6967.42
831.988,6679.62
833.084,6692.4
834.179,6632.12
835.274,6680.64
836.369,6594.8
837.464,6658.76
838.559,6554.2
839.654,6580.5
840.748,6668.98
841.843,6776.72
842.937,6527.98
844.031,6433.86
845.125,6363.26
846.219,6203.2
847.313,6171.16
848.407,6119.32
849.5,6116.64
850.593,6034.1
851.687,6110.52
852.78,6136.12
853.873,6085.2
854.966,6003.04
856.059,5933.54
857.151,5922.96
858.244,5949.06
859.336,5978.46
860.428,5967.3
861.52,5918.4
862.612,5810.12
863.704,5732.98
864.796,5815.36
865.888,5715.08
866.979,5672.12
868.07,5655.42
869.162,5659.68
870.253,5655.7
871.344,5735.62
872.434,5814.36
873.525,5908.02
874.615,5766.44
875.706,5563.62
876.796,5525.32
877.886,5478.34
878.976,5430.28
880.066,5415.42
881.156,5396.12
882.245,5399.72
883.335,5382.58
884.424,5352.02
885.513,5357.04
886.602,5332.14
887.691,5268.0
888.78,5208.06
889.868,5219.42
890.957,5225.1
892.045,5231.34
893.133,5175.74
894.221,5140.7
895.309,5106.68
896.397,5089.4
897.484,5271.22
898.571,5693.36
899.659,5395.24
900.746,5021.74
901.833,4974.54
902.92,4958.1
904.006,4941.3
905.093,4924.58
906.179,4968.5
907.266,5232.74
908.352,5273.14
909.438,5055.54
910.523,4863.84
911.609,4753.96
912.695,4743.12
913.78,4720.9
914.865,4691.14
915.95,4652.76
917.035,4633.96
918.12,4634.02
919.204,4604.84
920.289,4581.06
921.373,4555.54
922.457,4524.62
923.541,4521.34
924.625,4494.04
925.709,4471.98
926.792,4453.6
927.876,4444.42
928.959,4404.44
930.042,4371.82
931.125,4380.76
932.208,4365.36
933.29,4323.8
934.373,4329.7
935.455,4302.22
936.537,4283.18
937.619,4260.36
938.701,4256.84
939.782,4233.02
940.864,4242.5
941.945,4210.32
943.026,4185.68
944.107,4169.62
945.188,4172.14
946.269,4156.92
947.349,4150.18
948.43,4129.92
949.51,4117.32
950.59,4106.86
951.67,4090.34
952.75,4083.02
953.829,4074.32
954.909,4063.66
955.988,4059.0
957.067,4041.38
958.146,4033.34
959.224,4031.34
960.303,4021.82
961.381,4011.98
962.459,4003.7
963.537,3997.08
964.615,3988.72
965.693,3989.0
966.771,3975.4
967.848,3969.96
968.925,3967.24
970.002,3958.38
971.079,3946.36
972.156,3946.7
973.232,3942.1
974.309,3934.5
975.385,3935.72
976.461,3924.54
977.537,3918.38
978.612,3918.02
979.688,3907.44
980.763,3912.44
981.838,3901.1
982.913,3894.44
983.988,3895.9
985.063,3888.18
986.137,3888.22
987.211,3883.32
988.285,3880.58
989.359,3875.6
990.433,3871.96
991.506,3865.16
992.58,3860.5
993.653,3859.08
994.726,3860.1
995.799,3851.88
996.872,3852.44
997.944,3848.2
999.016,3846.46
1000.09,3844.5
1001.16,3840.54
1002.23,3839.88
1003.3,3838.4
1004.38,3834.7
1005.45,3831.04
1006.52,3831.24
1007.59,3829.62
1008.66,3826.22
1009.73,3821.48
1010.8,3820.82
1011.87,3820.7
1012.94,3817.9
1014.01,3819.12
1015.08,3815.4
1016.15,3815.98
1017.22,3813.06
1018.29,3811.84
1019.36,3810.18
1020.42,3812.7
1021.49,3813.84
1022.56,3815.66
1023.63,3816.72
1024.7,3811.14
1025.76,3807.3
1026.83,3805.04
1027.9,3802.04
1028.97,3798.74
1030.03,3796.66
1031.1,3795.88
1032.17,3797.52
1033.23,3795.76
1034.3,3798.06
1035.36,3799.06
1036.43,3799.72
1037.5,3795.82
1038.56,3792.08
1039.63,3791.06
1040.69,3791.32
1041.76,3788.44
1042.82,3788.04
1043.89,3788.5
1044.95,3786.82
1046.01,3785.46
1047.08,3786.5
1048.14,3786.48
1049.2,3785.36
1050.27,3785.6
1051.33,3784.9
1052.39,3784.54
1053.46,3784.58
1054.52,3783.6
1055.58,3783.28
1056.64,3784.2
1057.7,3783.88
1058.77,3782.8
1059.83,3783.26
1060.89,3783.02
1061.95,3782.4
1063.01,3782.64
1064.07,3782.34
1065.13,3782.42
1066.19,3782.28
1067.25,3781.2
1068.05,3781.74