File: spectra/VLFR_02-HDPE_bio_Raman_cacb2da0.csv
nm,Intensity
526.495,829.95
527.042,829.4
527.589,829.3
528.136,829.3
528.682,829.1
529.229,828.1
529.775,828.9
530.321,828.5
530.867,828.55
531.413,829.25
531.959,832.3
532.505,829.8
533.051,829.3
533.596,829.45
534.141,877.0
534.687,871.85
535.232,865.65
535.777,861.45
536.321,857.05
536.866,854.75
537.41,855.6
537.955,853.15
538.499,851.0
539.043,850.6
539.587,849.6
540.131,849.2
540.675,847.5
541.219,847.1
541.762,846.4
542.305,846.25
542.849,846.7
543.392,845.7
543.935,845.4
544.478,845.15
545.02,843.0
545.563,844.55
546.106,844.55
546.648,843.7
547.19,844.95
547.732,843.4
548.274,841.75
548.816,842.1
549.358,842.8
549.9,842.0
550.441,841.85
550.983,841.25
551.524,842.55
552.065,842.0
552.606,841.85
553.147,843.35
553.688,844.0
554.229,843.65
554.769,844.5
555.31,845.55
555.85,845.45
556.391,847.4
556.931,848.1
557.471,848.05
558.011,850.4
558.551,850.85
559.09,849.2
559.63,850.3
560.169,848.9
560.709,851.05
561.248,851.4
561.787,852.15
562.326,853.0
562.865,854.3
563.404,857.75
563.943,886.3
564.481,867.5
565.02,864.8
565.558,863.1
566.096,901.35
566.634,866.7
567.172,863.15
567.71,863.1
568.248,861.8
568.786,862.85
569.324,866.75
569.861,868.6
570.399,870.45
570.936,877.55
571.473,920.5
572.01,891.1
572.547,880.15
573.084,882.05
573.621,882.5
574.158,890.6
574.694,892.05
575.231,900.8
575.767,922.1
576.303,960.6
576.84,944.2
577.376,934.25
577.912,930.9
578.448,936.35
578.984,946.35
579.519,954.5
580.055,962.65
580.59,971.85
581.126,975.85
581.661,986.55
582.196,989.5
582.731,1001.95
583.267,1006.0
583.801,1015.6
584.336,1025.9
584.871,1027.6
585.406,1036.65
585.94,1048.35
586.475,1061.45
587.009,1069.7
587.543,1082.1
588.078,1088.95
588.612,1098.15
589.146,1109.45
589.68,1124.75
590.214,1137.15
590.747,1145.25
591.281,1159.05
591.815,1167.3
592.348,1173.6
592.881,1183.15
593.415,1179.75
593.948,1194.4
594.481,1198.85
595.014,1207.7
595.547,1212.05
596.08,1230.3
596.613,1239.5
597.146,1249.95
597.678,1263.55
598.211,1272.3
598.743,1284.35
599.276,1292.0
599.808,1293.05
600.34,1300.95
600.872,1295.8
601.404,1293.5
601.936,1292.45
602.468,1285.25
603.0,1265.9
603.532,1259.1
604.064,1240.35
604.595,1220.85
605.127,1205.55
605.658,1180.75
606.189,1160.5
606.721,1151.1
607.252,1138.5
607.783,1126.85
608.314,1119.05
608.845,1110.6
609.376,1098.75
609.907,1092.8
610.438,1083.95
610.968,1074.35
611.499,1072.05
612.029,1068.1
612.56,1063.7
613.09,1055.9
613.621,1052.1
614.151,1047.2
614.681,1043.3
615.211,1033.3
615.741,1027.15
616.271,1027.05
616.801,1022.2
617.331,1018.15
617.861,1016.95
618.39,1012.65
618.92,1008.2
619.45,1004.3
619.979,1004.05
620.509,1001.05
621.038,1003.45
621.567,1000.9
622.096,1009.75
622.626,1005.4
623.155,997.05
623.684,991.3
624.213,991.55
624.742,988.95
625.271,988.6
625.799,984.9
626.328,1001.35
626.857,1076.75
627.386,1250.0
627.914,1152.1
628.443,1222.1
628.971,1180.6
629.5,1141.0
630.028,1098.65
630.556,1090.45
631.084,1041.45
631.613,1011.7
632.141,998.3
632.669,994.9
633.197,990.6
633.725,992.35
634.253,993.5
634.781,991.6
635.308,995.6
635.836,993.0
636.364,992.95
636.891,997.25
637.419,999.2
637.947,997.95
638.474,1000.1
639.002,1000.1
639.529,1002.8
640.056,1005.75
640.584,1007.75
641.111,1010.15
641.638,1010.4
642.165,1013.8
642.692,1016.85
643.219,1016.2
643.746,1014.65
644.273,1013.25
644.8,1018.65
645.327,1018.75
645.854,1019.8
646.381,1019.85
646.908,1021.25
647.434,1023.6
647.961,1019.1
648.488,1019.7
649.014,1022.65
649.541,1018.65
650.067,1020.85
650.594,1021.05
651.12,1017.35
651.646,1022.55
652.173,1022.45
652.699,1023.95
653.225,1022.55
653.752,1025.45
654.278,1023.45
654.804,1019.8
655.33,1017.65
655.856,1015.55
656.382,1010.95
656.908,1010.5
657.434,1004.75
657.96,1001.95
658.486,996.25
659.012,994.9
659.538,987.35
660.064,981.15
660.589,971.6
661.115,970.85
661.641,967.0
662.166,959.7
662.692,953.25
663.086,948.75