File: spectra/VLFR_08-PLA_nobio_Raman_c3fd4e2f.csv
cm-1,Intensity
-123.878,1854.5
-105.821,1854.3
-87.8007,1853.3
-69.8161,1854.05
-51.8675,1852.7
-33.9547,1856.2
-16.0776,1891.3
1.76388,3836.5
19.5698,1855.45
37.3403,1855.35
55.0755,2070.1
72.7754,2528.9
90.4402,2407.05
108.07,2377.35
125.665,2313.3
143.225,2282.4
160.75,2300.65
178.241,2252.25
195.697,2277.1
213.119,2256.45
230.506,2230.65
247.859,2263.2
265.178,2180.05
282.463,2216.7
299.713,2282.7
316.93,2265.3
334.113,2214.1
351.263,2209.1
368.379,2222.6
385.461,2313.85
402.51,2411.35
419.526,2287.85
436.508,2213.75
453.458,2202.2
470.374,2196.55
487.257,2202.4
504.107,2226.5
520.925,2235.2
537.71,2228.15
554.462,2228.4
571.182,2239.6
587.87,2249.25
604.525,2250.95
621.148,2264.3
637.739,2292.95
654.297,2298.1
670.824,2310.4
687.319,2304.35
703.782,2331.15
720.213,2307.35
736.613,2356.3
752.981,2308.55
769.317,2298.7
785.623,2276.25
801.897,2270.95
818.139,2273.9
834.351,2289.3
850.532,2334.75
866.681,2844.85
882.8,2632.0
898.888,2381.25
914.945,2351.3
930.972,2344.9
946.968,2309.55
962.934,2324.5
978.869,2311.85
994.774,2315.6
1010.65,2303.1
1026.49,2370.45
1042.31,2566.6
1058.09,2420.15
1073.85,2377.35
1089.57,2501.15
1105.27,2465.95
1120.93,2569.5
1136.57,2539.9
1152.18,2386.95
1167.75,2379.05
1183.3,2427.05
1198.82,2377.0
1214.31,2419.45
1229.77,2419.7
1245.2,2401.85
1260.6,2397.1
1275.97,2405.65
1291.32,2578.85
1306.63,2525.1
1321.92,2494.6
1337.18,2477.2
1352.41,2511.05
1367.61,2501.05
1382.78,2534.0
1397.93,2452.65
1413.05,2410.35
1428.14,2446.5
1443.2,2636.45
1458.23,2759.15
1473.23,2483.85
1488.21,2431.6
1503.16,2433.2
1518.08,2408.25
1532.97,2415.2
1547.84,2405.3
1562.68,2405.4
1577.49,2392.75
1592.27,2409.45
1607.03,2408.6
1621.76,2409.2
1636.46,2388.95
1651.14,2404.7
1665.78,2397.4
1680.41,2411.7
1695.0,2406.3
1709.57,2397.3
1724.11,2391.25
1738.62,2438.9
1753.11,2595.65
1767.57,2772.95
1782.01,2585.9
1796.41,2430.1
1810.8,2405.15
1825.15,2396.7
1839.48,2383.45
1853.79,2407.45
1868.06,2382.55
1882.31,2388.2
1896.54,2393.65
1910.74,2382.65
1924.91,2375.45
1939.06,2383.2
1953.19,2374.7
1967.28,2386.15
1981.35,2391.75
1995.4,2388.35
2009.42,2399.85
2023.42,2381.55
2037.39,2381.85
2051.33,2374.45
2065.25,2401.6
2079.15,2387.5
2093.01,2375.05
2106.86,2377.1
2120.68,2395.35
2134.47,2394.1
2148.24,2387.7
2161.99,2378.7
2175.71,2383.05
2189.41,2389.35
2203.08,2412.5
2216.73,2390.75
2230.35,2382.85
2243.95,2382.3
2257.52,2379.85
2271.07,2373.75
2284.6,2369.85
2298.1,2377.7
2311.58,2377.0
2325.03,2382.05
2338.46,2384.2
2351.87,2390.1
2365.25,2371.15
2378.61,2367.75
2391.94,2382.55
2405.26,2387.05
2418.54,2385.95
2431.81,2381.95
2445.05,2366.8
2458.27,2375.1
2471.46,2370.45
2484.63,2366.85
2497.78,2370.45
2510.9,2378.2
2524.0,2366.6
2537.08,2365.5
2550.14,2378.1
2563.17,2378.9
2576.18,2367.7
2589.17,2384.45
2602.13,2354.9
2615.07,2367.35
2627.99,2357.85
2640.89,2339.35
2653.76,2348.1
2666.61,2366.25
2679.44,2340.7
2692.25,2359.1
2705.03,2357.35
2717.79,2362.75
2730.53,2406.8
2743.25,2419.55
2755.94,2388.45
2768.61,2376.45
2781.27,2352.45
2793.89,2340.85
2806.5,2336.6
2819.09,2349.0
2831.65,2328.9
2844.19,2342.15
2856.71,2365.55
2869.21,2490.85
2881.69,2778.85
2894.14,2669.6
2906.58,2710.7
2918.99,2715.65
2931.38,3079.7
2943.75,5002.95
2956.1,4163.25
2968.42,3162.8
2980.73,2888.35
2993.01,3188.5
3005.28,3397.55
3017.52,2967.75
3029.74,2538.7
3041.94,2399.05
3054.12,2330.0
3066.28,2294.05
3078.42,2282.25
3090.54,2288.4
3102.63,2279.1
3114.71,2263.25
3126.77,2265.95
3138.8,2241.05
3150.82,2242.55
3162.81,2253.45
3174.78,2234.85
3186.74,2225.15
3198.67,2233.7
3210.58,2240.1
3222.47,2237.65
3234.35,2230.6
3246.2,2219.8
3258.03,2216.45
3269.84,2211.35
3281.64,2198.0
3293.41,2199.45
3305.16,2196.0
3316.89,2180.3
3328.61,2170.75
3340.3,2175.25
3351.97,2182.35
3363.63,2173.4
3375.26,2152.85
3386.88,2166.0
3398.47,2156.4
3410.05,2153.0
3421.6,2152.25
3433.14,2147.55
3444.66,2146.2
3456.15,2139.2
3467.63,2134.05
3479.09,2125.45
3490.53,2129.45
3501.96,2135.8
3513.36,2134.75
3524.74,2117.8
3536.11,2125.85
3547.45,2115.2
3558.78,2112.05
3570.09,2111.05
3581.37,2106.75
3592.64,2112.6
3603.9,2106.15
3615.13,2096.9
3626.34,2095.6
3637.54,2087.6
3648.72,2074.25
3659.87,2083.75
3665.45,2079.6