File: spectra/VLFR_02-HDPE_nobio_Raman_f50d4603.csv
nm,Intensity
526.5,829.1
527.047,829.5
527.594,829.8
528.14,829.7
528.687,828.7
529.233,828.4
529.779,829.0
530.325,828.4
530.871,829.7
531.417,828.2
531.962,836.7
532.508,831.6
533.053,828.8
533.599,828.0
534.144,847.3
534.689,848.5
535.234,847.5
535.778,844.1
536.323,842.5
536.867,840.3
537.412,841.6
537.956,842.0
538.5,839.0
539.044,842.7
539.588,839.4
540.132,841.9
540.675,839.9
541.219,840.0
541.762,839.4
542.305,841.2
542.848,841.2
543.391,839.7
543.934,840.5
544.477,840.1
545.02,839.3
545.562,840.7
546.105,840.9
546.647,841.8
547.189,841.9
547.731,839.3
548.273,840.5
548.815,841.1
549.356,842.5
549.898,840.0
550.439,842.2
550.981,842.2
551.522,842.5
552.063,843.4
552.604,843.5
553.145,842.4
553.686,841.2
554.226,841.7
554.767,841.1
555.307,842.1
555.848,842.8
556.388,841.7
556.928,844.8
557.468,843.2
558.008,843.6
558.547,842.9
559.087,843.5
559.626,842.1
560.166,842.9
560.705,843.6
561.244,845.3
561.783,842.2
562.322,843.2
562.861,844.5
563.4,844.7
563.939,856.9
564.477,848.8
565.015,846.2
565.554,847.8
566.092,856.9
566.63,847.1
567.168,846.2
567.706,846.9
568.244,846.8
568.781,844.1
569.319,846.1
569.857,847.9
570.394,848.1
570.931,849.1
571.468,871.5
572.005,852.2
572.542,848.8
573.079,850.9
573.616,848.1
574.153,851.4
574.689,849.0
575.226,850.7
575.762,858.1
576.298,876.7
576.834,866.1
577.371,857.9
577.907,853.2
578.442,852.7
578.978,853.2
579.514,856.5
580.049,855.0
580.585,852.4
581.12,854.6
581.656,854.1
582.191,856.3
582.726,856.7
583.261,857.5
583.796,857.7
584.331,860.9
584.865,860.8
585.4,861.6
585.935,860.4
586.469,861.7
587.004,861.9
587.538,864.4
588.072,862.3
588.606,862.4
589.14,869.4
589.674,867.9
590.208,867.9
590.742,866.5
591.275,870.9
591.809,869.3
592.342,872.9
592.876,870.9
593.409,872.5
593.942,874.0
594.476,873.2
595.009,877.7
595.542,877.0
596.075,880.0
596.607,878.4
597.14,879.3
597.673,883.5
598.205,885.8
598.738,883.7
599.27,893.8
599.803,888.8
600.335,892.2
600.867,888.8
601.399,892.6
601.931,892.4
602.463,887.5
602.995,888.2
603.527,891.5
604.058,887.7
604.59,886.6
605.122,886.5
605.653,880.2
606.184,881.4
606.716,878.3
607.247,875.8
607.778,878.1
608.309,875.2
608.84,876.8
609.371,872.3
609.902,870.9
610.433,872.7
610.964,871.4
611.494,872.0
612.025,871.3
612.556,871.4
613.086,869.9
613.616,869.1
614.147,869.6
614.677,866.2
615.207,869.4
615.737,868.9
616.267,869.5
616.797,867.7
617.327,869.2
617.857,865.0
618.387,867.9
618.917,868.2
619.446,869.9
619.976,867.4
620.505,868.5
621.035,870.6
621.564,872.9
622.093,875.9
622.623,877.3
623.152,871.7
623.681,869.4
624.21,867.2
624.739,867.5
625.268,866.4
625.797,869.0
626.326,877.5
626.855,940.2
627.383,1045.3
627.912,969.8
628.441,1029.5
628.969,977.3
629.498,946.7
630.026,922.9
630.554,917.4
631.083,886.6
631.611,870.6
632.139,868.8
632.667,866.3
633.195,865.3
633.724,864.4
634.252,864.5
634.779,861.5
635.307,863.8
635.835,861.7
636.363,859.5
636.891,860.8
637.418,861.0
637.946,861.9
638.474,860.6
639.001,858.7
639.529,859.5
640.056,863.0
640.583,862.8
641.111,864.3
641.638,862.2
642.165,861.5
642.692,861.3
643.22,861.1
643.747,863.8
644.274,861.5
644.801,861.2
645.328,861.2
645.854,862.2
646.381,862.1
646.908,860.5
647.435,862.7
647.962,863.4
648.488,862.8
649.015,862.5
649.542,863.5
650.068,862.3
650.595,863.6
651.121,866.5
651.648,864.2
652.174,864.0
652.7,865.0
653.227,863.6
653.753,866.4
654.279,864.8
654.805,865.7
655.331,864.8
655.858,862.8
656.384,862.8
656.91,866.8
657.436,864.3
657.962,864.1
658.488,864.5
659.013,864.3
659.539,862.0
660.065,860.2
660.591,860.0
661.117,859.6
661.642,856.0
662.168,858.0
662.694,857.2
663.088,855.5