File: spectra/VLFR_01-LDPE_bio_Raman_9ecce97f.csv
nm,Intensity
526.495,830.1
527.042,829.9
527.589,829.5
528.136,829.4
528.682,828.9
529.229,830.1
529.775,827.6
530.321,828.6
530.867,828.9
531.413,827.9
531.959,829.3
532.505,830.0
533.051,828.4
533.596,829.4
534.141,901.3
534.687,889.5
535.232,876.8
535.777,861.6
536.321,855.4
536.866,853.9
537.41,851.6
537.955,854.4
538.499,850.5
539.043,847.0
539.587,845.1
540.131,842.7
540.675,843.3
541.219,842.4
541.762,843.2
542.305,843.2
542.849,841.5
543.392,841.7
543.935,842.7
544.478,841.9
545.02,840.6
545.563,841.6
546.106,840.8
546.648,841.1
547.19,840.7
547.732,841.1
548.274,841.6
548.816,842.6
549.358,840.5
549.9,840.5
550.441,842.3
550.983,841.3
551.524,841.7
552.065,840.5
552.606,839.6
553.147,845.0
553.688,844.4
554.229,844.8
554.769,845.7
555.31,846.0
555.85,846.5
556.391,848.4
556.931,849.7
557.471,850.6
558.011,853.5
558.551,854.2
559.09,853.7
559.63,850.4
560.169,851.3
560.709,849.6
561.248,851.0
561.787,851.7
562.326,852.6
562.865,855.8
563.404,859.0
563.943,961.6
564.481,881.2
565.02,872.8
565.558,869.0
566.096,1058.2
566.634,875.1
567.172,859.0
567.71,862.2
568.248,852.7
568.786,856.0
569.324,853.1
569.861,856.7
570.399,861.3
570.936,869.1
571.473,1051.2
572.01,891.0
572.547,865.8
573.084,859.4
573.621,855.7
574.158,868.8
574.694,856.8
575.231,870.3
575.767,961.3
576.303,1000.4
576.84,944.1
577.376,912.2
577.912,870.1
578.448,861.6
578.984,861.5
579.519,862.1
580.055,863.0
580.59,863.6
581.126,865.1
581.661,862.1
582.196,864.3
582.731,864.8
583.267,865.4
583.801,865.0
584.336,863.6
584.871,867.3
585.406,865.2
585.94,868.6
586.475,867.7
587.009,873.8
587.543,871.8
588.078,871.8
588.612,871.9
589.146,869.4
589.68,872.7
590.214,872.2
590.747,872.7
591.281,875.5
591.815,876.8
592.348,871.8
592.881,872.5
593.415,875.9
593.948,878.7
594.481,875.6
595.014,878.3
595.547,881.5
596.08,880.4
596.613,883.5
597.146,886.3
597.678,884.5
598.211,887.4
598.743,889.5
599.276,890.8
599.808,893.9
600.34,890.6
600.872,888.8
601.404,890.3
601.936,892.2
602.468,894.1
603.0,887.8
603.532,891.0
604.064,888.7
604.595,886.0
605.127,886.4
605.658,883.5
606.189,881.6
606.721,881.1
607.252,883.7
607.783,879.5
608.314,881.2
608.845,881.1
609.376,877.8
609.907,880.1
610.438,879.4
610.968,883.8
611.499,877.9
612.029,878.8
612.56,878.0
613.09,878.3
613.621,878.9
614.151,878.5
614.681,879.2
615.211,875.5
615.741,877.9
616.271,875.4
616.801,877.0
617.331,883.6
617.861,884.7
618.39,883.6
618.92,880.8
619.45,883.9
619.979,886.0
620.509,886.2
621.038,892.1
621.567,901.0
622.096,927.2
622.626,925.2
623.155,890.0
623.684,883.4
624.213,885.9
624.742,887.7
625.271,891.1
625.799,900.3
626.328,928.0
626.857,1185.7
627.386,1685.5
627.914,1322.3
628.443,1542.8
628.971,1463.5
629.5,1308.9
630.028,1176.4
630.556,1135.9
631.084,998.5
631.613,916.9
632.141,895.6
632.669,885.3
633.197,884.7
633.725,879.1
634.253,875.5
634.781,872.5
635.308,871.8
635.836,869.2
636.364,872.1
636.891,869.7
637.419,867.2
637.947,864.1
638.474,861.1
639.002,864.4
639.529,862.4
640.056,860.7
640.584,863.7
641.111,864.0
641.638,863.3
642.165,863.0
642.692,862.9
643.219,862.0
643.746,860.7
644.273,860.5
644.8,862.4
645.327,863.9
645.854,861.0
646.381,861.3
646.908,859.5
647.434,863.4
647.961,862.2
648.488,860.7
649.014,862.8
649.541,861.7
650.067,860.7
650.594,859.5
651.12,862.7
651.646,862.1
652.173,859.0
652.699,861.3
653.225,863.5
653.752,862.7
654.278,863.8
654.804,859.8
655.33,860.2
655.856,862.5
656.382,862.8
656.908,860.1
657.434,859.0
657.96,863.3
658.486,860.0
659.012,859.9
659.538,861.7
660.064,861.0
660.589,861.9
661.115,860.5
661.641,856.7
662.166,857.0
662.692,858.8
663.086,856.5