File: spectra/VLFR_08-PLA_bio_Raman_fdaaa86a.csv
nm,Intensity
526.495,829.8
527.042,828.467
527.589,828.633
528.136,829.233
528.682,828.467
529.229,828.8
529.775,829.533
530.321,828.5
530.867,828.7
531.413,828.567
531.959,829.5
532.505,829.3
533.051,828.9
533.596,830.233
534.141,943.067
534.687,913.167
535.232,904.633
535.777,907.133
536.321,900.667
536.866,896.6
537.41,896.0
537.955,901.733
538.499,899.767
539.043,892.167
539.587,890.5
540.131,892.733
540.675,896.133
541.219,897.2
541.762,895.267
542.305,899.6
542.849,899.133
543.392,900.3
543.935,903.967
544.478,901.4
545.02,904.0
545.563,903.533
546.106,899.6
546.648,901.433
547.19,903.6
547.732,905.7
548.274,905.1
548.816,905.033
549.358,910.733
549.9,910.0
550.441,911.5
550.983,908.933
551.524,912.3
552.065,910.9
552.606,909.3
553.147,909.2
553.688,906.133
554.229,909.333
554.769,908.6
555.31,908.133
555.85,908.467
556.391,907.5
556.931,909.0
557.471,910.533
558.011,931.633
558.551,913.433
559.09,910.367
559.63,911.0
560.169,909.4
560.709,912.2
561.248,910.967
561.787,912.133
562.326,930.633
562.865,916.4
563.404,922.967
563.943,919.4
564.481,917.367
565.02,922.5
565.558,922.133
566.096,926.067
566.634,922.167
567.172,916.333
567.71,917.533
568.248,921.333
568.786,922.167
569.324,923.267
569.861,923.433
570.399,922.033
570.936,921.167
571.473,925.733
572.01,925.533
572.547,924.967
573.084,926.4
573.621,928.867
574.158,926.1
574.694,932.4
575.231,925.433
575.767,927.333
576.303,929.733
576.84,943.9
577.376,935.133
577.912,928.433
578.448,930.4
578.984,929.333
579.519,932.9
580.055,930.167
580.59,933.2
581.126,937.4
581.661,939.733
582.196,938.333
582.731,936.433
583.267,940.7
583.801,935.367
584.336,935.333
584.871,935.967
585.406,935.667
585.94,935.6
586.475,938.267
587.009,947.067
587.543,949.033
588.078,940.867
588.612,937.7
589.146,933.2
589.68,934.633
590.214,936.867
590.747,934.5
591.281,937.067
591.815,935.733
592.348,935.667
592.881,934.433
593.415,934.1
593.948,936.067
594.481,938.133
595.014,935.033
595.547,935.667
596.08,935.933
596.613,940.033
597.146,938.667
597.678,936.633
598.211,939.233
598.743,938.433
599.276,938.4
599.808,939.367
600.34,937.633
600.872,937.633
601.404,935.8
601.936,937.533
602.468,937.7
603.0,936.367
603.532,938.233
604.064,939.367
604.595,935.0
605.127,935.367
605.658,934.867
606.189,934.167
606.721,934.733
607.252,931.8
607.783,934.467
608.314,933.567
608.845,935.533
609.376,934.467
609.907,935.433
610.438,933.7
610.968,932.6
611.499,932.2
612.029,932.533
612.56,935.333
613.09,938.033
613.621,936.2
614.151,937.433
614.681,937.933
615.211,933.933
615.741,936.633
616.271,933.6
616.801,932.867
617.331,934.533
617.861,935.533
618.39,935.067
618.92,934.667
619.45,933.0
619.979,933.5
620.509,933.567
621.038,934.8
621.567,936.2
622.096,934.4
622.626,937.2
623.155,936.4
623.684,937.167
624.213,937.233
624.742,935.467
625.271,934.533
625.799,932.933
626.328,932.8
626.857,932.233
627.386,933.4
627.914,935.7
628.443,947.767
628.971,943.133
629.5,944.0
630.028,947.3
630.556,958.233
631.084,1033.03
631.613,983.233
632.141,957.9
632.669,953.3
633.197,970.433
633.725,964.167
634.253,941.767
634.781,934.5
635.308,933.4
635.836,932.067
636.364,931.133
636.891,929.9
637.419,928.933
637.947,929.8
638.474,931.533
639.002,933.8
639.529,933.0
640.056,937.967
640.584,937.033
641.111,936.867
641.638,935.967
642.165,938.533
642.692,938.0
643.219,940.967
643.746,940.233
644.273,941.633
644.8,942.333
645.327,950.5
645.854,960.733
646.381,969.8
646.908,983.1
647.434,990.733
647.961,993.033
648.488,989.0
649.014,989.433
649.541,992.0
650.067,993.5
650.594,990.4
651.12,983.867
651.646,973.467
652.173,967.333
652.699,959.7
653.225,956.267
653.752,954.033
654.278,953.633
654.804,946.767
655.33,937.967
655.856,931.8
656.382,927.967
656.908,924.933
657.434,920.267
657.96,918.567
658.486,916.033
659.012,915.033
659.538,914.0
660.064,912.633
660.589,910.6
661.115,909.0
661.641,907.767
662.166,906.833
662.692,907.967
663.086,905.367