File: spectra/VLFR_01-LDPE_nobio_Raman_f2fdd988.csv
nm,Intensity
526.532,830.467
527.079,829.8
527.625,829.2
528.172,830.1
528.718,830.033
529.265,830.133
529.811,829.833
530.357,830.367
530.903,830.867
531.449,829.5
531.994,836.7
532.54,829.833
533.085,829.633
533.63,832.3
534.176,920.6
534.721,904.467
535.266,889.033
535.81,878.333
536.355,872.633
536.9,869.333
537.444,868.9
537.988,868.1
538.533,866.133
539.077,866.3
539.621,859.967
540.165,858.233
540.708,858.033
541.252,855.9
541.795,854.4
542.339,857.3
542.882,856.867
543.425,855.367
543.968,854.4
544.511,853.8
545.054,853.767
545.597,852.667
546.139,852.367
546.682,852.3
547.224,853.633
547.766,852.267
548.308,852.3
548.85,850.767
549.392,851.733
549.934,851.067
550.475,851.867
551.017,851.033
551.558,851.333
552.1,852.167
552.641,851.133
553.182,852.9
553.723,855.733
554.264,853.733
554.804,854.267
555.345,856.667
555.885,857.1
556.426,859.133
556.966,861.667
557.506,863.2
558.046,865.4
558.586,866.733
559.126,863.333
559.665,861.133
560.205,860.9
560.745,859.267
561.284,859.7
561.823,861.6
562.362,863.667
562.901,866.833
563.44,871.733
563.979,945.8
564.518,893.633
565.056,884.867
565.595,879.633
566.133,972.367
566.671,880.733
567.21,873.5
567.748,871.1
568.285,866.433
568.823,868.7
569.361,868.7
569.899,870.3
570.436,876.633
570.974,883.667
571.511,1026.1
572.048,912.8
572.585,888.967
573.122,883.333
573.659,882.8
574.196,889.067
574.733,883.567
575.269,889.4
575.806,941.533
576.342,1033.5
576.878,982.5
577.414,940.433
577.951,911.1
578.486,910.033
579.022,916.733
579.558,920.8
580.094,924.6
580.629,931.233
581.165,938.367
581.7,944.9
582.236,951.2
582.771,955.867
583.306,959.9
583.841,964.4
584.376,968.367
584.911,974.6
585.445,981.467
585.98,985.367
586.514,994.333
587.049,995.6
587.583,1006.23
588.117,1010.27
588.651,1012.3
589.186,1017.87
589.72,1022.07
590.253,1026.6
590.787,1037.13
591.321,1040.6
591.854,1045.53
592.388,1045.27
592.921,1047.4
593.455,1048.27
593.988,1049.03
594.521,1051.17
595.054,1058.97
595.587,1058.17
596.12,1063.13
596.653,1065.53
597.186,1072.2
597.718,1071.13
598.251,1084.6
598.783,1089.13
599.316,1093.77
599.848,1097.5
600.38,1092.0
600.912,1092.77
601.444,1089.9
601.976,1091.87
602.508,1088.63
603.04,1078.13
603.572,1075.17
604.103,1065.27
604.635,1052.27
605.167,1043.87
605.698,1035.77
606.229,1023.53
606.761,1019.07
607.292,1010.33
607.823,1005.73
608.354,999.667
608.885,995.233
609.416,988.067
609.947,985.2
610.477,982.533
611.008,980.467
611.539,974.8
612.069,972.3
612.6,971.267
613.13,967.467
613.66,964.033
614.19,961.933
614.721,960.3
615.251,958.6
615.781,951.667
616.311,953.3
616.841,952.033
617.37,955.267
617.9,951.833
618.43,953.167
618.96,953.467
619.489,952.467
620.019,952.067
620.548,950.767
621.077,952.633
621.607,964.3
622.136,985.167
622.665,977.0
623.194,956.733
623.723,948.1
624.252,945.8
624.781,949.1
625.31,949.033
625.839,959.433
626.368,983.867
626.896,1233.63
627.425,1624.87
627.953,1371.07
628.482,1662.8
629.01,1481.0
629.539,1355.8
630.067,1254.23
630.596,1221.3
631.124,1077.67
631.652,1004.93
632.18,975.9
632.708,963.333
633.236,956.733
633.764,951.967
634.292,951.967
634.82,951.633
635.348,949.733
635.876,951.3
636.403,950.533
636.931,950.6
637.459,946.8
637.986,948.467
638.514,947.0
639.041,952.433
639.568,953.433
640.096,953.3
640.623,950.533
641.15,952.333
641.678,953.367
642.205,954.467
642.732,955.1
643.259,953.667
643.786,953.833
644.313,954.367
644.84,953.467
645.367,953.3
645.894,952.233
646.421,951.4
646.948,952.567
647.474,951.6
648.001,953.6
648.528,951.5
649.054,948.533
649.581,948.467
650.108,950.0
650.634,948.433
651.161,949.0
651.687,948.7
652.214,948.167
652.74,950.367
653.266,949.067
653.793,949.933
654.319,949.767
654.845,946.833
655.371,948.967
655.897,945.167
656.424,941.1
656.95,942.033
657.476,939.333
658.002,937.433
658.528,934.633
659.054,932.233
659.58,930.967
660.106,927.967
660.631,924.567
661.157,919.667
661.683,919.0
662.209,913.433
662.735,910.233
663.129,907.567