File: spectra/VLFR_02-HDPE_bio_Raman_0655be09.csv
nm,Intensity
528.635,1836.2
529.14,1836.5
529.645,1838.8
530.151,1837.5
530.656,1838.5
531.161,1839.3
531.666,1883.4
532.171,4144.3
532.676,1839.0
533.181,1839.1
533.686,1964.3
534.191,2291.2
534.696,2311.5
535.201,2253.0
535.705,2086.2
536.21,2039.9
536.715,2003.5
537.219,2002.9
537.724,2000.2
538.228,1990.4
538.733,1969.1
539.237,1957.0
539.741,1944.9
540.246,1937.1
540.75,1931.6
541.254,1928.2
541.758,1932.7
542.262,1928.6
542.766,1923.4
543.27,1923.0
543.774,1926.7
544.278,1931.9
544.781,1923.6
545.285,1923.0
545.789,1921.0
546.292,1918.2
546.796,1916.6
547.299,1921.6
547.803,1926.4
548.306,1927.6
548.809,1925.4
549.313,1919.7
549.816,1925.1
550.319,1925.3
550.822,1918.9
551.325,1923.4
551.828,1925.4
552.331,1927.2
552.834,1924.1
553.337,1947.6
553.839,1952.4
554.342,1952.5
554.845,1954.5
555.347,1957.0
555.85,1969.2
556.352,1965.2
556.854,1980.5
557.357,2009.9
557.859,2019.1
558.361,2016.5
558.863,2000.2
559.365,2005.1
559.867,1995.3
560.369,1996.5
560.871,1983.6
561.373,1995.2
561.875,1997.7
562.377,2000.3
562.878,2034.1
563.38,2069.6
563.881,2938.4
564.383,2251.9
564.884,2178.4
565.386,2112.7
565.887,2575.2
566.388,2658.4
566.889,2073.0
567.391,2227.3
567.892,2026.0
568.393,2017.8
568.893,2016.0
569.394,2023.5
569.895,2032.1
570.396,2071.5
570.897,2131.9
571.397,3438.0
571.898,2362.4
572.398,2105.0
572.899,2031.8
573.399,2027.4
573.899,2130.0
574.399,2010.6
574.9,2020.4
575.4,2724.7
575.9,2592.8
576.4,3290.6
576.899,2853.6
577.399,2420.4
577.899,2083.1
578.399,2028.2
578.898,2008.2
579.398,2000.2
579.897,1996.8
580.397,1990.4
580.896,1991.8
581.396,1979.0
581.895,1970.0
582.394,1968.1
582.893,1980.9
583.392,1969.4
583.891,1971.0
584.39,1967.4
584.889,1963.8
585.387,1970.0
585.886,1965.6
586.385,1972.0
586.883,1969.8
587.382,1969.7
587.88,1976.6
588.379,1966.8
588.877,1973.6
589.375,1980.1
589.873,1973.9
590.371,1982.8
590.869,1982.0
591.367,1982.3
591.865,1980.6
592.363,1981.1
592.86,1987.4
593.358,1994.4
593.856,1983.3
594.353,1991.8
594.851,1992.3
595.348,1992.2
595.845,1999.8
596.342,2001.5
596.84,2001.9
597.337,2005.4
597.834,2014.3
598.331,2020.4
598.827,2017.2
599.324,2030.9
599.821,2035.3
600.318,2034.3
600.814,2031.9
601.311,2044.2
601.807,2066.7
602.303,2071.3
602.8,2040.7
603.296,2036.7
603.792,2044.9
604.288,2037.5
604.784,2035.6
605.28,2025.9
605.776,2023.8
606.272,2009.8
606.767,2018.1
607.263,2006.1
607.758,2012.5
608.254,2012.2
608.749,2016.6
609.244,2010.2
609.74,2004.6
610.235,2012.6
610.73,2032.0
611.225,2034.5
611.72,2012.8
612.215,1997.5
612.709,2001.4
613.204,2005.2
613.699,2004.2
614.193,2000.2
614.688,2010.6
615.182,2014.0
615.676,2019.4
616.171,2040.8
616.665,2072.0
617.159,2111.1
617.653,2120.5
618.147,2121.2
618.641,2098.5
619.134,2120.0
619.628,2157.6
620.122,2135.3
620.615,2176.5
621.109,2237.2
621.602,2458.6
622.095,2698.4
622.588,2567.5
623.082,2265.0
623.575,2161.9
624.068,2153.1
624.56,2158.7
625.053,2192.7
625.546,2264.9
626.039,2456.6
626.531,3803.9
627.024,9791.0
627.516,8693.2
628.008,6939.8
628.501,11102.3
628.993,6638.0
629.485,5545.4
629.977,4631.6
630.469,4309.9
630.961,3159.5
631.452,2389.6
631.944,2234.6
632.436,2172.3
632.927,2130.6
633.418,2109.7
633.91,2077.0
634.401,2061.6
634.892,2046.1
635.383,2020.5
635.874,2019.0
636.365,2024.3
636.856,1988.9
637.347,1965.7
637.837,1965.5
638.328,1962.8
638.818,1948.4
639.309,1943.2
639.799,1943.1
640.289,1937.8
640.78,1931.5
641.27,1941.9
641.76,1934.2
642.249,1935.6
642.739,1942.3
643.229,1927.3
643.719,1933.8
644.208,1932.8
644.698,1928.5
645.187,1929.1
645.676,1932.0
646.165,1927.0
646.655,1926.8
647.144,1935.3
647.633,1919.9
648.121,1930.4
648.61,1927.5
649.099,1924.5
649.587,1916.5
650.076,1924.6
650.564,1926.0
651.053,1919.7
651.541,1929.9
652.029,1924.3
652.517,1918.6
653.005,1920.6
653.493,1921.1
653.981,1918.8
654.468,1918.2
654.956,1916.3
655.444,1917.7
655.931,1912.2
656.418,1911.9
656.906,1909.2
657.393,1910.5
657.88,1905.9
658.367,1909.7
658.854,1906.8
659.341,1914.8
659.827,1915.0
660.314,1918.5
660.8,1918.0
661.044,1908.6