File: spectra/VLFR_06-PET_nobio_Raman_12d7b5af.csv
nm,Intensity
526.5,830.2
527.047,828.5
527.594,830.9
528.14,829.1
528.687,828.3
529.233,829.6
529.779,828.9
530.325,829.3
530.871,828.3
531.417,828.4
531.962,831.5
532.508,828.1
533.053,830.0
533.599,839.0
534.144,2238.1
534.689,1848.1
535.234,1450.1
535.778,1215.3
536.323,1077.8
536.867,1013.8
537.412,990.5
537.956,979.4
538.5,988.2
539.044,984.7
539.588,1000.7
540.132,1002.3
540.675,965.2
541.219,948.3
541.762,944.2
542.305,943.8
542.848,943.8
543.391,944.4
543.934,954.6
544.477,955.3
545.02,953.8
545.562,958.7
546.105,953.9
546.647,958.1
547.189,963.6
547.731,964.9
548.273,964.5
548.815,972.7
549.356,967.4
549.898,972.8
550.439,991.2
550.981,1003.2
551.522,988.5
552.063,988.4
552.604,999.9
553.145,1019.9
553.686,999.6
554.226,991.9
554.767,1005.6
555.307,1013.2
555.848,1077.3
556.388,1080.5
556.928,1102.8
557.468,1257.6
558.008,1131.0
558.547,1123.7
559.087,1070.4
559.626,1039.2
560.166,1040.2
560.705,1045.8
561.244,1057.3
561.783,1057.5
562.322,1074.2
562.861,1087.5
563.4,1095.9
563.939,1080.2
564.477,1092.9
565.015,1149.1
565.554,1215.0
566.092,1222.6
566.63,1122.0
567.168,1098.6
567.706,1199.4
568.244,1123.9
568.781,1108.7
569.319,1124.1
569.857,1151.4
570.394,1212.3
570.931,1357.3
571.468,1502.5
572.005,1302.8
572.542,1191.3
573.079,1162.4
573.616,1168.4
574.153,1202.7
574.689,1185.4
575.226,1215.2
575.762,1185.8
576.298,1227.6
576.834,1239.4
577.371,1200.8
577.907,1196.4
578.442,1200.9
578.978,1204.3
579.514,1204.1
580.049,1214.4
580.585,1224.2
581.12,1246.3
581.656,1334.3
582.191,2683.3
582.726,1301.8
583.261,1255.2
583.796,1254.8
584.331,1253.5
584.865,1282.1
585.4,1387.5
585.935,1998.6
586.469,1732.1
587.004,1345.2
587.538,1281.7
588.072,1278.2
588.606,1280.1
589.14,1285.3
589.674,1278.0
590.208,1269.0
590.742,1286.0
591.275,1288.3
591.809,1290.5
592.342,1288.3
592.876,1287.4
593.409,1295.6
593.942,1294.4
594.476,1298.6
595.009,1305.0
595.542,1310.4
596.075,1310.7
596.607,1318.2
597.14,1319.6
597.673,1315.8
598.205,1323.8
598.738,1332.7
599.27,1337.7
599.803,1328.9
600.335,1330.1
600.867,1331.9
601.399,1339.8
601.931,1330.9
602.463,1338.9
602.995,1349.6
603.527,1343.5
604.058,1344.5
604.59,1343.7
605.122,1342.6
605.653,1342.6
606.184,1341.9
606.716,1337.8
607.247,1344.5
607.778,1354.2
608.309,1351.3
608.84,1354.6
609.371,1349.6
609.902,1344.5
610.433,1348.3
610.964,1362.3
611.494,1359.1
612.025,1365.9
612.556,1368.7
613.086,1378.8
613.616,1381.5
614.147,1387.8
614.677,1394.0
615.207,1394.1
615.737,1395.4
616.267,1400.7
616.797,1400.8
617.327,1411.3
617.857,1423.6
618.387,1423.0
618.917,1416.5
619.446,1419.6
619.976,1412.1
620.505,1409.8
621.035,1414.7
621.564,1428.8
622.093,1436.2
622.623,1438.7
623.152,1444.9
623.681,1440.0
624.21,1455.0
624.739,1472.5
625.268,1467.1
625.797,1467.8
626.326,1479.4
626.855,1475.3
627.383,1484.1
627.912,1495.7
628.441,1515.1
628.969,1546.8
629.498,1547.2
630.026,1557.4
630.554,1568.6
631.083,1626.2
631.611,1771.6
632.139,1762.2
632.667,1669.5
633.195,1659.5
633.724,1649.5
634.252,1616.8
634.779,1600.2
635.307,1627.0
635.835,1704.8
636.363,1839.1
636.891,1848.5
637.418,1689.5
637.946,1647.1
638.474,1667.8
639.001,1672.9
639.529,1656.6
640.056,1673.7
640.583,1685.3
641.111,1680.9
641.638,1687.5
642.165,1702.2
642.692,1719.9
643.22,1688.1
643.747,1698.1
644.274,1705.1
644.801,1712.6
645.328,1721.9
645.854,1720.7
646.381,1720.8
646.908,1733.7
647.435,1724.7
647.962,1736.0
648.488,1737.7
649.015,1745.3
649.542,1735.5
650.068,1735.0
650.595,1739.3
651.121,1746.3
651.648,1753.5
652.174,1757.7
652.7,1756.9
653.227,1757.8
653.753,1756.2
654.279,1789.2
654.805,1768.3
655.331,1782.7
655.858,1769.0
656.384,1766.7
656.91,1773.8
657.436,1769.9
657.962,1785.4
658.488,1779.6
659.013,1771.2
659.539,1769.3
660.065,1779.5
660.591,1773.9
661.117,1772.4
661.642,1765.8
662.168,1767.6
662.694,1770.2
663.088,1761.1