File: spectra/VLFR_07-PET_bio_Raman_c171b6ba.csv
nm,Intensity
791.75,5576.65
792.846,5516.85
793.942,5522.05
795.037,5453.35
796.133,5448.45
797.228,5463.1
798.324,5474.75
799.419,5436.05
800.514,5435.15
801.61,5443.75
802.705,5410.7
803.8,5370.75
804.894,5367.6
805.989,5346.65
807.084,5308.6
808.178,5312.55
809.273,5283.0
810.367,5269.45
811.461,5268.1
812.556,5184.8
813.65,5191.6
814.744,5121.0
815.837,5115.5
816.931,5127.05
818.025,5083.9
819.118,5058.7
820.212,5054.3
821.305,5023.1
822.398,4971.25
823.491,4964.75
824.585,4982.2
825.677,4956.0
826.77,4941.1
827.863,4888.4
828.956,4874.65
830.048,4884.75
831.14,4851.35
832.233,4817.45
833.325,4798.75
834.417,4806.3
835.509,4765.85
836.601,4760.25
837.692,4765.5
838.784,4753.7
839.876,4747.15
840.967,4744.1
842.058,4730.5
843.149,4687.35
844.24,4669.8
845.331,4658.4
846.422,4633.65
847.513,4614.6
848.604,4604.75
849.694,4588.1
850.784,4586.15
851.875,4659.0
852.965,4610.75
854.055,4532.85
855.145,4529.5
856.235,4513.85
857.324,4528.65
858.414,4524.45
859.503,4532.3
860.593,4493.45
861.682,4502.7
862.771,4483.95
863.86,4473.2
864.949,4466.05
866.038,4448.85
867.126,4420.95
868.215,4425.45
869.303,4419.85
870.391,4422.1
871.479,4418.9
872.567,4453.95
873.655,4427.95
874.743,4414.2
875.831,4371.9
876.918,4377.0
878.006,4359.45
879.093,4353.5
880.18,4340.05
881.267,4327.0
882.354,4335.0
883.441,4330.45
884.527,4306.85
885.614,4303.05
886.7,4296.7
887.786,4276.95
888.872,4266.15
889.958,4266.0
891.044,4259.7
892.13,4251.4
893.216,4234.55
894.301,4196.15
895.386,4195.8
896.472,4189.3
897.557,4194.6
898.642,4212.2
899.726,4168.0
900.811,4132.1
901.896,4120.3
902.98,4125.8
904.064,4127.25
905.148,4123.65
906.232,4122.0
907.316,4119.0
908.4,4114.2
909.484,4090.4
910.567,4065.75
911.65,4051.15
912.734,4043.05
913.817,4043.7
914.9,4028.8
915.982,4014.95
917.065,4013.4
918.147,4007.1
919.23,4010.95
920.312,4001.95
921.394,3986.45
922.476,3983.85
923.558,3976.5
924.639,3960.35
925.721,3963.35
926.802,3961.3
927.884,3939.85
928.965,3928.75
930.046,3922.15
931.126,3913.95
932.207,3907.25
933.288,3899.8
934.368,3897.65
935.448,3895.2
936.528,3886.75
937.608,3883.65
938.688,3879.25
939.767,3877.55
940.847,3874.05
941.926,3866.3
943.005,3861.85
944.084,3858.7
945.163,3850.95
946.242,3854.2
947.321,3845.55
948.399,3843.85
949.477,3838.2
950.556,3837.75
951.634,3837.1
952.711,3831.95
953.789,3827.75
954.867,3822.45
955.944,3825.65
957.021,3815.5
958.098,3820.35
959.175,3812.15
960.252,3811.6
961.328,3811.05
962.405,3807.45
963.481,3807.9
964.557,3805.1
965.633,3802.65
966.709,3799.85
967.785,3800.95
968.86,3801.55
969.936,3798.25
971.011,3797.4
972.086,3792.0
973.161,3788.6
974.235,3789.45
975.31,3788.25
976.384,3787.45
977.459,3785.45
978.533,3784.15
979.607,3785.55
980.68,3782.5
981.754,3779.65
982.827,3779.0
983.901,3778.6
984.974,3778.35
986.047,3776.7
987.119,3774.8
988.192,3776.05
989.264,3774.5
990.337,3772.35
991.409,3772.5
992.481,3770.6
993.553,3770.1
994.624,3767.7
995.696,3770.1
996.767,3769.25
997.838,3766.45
998.909,3765.15
999.98,3763.15
1001.05,3762.95
1002.12,3763.65
1003.19,3761.5
1004.26,3761.25
1005.33,3756.85
1006.4,3758.25
1007.47,3756.15
1008.54,3756.2
1009.61,3755.9
1010.68,3756.4
1011.75,3755.35
1012.82,3753.95
1013.88,3754.45
1014.95,3753.4
1016.02,3752.25
1017.09,3750.45
1018.16,3751.7
1019.22,3752.6
1020.29,3749.55
1021.36,3749.55
1022.43,3750.65
1023.49,3749.65
1024.56,3749.1
1025.63,3748.1
1026.69,3747.15
1027.76,3747.55
1028.83,3745.3
1029.89,3744.75
1030.96,3747.15
1032.02,3744.45
1033.09,3744.85
1034.15,3744.5
1035.22,3744.7
1036.28,3743.9
1037.35,3742.45
1038.41,3743.5
1039.48,3743.7
1040.54,3744.65
1041.6,3743.6
1042.67,3741.65
1043.73,3743.55
1044.79,3741.5
1045.86,3741.05
1046.92,3741.45
1047.98,3741.35
1049.05,3741.6
1050.11,3740.05
1051.17,3740.4
1052.23,3742.15
1053.29,3741.65
1054.36,3740.6
1055.42,3741.4
1056.48,3739.15
1057.54,3740.15
1058.6,3739.55
1059.66,3741.5
1060.72,3739.65
1061.78,3739.1
1062.84,3739.8
1063.9,3739.8
1064.96,3740.2
1066.02,3738.4
1067.08,3740.65
1067.88,3738.8