File: spectra/VLFR_07-PET_bio_Raman_f6519f3f.csv
nm,Intensity
791.377,9380.5
792.477,9362.5
793.576,9325.75
794.676,9366.6
795.775,9431.8
796.874,9456.9
797.973,9490.75
799.072,9379.15
800.171,9348.35
801.27,9378.3
802.368,9289.4
803.467,9284.75
804.565,9200.65
805.664,9186.3
806.762,9094.8
807.86,9065.3
808.958,9074.8
810.056,8955.6
811.153,8960.1
812.251,8845.2
813.349,8846.55
814.446,8659.4
815.543,8567.9
816.64,8519.35
817.737,8496.25
818.834,8428.4
819.931,8379.8
821.028,8285.75
822.125,8304.65
823.221,8113.7
824.317,8160.45
825.414,8116.3
826.51,8072.6
827.606,7955.35
828.702,7859.5
829.797,7833.25
830.893,7823.4
831.988,7680.7
833.084,7633.55
834.179,7631.8
835.274,7500.4
836.369,7467.85
837.464,7444.55
838.559,7374.6
839.654,7287.1
840.748,7312.5
841.843,7254.05
842.937,7257.9
844.031,7092.65
845.125,7049.55
846.219,7041.25
847.313,6998.05
848.407,6936.95
849.5,6808.0
850.593,6964.25
851.687,6820.1
852.78,6746.1
853.873,6672.6
854.966,6594.6
856.059,6606.5
857.151,6548.8
858.244,6511.05
859.336,6486.05
860.428,6455.5
861.52,6375.95
862.612,6346.55
863.704,6332.9
864.796,6263.1
865.888,6205.15
866.979,6201.6
868.07,6126.4
869.162,6138.1
870.253,6083.55
871.344,6021.9
872.434,6028.4
873.525,5969.45
874.615,5904.9
875.706,5930.9
876.796,5868.25
877.886,5863.75
878.976,5800.9
880.066,5719.6
881.156,5747.9
882.245,5716.55
883.335,5658.25
884.424,5664.95
885.513,5633.05
886.602,5544.95
887.691,5540.5
888.78,5551.7
889.868,5478.1
890.957,5466.35
892.045,5412.15
893.133,5352.05
894.221,5343.25
895.309,5301.95
896.397,5256.95
897.484,5222.1
898.571,5189.4
899.659,5152.35
900.746,5137.5
901.833,5094.65
902.92,5095.2
904.006,5071.6
905.093,5068.05
906.179,4991.3
907.266,5003.15
908.352,4926.2
909.438,4927.95
910.523,4896.55
911.609,4892.6
912.695,4814.35
913.78,4837.45
914.865,4788.6
915.95,4771.65
917.035,4742.7
918.12,4736.85
919.204,4728.05
920.289,4692.45
921.373,4677.6
922.457,4663.95
923.541,4606.0
924.625,4606.5
925.709,4591.1
926.792,4553.4
927.876,4511.6
928.959,4496.65
930.042,4465.9
931.125,4412.25
932.208,4406.8
933.29,4374.7
934.373,4360.1
935.455,4337.65
936.537,4311.45
937.619,4309.95
938.701,4299.0
939.782,4288.45
940.864,4288.35
941.945,4268.45
943.026,4245.25
944.107,4219.2
945.188,4221.85
946.269,4188.7
947.349,4185.25
948.43,4187.8
949.51,4150.65
950.59,4151.05
951.67,4145.8
952.75,4124.1
953.829,4113.0
954.909,4114.35
955.988,4096.95
957.067,4089.35
958.146,4079.25
959.224,4072.3
960.303,4068.75
961.381,4047.95
962.459,4047.65
963.537,4045.55
964.615,4030.6
965.693,4023.55
966.771,4020.55
967.848,4014.85
968.925,4015.95
970.002,3997.95
971.079,3997.05
972.156,3996.35
973.232,3977.35
974.309,3971.45
975.385,3962.35
976.461,3957.05
977.537,3954.85
978.612,3944.35
979.688,3941.55
980.763,3943.2
981.838,3932.35
982.913,3929.45
983.988,3925.3
985.063,3916.45
986.137,3917.8
987.211,3915.0
988.285,3905.6
989.359,3905.35
990.433,3900.45
991.506,3890.35
992.58,3893.35
993.653,3889.25
994.726,3886.15
995.799,3877.75
996.872,3875.45
997.944,3876.7
999.016,3869.45
1000.09,3863.05
1001.16,3858.3
1002.23,3856.85
1003.3,3852.85
1004.38,3850.5
1005.45,3845.6
1006.52,3845.9
1007.59,3841.4
1008.66,3840.05
1009.73,3835.85
1010.8,3835.6
1011.87,3832.0
1012.94,3826.45
1014.01,3828.8
1015.08,3826.05
1016.15,3824.7
1017.22,3821.25
1018.29,3817.75
1019.36,3816.4
1020.42,3813.45
1021.49,3810.65
1022.56,3809.7
1023.63,3808.65
1024.7,3807.95
1025.76,3806.6
1026.83,3804.3
1027.9,3804.15
1028.97,3799.35
1030.03,3799.75
1031.1,3798.4
1032.17,3797.8
1033.23,3796.2
1034.3,3796.9
1035.36,3795.2
1036.43,3793.15
1037.5,3792.1
1038.56,3791.0
1039.63,3792.4
1040.69,3791.95
1041.76,3790.3
1042.82,3788.85
1043.89,3790.4
1044.95,3787.6
1046.01,3786.05
1047.08,3787.35
1048.14,3787.9
1049.2,3787.0
1050.27,3785.1
1051.33,3786.6
1052.39,3784.2
1053.46,3784.45
1054.52,3784.4
1055.58,3784.35
1056.64,3783.85
1057.7,3783.7
1058.77,3782.1
1059.83,3783.7
1060.89,3782.8
1061.95,3780.15
1063.01,3782.2
1064.07,3780.45
1065.13,3781.5
1066.19,3781.35
1067.25,3781.4
1068.05,3780.25