File: spectra/VLFR_02-HDPE_nobio_Raman_b6a59e3f.csv
nm,Intensity
526.5,828.3
527.047,829.6
527.594,829.7
528.14,828.6
528.687,829.1
529.233,829.5
529.779,830.8
530.325,829.7
530.871,830.3
531.417,829.8
531.962,834.8
532.508,830.4
533.053,830.1
533.599,830.3
534.144,951.0
534.689,936.9
535.234,919.7
535.778,912.4
536.323,902.3
536.867,900.5
537.412,897.2
537.956,892.9
538.5,893.6
539.044,889.3
539.588,886.8
540.132,888.6
540.675,886.9
541.219,885.6
541.762,885.8
542.305,879.4
542.848,883.3
543.391,880.1
543.934,881.0
544.477,881.2
545.02,881.0
545.562,880.8
546.105,882.2
546.647,881.5
547.189,881.4
547.731,878.5
548.273,882.6
548.815,882.2
549.356,881.5
549.898,881.3
550.439,882.7
550.981,882.2
551.522,880.1
552.063,880.7
552.604,881.3
553.145,882.7
553.686,886.1
554.226,884.0
554.767,887.9
555.307,883.9
555.848,885.7
556.388,889.2
556.928,896.1
557.468,893.5
558.008,901.1
558.547,904.9
559.087,901.8
559.626,903.4
560.166,904.1
560.705,906.2
561.244,905.9
561.783,905.0
562.322,921.2
562.861,922.0
563.4,929.0
563.939,1045.8
564.477,954.9
565.015,949.3
565.554,946.6
566.092,1171.2
566.63,957.1
567.168,939.8
567.706,941.0
568.244,938.1
568.781,945.8
569.319,950.5
569.857,951.1
570.394,961.9
570.931,967.1
571.468,1150.6
572.005,998.6
572.542,977.7
573.079,974.9
573.616,985.4
574.153,1002.8
574.689,1001.4
575.226,1022.2
575.762,1142.9
576.298,1146.2
576.834,1124.1
577.371,1108.9
577.907,1099.2
578.442,1118.4
578.978,1151.4
579.514,1171.6
580.049,1200.6
580.585,1227.0
581.12,1252.7
581.656,1289.7
582.191,1323.5
582.726,1358.1
583.261,1392.6
583.796,1411.8
584.331,1423.2
584.865,1455.0
585.4,1475.5
585.935,1490.3
586.469,1533.9
587.004,1545.3
587.538,1567.9
588.072,1576.0
588.606,1593.2
589.14,1607.2
589.674,1630.9
590.208,1653.4
590.742,1695.4
591.275,1698.8
591.809,1718.0
592.342,1729.4
592.876,1727.3
593.409,1745.8
593.942,1733.9
594.476,1730.2
595.009,1733.8
595.542,1707.9
596.075,1705.7
596.607,1696.0
597.14,1679.6
597.673,1678.8
598.205,1656.3
598.738,1651.2
599.27,1643.7
599.803,1637.8
600.335,1620.6
600.867,1598.9
601.399,1588.1
601.931,1579.9
602.463,1572.1
602.995,1556.4
603.527,1543.2
604.058,1519.4
604.59,1492.8
605.122,1465.8
605.653,1435.6
606.184,1427.3
606.716,1416.4
607.247,1390.9
607.778,1382.8
608.309,1357.7
608.84,1353.8
609.371,1340.5
609.902,1326.7
610.433,1313.9
610.964,1301.9
611.494,1284.5
612.025,1282.8
612.556,1271.9
613.086,1275.0
613.616,1253.1
614.147,1244.5
614.677,1242.7
615.207,1223.0
615.737,1225.3
616.267,1207.2
616.797,1208.5
617.327,1200.6
617.857,1194.9
618.387,1189.3
618.917,1187.1
619.446,1177.2
619.976,1181.1
620.505,1175.2
621.035,1165.5
621.564,1170.0
622.093,1180.7
622.623,1186.6
623.152,1166.8
623.681,1169.3
624.21,1163.7
624.739,1163.4
625.268,1167.8
625.797,1174.8
626.326,1193.5
626.855,1394.0
627.383,1810.9
627.912,1539.7
628.441,1664.8
628.969,1613.6
629.498,1522.1
630.026,1435.1
630.554,1422.5
631.083,1301.6
631.611,1240.1
632.139,1229.4
632.667,1218.4
633.195,1220.0
633.724,1228.2
634.252,1225.2
634.779,1233.8
635.307,1236.9
635.835,1248.8
636.363,1247.4
636.891,1259.8
637.418,1255.2
637.946,1257.2
638.474,1260.9
639.001,1263.9
639.529,1271.7
640.056,1276.4
640.583,1279.2
641.111,1283.4
641.638,1280.2
642.165,1293.8
642.692,1290.6
643.22,1287.8
643.747,1286.9
644.274,1280.9
644.801,1292.4
645.328,1283.7
645.854,1296.0
646.381,1283.9
646.908,1289.7
647.435,1284.2
647.962,1286.1
648.488,1277.7
649.015,1269.8
649.542,1266.7
650.068,1254.4
650.595,1258.6
651.121,1236.7
651.648,1245.6
652.174,1239.2
652.7,1243.7
653.227,1234.0
653.753,1230.1
654.279,1222.0
654.805,1218.3
655.331,1207.1
655.858,1210.0
656.384,1194.4
656.91,1194.1
657.436,1183.2
657.962,1175.9
658.488,1178.6
659.013,1163.7
659.539,1158.0
660.065,1152.7
660.591,1140.6
661.117,1131.6
661.642,1119.0
662.168,1112.3
662.694,1103.1
663.088,1090.8