File: spectra/VLFR_01-LDPE_bio_Raman_d5c1b30b.csv
nm,Intensity
526.508,829.0
527.055,831.2
527.602,829.6
528.149,830.3
528.695,831.1
529.241,829.5
529.787,829.2
530.334,828.2
530.879,829.8
531.425,830.7
531.971,840.1
532.516,832.8
533.062,829.7
533.607,830.6
534.152,854.8
534.697,852.7
535.242,850.2
535.786,850.4
536.331,849.1
536.876,847.0
537.42,847.4
537.964,851.2
538.508,850.1
539.052,847.0
539.596,848.1
540.14,848.9
540.683,850.2
541.227,850.4
541.77,849.8
542.313,847.6
542.856,848.0
543.399,848.9
543.942,849.0
544.485,850.4
545.027,847.8
545.57,850.5
546.112,853.2
546.654,849.8
547.196,850.0
547.738,852.0
548.28,848.2
548.822,849.7
549.363,849.1
549.905,849.8
550.446,849.8
550.988,852.1
551.529,852.3
552.07,850.5
552.611,852.8
553.152,848.5
553.692,852.1
554.233,850.0
554.773,850.0
555.314,851.4
555.854,850.8
556.394,851.6
556.934,851.5
557.474,851.4
558.014,850.1
558.553,852.5
559.093,850.4
559.632,851.0
560.172,850.7
560.711,853.3
561.25,850.8
561.789,853.8
562.328,850.9
562.867,853.2
563.406,853.5
563.944,857.2
564.483,856.4
565.021,856.9
565.559,855.6
566.098,859.3
566.636,855.3
567.174,856.2
567.711,853.6
568.249,853.1
568.787,854.9
569.324,856.0
569.862,857.0
570.399,858.3
570.936,859.4
571.474,864.1
572.011,862.0
572.548,857.1
573.084,859.3
573.621,857.6
574.158,861.9
574.694,861.6
575.231,856.6
575.767,862.9
576.303,868.9
576.84,865.1
577.376,865.3
577.912,858.1
578.447,860.9
578.983,861.2
579.519,860.3
580.054,861.0
580.59,862.2
581.125,861.2
581.661,865.6
582.196,862.3
582.731,863.2
583.266,864.7
583.801,862.4
584.336,863.0
584.87,863.0
585.405,864.3
585.94,865.3
586.474,867.2
587.008,867.1
587.543,866.8
588.077,867.1
588.611,867.9
589.145,866.1
589.679,868.9
590.213,868.7
590.747,869.9
591.28,873.0
591.814,872.4
592.347,873.6
592.881,873.0
593.414,877.2
593.947,876.9
594.48,880.4
595.014,885.2
595.547,887.6
596.079,891.3
596.612,887.2
597.145,894.7
597.678,897.0
598.21,899.6
598.743,898.1
599.275,903.3
599.807,909.9
600.34,910.4
600.872,909.8
601.404,907.3
601.936,906.2
602.468,907.5
603.0,909.5
603.532,902.6
604.063,903.3
604.595,898.9
605.126,896.9
605.658,891.9
606.189,891.2
606.721,887.5
607.252,888.7
607.783,886.2
608.314,885.3
608.845,880.0
609.376,882.7
609.907,878.0
610.438,878.0
610.968,883.4
611.499,880.8
612.03,878.1
612.56,877.4
613.091,878.7
613.621,878.6
614.151,877.0
614.681,877.3
615.212,876.3
615.742,879.5
616.272,873.0
616.802,874.0
617.332,875.2
617.861,875.7
618.391,875.1
618.921,874.1
619.45,872.2
619.98,872.7
620.509,875.5
621.039,869.5
621.568,871.5
622.097,874.1
622.627,874.0
623.156,874.5
623.685,869.8
624.214,869.3
624.743,871.1
625.272,870.6
625.801,870.3
626.33,875.2
626.858,887.7
627.387,937.8
627.916,907.1
628.444,923.6
628.973,911.9
629.501,903.7
630.029,894.9
630.558,892.7
631.086,878.7
631.614,869.4
632.142,869.2
632.67,866.1
633.198,865.4
633.726,865.7
634.254,865.0
634.782,865.6
635.31,866.9
635.838,864.6
636.365,862.0
636.893,863.8
637.421,864.5
637.948,864.6
638.476,864.8
639.003,862.0
639.531,863.2
640.058,862.8
640.585,865.4
641.113,863.7
641.64,866.8
642.167,864.4
642.694,864.4
643.221,865.1
643.748,864.3
644.275,862.6
644.802,864.1
645.329,868.0
645.856,865.5
646.382,864.8
646.909,866.4
647.436,862.9
647.962,866.1
648.489,864.6
649.016,870.8
649.542,867.4
650.069,866.1
650.595,867.5
651.121,870.2
651.648,869.6
652.174,870.6
652.7,869.3
653.227,871.0
653.753,870.8
654.279,870.9
654.805,870.6
655.331,871.0
655.857,870.7
656.383,870.3
656.909,868.4
657.435,870.0
657.961,869.9
658.487,868.3
659.013,867.9
659.538,865.5
660.064,866.4
660.59,867.5
661.116,862.9
661.641,864.4
662.167,864.3
662.692,861.4
663.087,862.8