File: spectra/VLFR_07-PET_nobio_Raman_04420fce.csv
nm,Intensity
791.588,11910.9
792.685,10878.5
793.781,10183.8
794.878,9875.8
795.975,9742.8
797.071,9699.1
798.168,9579.8
799.264,9668.3
800.36,9513.4
801.456,9531.6
802.552,9550.7
803.648,9255.4
804.744,9206.0
805.84,9111.7
806.936,9067.4
808.031,9032.4
809.127,8898.9
810.222,8847.3
811.317,8815.7
812.412,8680.1
813.507,8686.9
814.602,8605.8
815.697,8504.5
816.792,8423.7
817.887,8435.7
818.981,8335.7
820.076,8232.7
821.17,8110.7
822.265,8096.9
823.359,8072.0
824.453,7924.3
825.547,8175.9
826.641,7864.9
827.735,7775.9
828.828,7750.7
829.922,7715.3
831.016,7754.7
832.109,7561.2
833.202,7525.3
834.295,7486.1
835.388,7403.9
836.481,7488.8
837.574,7517.3
838.667,7487.9
839.76,7431.9
840.852,7708.9
841.945,7706.1
843.037,7363.5
844.129,7314.8
845.221,7032.1
846.314,6947.0
847.405,6890.1
848.497,6855.4
849.589,6777.5
850.681,6836.0
851.772,6816.2
852.863,6816.2
853.955,6777.2
855.046,6655.7
856.137,6642.6
857.228,6624.2
858.318,6723.7
859.409,6818.1
860.5,6715.8
861.59,6538.0
862.681,6492.9
863.771,6426.6
864.861,6518.6
865.951,6359.8
867.041,6298.3
868.131,6245.0
869.22,6299.8
870.31,6348.0
871.399,6449.8
872.488,6743.6
873.578,6615.9
874.667,6403.1
875.756,6180.2
876.845,6138.7
877.933,6054.0
879.022,6065.1
880.11,5991.0
881.199,5995.2
882.287,6006.1
883.375,5947.1
884.463,5904.9
885.551,5969.2
886.639,5816.9
887.726,5778.3
888.814,5762.6
889.901,5688.4
890.988,5742.4
892.075,5748.2
893.162,5601.1
894.249,5594.3
895.336,5543.4
896.423,5543.4
897.509,5969.3
898.595,6407.8
899.682,5910.6
900.768,5433.6
901.854,5352.8
902.94,5331.7
904.025,5315.3
905.111,5337.3
906.196,5488.8
907.282,5810.3
908.367,5867.9
909.452,5470.9
910.537,5185.1
911.622,5076.3
912.706,5028.1
913.791,5005.0
914.875,4967.1
915.959,4941.7
917.044,4899.9
918.128,4913.7
919.211,4890.6
920.295,4814.7
921.379,4804.9
922.462,4785.0
923.546,4740.6
924.629,4714.9
925.712,4676.9
926.795,4683.4
927.877,4670.4
928.96,4603.4
930.043,4586.0
931.125,4575.4
932.207,4557.8
933.289,4509.1
934.371,4491.9
935.453,4459.8
936.535,4453.2
937.616,4420.3
938.697,4402.7
939.779,4393.1
940.86,4386.2
941.941,4367.5
943.022,4328.2
944.102,4313.8
945.183,4288.5
946.263,4276.9
947.343,4264.1
948.423,4241.9
949.503,4252.9
950.583,4221.9
951.663,4209.0
952.742,4186.9
953.822,4172.3
954.901,4151.0
955.98,4149.3
957.059,4133.8
958.137,4136.2
959.216,4117.6
960.294,4099.1
961.373,4092.7
962.451,4091.2
963.529,4077.5
964.607,4069.9
965.684,4055.5
966.762,4037.1
967.839,4036.4
968.917,4015.3
969.994,4018.8
971.071,4017.8
972.147,3992.7
973.224,3992.6
974.3,3986.1
975.377,3973.9
976.453,3967.3
977.529,3962.2
978.605,3953.5
979.68,3941.7
980.756,3939.7
981.831,3934.8
982.907,3927.0
983.982,3923.5
985.057,3923.8
986.131,3916.4
987.206,3914.3
988.28,3899.3
989.355,3899.2
990.429,3890.6
991.503,3887.9
992.576,3884.5
993.65,3873.0
994.723,3866.6
995.797,3864.9
996.87,3866.7
997.943,3861.0
999.016,3857.8
1000.09,3857.6
1001.16,3850.0
1002.23,3846.2
1003.31,3840.8
1004.38,3839.4
1005.45,3834.7
1006.52,3831.8
1007.59,3831.2
1008.66,3825.3
1009.73,3821.6
1010.81,3818.5
1011.88,3820.9
1012.95,3821.0
1014.02,3814.8
1015.09,3813.7
1016.16,3817.3
1017.23,3811.1
1018.3,3808.7
1019.37,3808.8
1020.44,3807.5
1021.51,3817.8
1022.58,3814.1
1023.64,3811.9
1024.71,3807.8
1025.78,3804.5
1026.85,3799.5
1027.92,3794.5
1028.99,3791.2
1030.05,3787.4
1031.12,3787.9
1032.19,3783.4
1033.26,3788.3
1034.32,3790.4
1035.39,3791.0
1036.46,3788.5
1037.52,3785.8
1038.59,3779.1
1039.66,3776.2
1040.72,3775.5
1041.79,3772.9
1042.86,3772.8
1043.92,3773.4
1044.99,3770.5
1046.05,3770.6
1047.12,3770.5
1048.18,3769.7
1049.25,3770.7
1050.31,3769.7
1051.37,3771.0
1052.44,3768.6
1053.5,3769.1
1054.57,3767.6
1055.63,3767.2
1056.69,3766.2
1057.76,3765.6
1058.82,3768.8
1059.88,3767.3
1060.95,3766.4
1062.01,3766.1
1063.07,3766.4
1064.13,3767.1
1065.19,3765.9
1066.26,3765.5
1067.32,3765.2
1068.11,3764.3