File: spectra/VLFR_02-HDPE_nobio_Raman_3bf535b4.csv
cm-1,Intensity
-123.878,1853.1
-105.821,1852.4
-87.8007,1853.25
-69.8161,1853.2
-51.8675,1853.0
-33.9547,1853.6
-16.0776,1867.4
1.76388,2693.95
19.5698,1855.15
37.3403,1854.6
55.0755,1977.2
72.7754,2354.55
90.4402,2388.45
108.07,2415.9
125.665,2436.2
143.225,2438.25
160.75,2419.6
178.241,2447.0
195.697,2460.45
213.119,2477.0
230.506,2480.85
247.859,2494.8
265.178,2490.5
282.463,2521.35
299.713,2524.75
316.93,2552.05
334.113,2568.25
351.263,2573.9
368.379,2618.95
385.461,2610.5
402.51,2638.75
419.526,2643.7
436.508,2647.5
453.458,2644.05
470.374,2683.6
487.257,2677.75
504.107,2707.15
520.925,2681.15
537.71,2690.05
554.462,2737.75
571.182,2745.5
587.87,2732.2
604.525,2729.75
621.148,2763.0
637.739,2776.85
654.297,2811.05
670.824,2801.75
687.319,2819.75
703.782,2817.25
720.213,2850.3
736.613,2831.15
752.981,2860.8
769.317,2890.15
785.623,2882.4
801.897,2892.3
818.139,2917.8
834.351,2907.05
850.532,2915.7
866.681,2930.2
882.8,2949.05
898.888,2943.05
914.945,2980.2
930.972,2975.75
946.968,2973.65
962.934,3010.75
978.869,3001.75
994.774,3039.85
1010.65,3012.65
1026.49,3046.35
1042.31,3064.65
1058.09,3152.8
1073.85,3086.25
1089.57,3145.65
1105.27,3126.15
1120.93,3140.55
1136.57,3164.75
1152.18,3108.45
1167.75,3109.75
1183.3,3091.85
1198.82,3100.55
1214.31,3132.55
1229.77,3149.95
1245.2,3131.15
1260.6,3153.85
1275.97,3141.7
1291.32,3277.7
1306.63,3231.65
1321.92,3204.15
1337.18,3184.45
1352.41,3170.4
1367.61,3231.95
1382.78,3225.7
1397.93,3214.4
1413.05,3270.95
1428.14,3264.8
1443.2,3335.55
1458.23,3258.55
1473.23,3247.2
1488.21,3216.85
1503.16,3196.45
1518.08,3217.3
1532.97,3244.55
1547.84,3245.45
1562.68,3231.0
1577.49,3267.5
1592.27,3262.5
1607.03,3256.75
1621.76,3229.65
1636.46,3284.65
1651.14,3262.9
1665.78,3262.95
1680.41,3305.65
1695.0,3284.75
1709.57,3294.65
1724.11,3281.05
1738.62,3306.35
1753.11,3289.55
1767.57,3308.45
1782.01,3352.45
1796.41,3316.8
1810.8,3317.5
1825.15,3288.7
1839.48,3319.1
1853.79,3303.4
1868.06,3339.95
1882.31,3340.5
1896.54,3302.7
1910.74,3329.35
1924.91,3318.45
1939.06,3339.65
1953.19,3370.25
1967.28,3319.4
1981.35,3327.7
1995.4,3350.05
2009.42,3368.5
2023.42,3409.15
2037.39,3397.4
2051.33,3416.4
2065.25,3391.05
2079.15,3389.8
2093.01,3385.6
2106.86,3441.15
2120.68,3410.15
2134.47,3438.15
2148.24,3410.2
2161.99,3434.55
2175.71,3432.7
2189.41,3451.05
2203.08,3443.05
2216.73,3395.5
2230.35,3409.9
2243.95,3397.25
2257.52,3429.05
2271.07,3393.15
2284.6,3402.5
2298.1,3390.9
2311.58,3383.8
2325.03,3376.8
2338.46,3372.45
2351.87,3389.45
2365.25,3368.75
2378.61,3354.15
2391.94,3366.95
2405.26,3373.9
2418.54,3358.1
2431.81,3379.25
2445.05,3358.35
2458.27,3377.0
2471.46,3355.65
2484.63,3360.1
2497.78,3332.0
2510.9,3340.25
2524.0,3345.95
2537.08,3326.45
2550.14,3315.4
2563.17,3302.3
2576.18,3290.9
2589.17,3301.4
2602.13,3307.55
2615.07,3287.25
2627.99,3303.55
2640.89,3303.0
2653.76,3316.25
2666.61,3304.35
2679.44,3296.1
2692.25,3310.0
2705.03,3326.95
2717.79,3350.25
2730.53,3328.8
2743.25,3300.05
2755.94,3270.15
2768.61,3242.85
2781.27,3262.75
2793.89,3302.95
2806.5,3276.25
2819.09,3275.45
2831.65,3370.85
2844.19,3880.9
2856.71,3839.5
2869.21,3690.3
2881.69,4083.2
2894.14,3765.05
2906.58,3634.95
2918.99,3491.25
2931.38,3477.4
2943.75,3335.5
2956.1,3281.3
2968.42,3238.3
2980.73,3238.65
2993.01,3185.05
3005.28,3177.1
3017.52,3182.5
3029.74,3119.15
3041.94,3147.95
3054.12,3093.55
3066.28,3127.1
3078.42,3105.15
3090.54,3105.25
3102.63,3090.4
3114.71,3084.5
3126.77,3107.55
3138.8,3063.6
3150.82,3057.75
3162.81,3065.25
3174.78,3057.05
3186.74,3023.05
3198.67,3051.45
3210.58,3026.8
3222.47,3042.9
3234.35,3001.15
3246.2,2993.2
3258.03,3025.65
3269.84,3023.7
3281.64,3000.95
3293.41,3008.55
3305.16,3023.6
3316.89,2970.55
3328.61,2955.2
3340.3,2977.05
3351.97,2972.6
3363.63,2965.3
3375.26,2935.8
3386.88,2908.5
3398.47,2916.0
3410.05,2919.35
3421.6,2897.2
3433.14,2912.2
3444.66,2914.75
3456.15,2858.55
3467.63,2863.15
3479.09,2843.1
3490.53,2839.45
3501.96,2832.65
3513.36,2798.85
3524.74,2805.7
3536.11,2804.05
3547.45,2779.9
3558.78,2753.6
3570.09,2742.5
3581.37,2772.4
3592.64,2713.25
3603.9,2717.55
3615.13,2686.5
3626.34,2678.15
3637.54,2671.2
3648.72,2661.5
3659.87,2658.6
3665.45,2663.7