File: spectra/VLFR_01-LDPE_bio_Raman_4c1d0e24.csv
nm,Intensity
528.65,1837.5
529.155,1836.85
529.66,1837.95
530.165,1837.05
530.67,1837.15
531.175,1838.9
531.68,1850.8
532.185,2241.0
532.69,1839.65
533.194,1838.1
533.699,1923.0
534.204,2072.65
534.708,2054.6
535.213,2013.65
535.717,1976.5
536.222,1952.15
536.726,1949.35
537.231,1954.1
537.735,1949.9
538.239,1942.3
538.743,1933.05
539.247,1926.25
539.751,1921.6
540.255,1919.1
540.759,1908.8
541.263,1915.55
541.767,1915.65
542.271,1918.7
542.775,1914.2
543.279,1910.55
543.782,1914.2
544.286,1914.5
544.789,1909.05
545.293,1908.25
545.796,1912.3
546.3,1910.6
546.803,1911.35
547.306,1911.75
547.81,1908.05
548.313,1905.9
548.816,1906.8
549.319,1905.2
549.822,1910.9
550.325,1904.75
550.828,1909.1
551.331,1903.75
551.834,1904.45
552.337,1908.4
552.839,1910.55
553.342,1918.85
553.844,1916.75
554.347,1917.5
554.849,1926.9
555.352,1922.95
555.854,1935.55
556.357,1935.25
556.859,1946.25
557.361,1956.6
557.863,1966.3
558.365,1972.2
558.867,1967.2
559.369,1952.35
559.871,1952.1
560.373,1947.6
560.875,1954.05
561.377,1951.45
561.878,1954.1
562.38,1969.7
562.881,1989.2
563.383,2007.45
563.884,2289.7
564.386,2079.2
564.887,2070.55
565.388,2017.0
565.89,2179.65
566.391,2129.7
566.892,2010.3
567.393,2036.15
567.894,1985.35
568.395,1991.9
568.896,1996.25
569.396,1999.35
569.897,2010.65
570.398,2032.15
570.898,2065.4
571.399,2496.25
571.9,2208.45
572.4,2094.45
572.9,2061.8
573.401,2068.85
573.901,2116.95
574.401,2087.9
574.901,2095.2
575.401,2265.5
575.901,2397.95
576.401,2653.75
576.901,2541.9
577.401,2347.9
577.901,2282.85
578.4,2306.4
578.9,2329.85
579.399,2366.45
579.899,2425.15
580.398,2445.55
580.898,2497.45
581.397,2551.55
581.896,2579.3
582.395,2632.15
582.895,2697.15
583.394,2750.4
583.893,2735.8
584.391,2786.7
584.89,2800.95
585.389,2842.05
585.888,2867.4
586.386,2916.5
586.885,2952.1
587.384,3004.3
587.882,3043.95
588.38,3062.45
588.879,3161.75
589.377,3180.15
589.875,3249.7
590.373,3280.7
590.871,3335.55
591.369,3440.15
591.867,3467.35
592.365,3478.65
592.863,3517.25
593.361,3549.1
593.858,3599.8
594.356,3585.7
594.853,3598.45
595.351,3686.7
595.848,3753.65
596.345,3825.85
596.843,3905.55
597.34,3986.95
597.837,3968.6
598.334,4102.3
598.831,4117.35
599.328,4215.15
599.824,4236.55
600.321,4291.25
600.818,4277.3
601.314,4246.9
601.811,4202.05
602.307,4205.05
602.804,4144.45
603.3,4121.25
603.796,4011.35
604.293,3945.15
604.789,3842.15
605.285,3750.45
605.781,3662.8
606.277,3609.15
606.772,3534.2
607.268,3420.4
607.764,3378.55
608.259,3304.0
608.755,3286.95
609.25,3225.6
609.746,3165.25
610.241,3159.7
610.736,3100.35
611.231,3079.75
611.727,3073.4
612.222,2993.0
612.716,2967.3
613.211,2941.55
613.706,2930.05
614.201,2907.75
614.695,2856.45
615.19,2828.0
615.684,2834.25
616.179,2808.65
616.673,2804.3
617.168,2745.5
617.662,2757.7
618.156,2735.3
618.65,2733.6
619.144,2726.3
619.638,2728.7
620.131,2702.2
620.625,2700.65
621.119,2694.95
621.612,2762.75
622.106,2835.95
622.599,2789.1
623.093,2680.5
623.586,2628.5
624.079,2634.6
624.572,2618.45
625.065,2628.7
625.558,2667.7
626.051,2702.65
626.544,3120.6
627.037,5315.8
627.529,4928.1
628.022,4461.45
628.514,5681.75
629.007,4427.05
629.499,4142.6
629.991,3770.05
630.483,3604.7
630.976,3100.2
631.468,2799.75
631.959,2670.75
632.451,2636.9
632.943,2605.2
633.435,2615.45
633.926,2612.75
634.418,2593.8
634.909,2592.15
635.401,2594.85
635.892,2577.9
636.383,2588.45
636.874,2594.0
637.365,2576.85
637.856,2596.6
638.347,2597.5
638.838,2605.3
639.329,2573.9
639.819,2627.5
640.31,2611.1
640.8,2627.25
641.291,2661.25
641.781,2639.85
642.271,2653.0
642.761,2668.05
643.251,2696.3
643.741,2683.1
644.231,2692.65
644.721,2688.0
645.211,2699.5
645.7,2712.4
646.19,2711.8
646.679,2705.8
647.169,2671.25
647.658,2732.9
648.147,2715.65
648.636,2717.2
649.125,2702.1
649.614,2718.95
650.103,2702.65
650.592,2690.8
651.08,2668.25
651.569,2674.6
652.058,2694.5
652.546,2653.65
653.034,2679.15
653.523,2671.2
654.011,2681.9
654.499,2661.95
654.987,2711.05
655.475,2660.05
655.963,2685.8
656.45,2639.1
656.938,2591.5
657.425,2581.95
657.913,2542.5
658.4,2517.9
658.888,2531.5
659.375,2451.2
659.862,2445.65
660.349,2437.85
660.836,2403.55
661.079,2418.15