File: spectra/VLFR_07-PET_nobio_Raman_7247d54d.csv
nm,Intensity
791.377,10210.3
792.477,9443.12
793.576,8819.74
794.676,8615.46
795.775,8393.82
796.874,8442.7
797.973,8373.94
799.072,8291.54
800.171,8189.62
801.27,8233.46
802.368,8151.54
803.467,7985.32
804.565,7865.66
805.664,7768.18
806.762,7759.26
807.86,7699.04
808.958,7692.52
810.056,7498.8
811.153,7497.42
812.251,7442.26
813.349,7404.3
814.446,7277.04
815.543,7360.42
816.64,7256.08
817.737,7181.92
818.834,7135.16
819.931,7112.48
821.028,7069.18
822.125,6976.06
823.221,6866.12
824.317,6891.48
825.414,6915.98
826.51,6988.22
827.606,6730.0
828.702,6692.68
829.797,6684.1
830.893,6766.12
831.988,6574.96
833.084,6510.34
834.179,6475.98
835.274,6462.2
836.369,6432.22
837.464,6539.44
838.559,6462.88
839.654,6383.76
840.748,6494.42
841.843,6635.28
842.937,6393.14
844.031,6329.64
845.125,6149.62
846.219,6108.5
847.313,6053.04
848.407,6011.86
849.5,6011.52
850.593,6016.6
851.687,6001.06
852.78,5979.4
853.873,5960.12
854.966,5920.18
856.059,5858.3
857.151,5857.92
858.244,5875.08
859.336,5982.76
860.428,5958.42
861.52,5820.02
862.612,5731.34
863.704,5698.28
864.796,5728.44
865.888,5620.4
866.979,5600.24
868.07,5551.14
869.162,5617.06
870.253,5575.74
871.344,5683.34
872.434,5804.62
873.525,5845.86
874.615,5698.84
875.706,5541.1
876.796,5458.74
877.886,5393.98
878.976,5383.24
880.066,5357.22
881.156,5342.64
882.245,5340.56
883.335,5330.58
884.424,5274.14
885.513,5294.48
886.602,5262.52
887.691,5186.02
888.78,5189.66
889.868,5134.72
890.957,5118.26
892.045,5122.1
893.133,5064.16
894.221,5048.8
895.309,4987.26
896.397,5006.06
897.484,5075.16
898.571,5576.92
899.659,5281.16
900.746,4880.24
901.833,4851.26
902.92,4837.9
904.006,4825.16
905.093,4817.14
906.179,4872.1
907.266,5133.64
908.352,5145.8
909.438,4905.38
910.523,4758.84
911.609,4656.92
912.695,4623.5
913.78,4586.44
914.865,4551.46
915.95,4570.12
917.035,4525.78
918.12,4499.32
919.204,4486.38
920.289,4462.4
921.373,4451.62
922.457,4429.82
923.541,4414.78
924.625,4391.86
925.709,4371.4
926.792,4352.6
927.876,4326.6
928.959,4319.7
930.042,4285.22
931.125,4287.64
932.208,4247.14
933.29,4246.88
934.373,4208.54
935.455,4210.8
936.537,4191.92
937.619,4172.46
938.701,4188.48
939.782,4149.86
940.864,4138.62
941.945,4133.48
943.026,4112.08
944.107,4102.54
945.188,4084.46
946.269,4072.08
947.349,4070.66
948.43,4065.04
949.51,4053.82
950.59,4036.36
951.67,4023.62
952.75,4017.7
953.829,4023.26
954.909,3999.48
955.988,3990.28
957.067,3983.5
958.146,3975.9
959.224,3969.22
960.303,3964.6
961.381,3952.24
962.459,3943.48
963.537,3941.4
964.615,3928.94
965.693,3927.16
966.771,3926.6
967.848,3917.1
968.925,3909.5
970.002,3903.72
971.079,3897.6
972.156,3892.84
973.232,3883.9
974.309,3887.8
975.385,3874.02
976.461,3873.54
977.537,3864.16
978.612,3859.84
979.688,3856.36
980.763,3852.46
981.838,3847.96
982.913,3840.44
983.988,3841.78
985.063,3838.82
986.137,3833.74
987.211,3831.14
988.285,3826.22
989.359,3823.28
990.433,3816.14
991.506,3814.12
992.58,3810.38
993.653,3810.02
994.726,3805.5
995.799,3802.7
996.872,3799.24
997.944,3796.74
999.016,3794.52
1000.09,3792.24
1001.16,3785.94
1002.23,3785.54
1003.3,3782.16
1004.38,3782.42
1005.45,3777.82
1006.52,3777.9
1007.59,3771.82
1008.66,3769.64
1009.73,3768.22
1010.8,3765.64
1011.87,3765.24
1012.94,3764.52
1014.01,3764.14
1015.08,3761.7
1016.15,3759.56
1017.22,3759.82
1018.29,3756.5
1019.36,3754.42
1020.42,3755.76
1021.49,3758.58
1022.56,3760.76
1023.63,3761.68
1024.7,3756.34
1025.76,3752.82
1026.83,3747.56
1027.9,3745.9
1028.97,3743.2
1030.03,3743.0
1031.1,3738.88
1032.17,3740.34
1033.23,3739.04
1034.3,3741.84
1035.36,3744.28
1036.43,3742.18
1037.5,3738.2
1038.56,3735.7
1039.63,3733.56
1040.69,3732.4
1041.76,3730.52
1042.82,3730.78
1043.89,3729.58
1044.95,3729.08
1046.01,3729.14
1047.08,3728.7
1048.14,3727.9
1049.2,3726.58
1050.27,3727.54
1051.33,3728.52
1052.39,3726.4
1053.46,3726.46
1054.52,3726.26
1055.58,3726.4
1056.64,3726.28
1057.7,3725.22
1058.77,3725.54
1059.83,3724.48
1060.89,3725.76
1061.95,3724.82
1063.01,3724.44
1064.07,3724.32
1065.13,3723.44
1066.19,3724.58
1067.25,3723.46
1068.05,3722.98