File: spectra/VLFR_08-PLA_bio_Raman_0f40575e.csv
nm,Intensity
526.547,833.1
527.095,832.1
527.642,831.25
528.189,831.65
528.736,832.5
529.283,831.95
529.829,832.2
530.376,831.8
530.922,831.1
531.468,831.75
532.014,846.0
532.56,832.0
533.106,832.2
533.651,834.15
534.196,958.85
534.742,935.6
535.287,914.6
535.832,903.3
536.376,902.45
536.921,900.9
537.465,898.4
538.01,900.1
538.554,892.35
539.098,890.8
539.642,886.65
540.186,885.35
540.729,894.7
541.273,897.3
541.816,890.95
542.36,888.75
542.903,891.35
543.446,905.5
543.988,910.85
544.531,893.6
545.074,891.55
545.616,886.0
546.158,887.6
546.701,889.5
547.243,891.5
547.785,891.85
548.326,891.05
548.868,891.8
549.41,892.15
549.951,893.2
550.492,896.1
551.034,895.45
551.575,897.7
552.116,898.5
552.656,898.5
553.197,900.55
553.738,897.35
554.278,905.95
554.819,899.4
555.359,896.65
555.899,893.55
556.439,895.1
556.979,897.15
557.519,908.9
558.058,990.25
558.598,914.8
559.137,904.2
559.677,904.75
560.216,901.75
560.755,901.2
561.294,899.2
561.833,897.15
562.371,900.75
562.91,908.45
563.449,930.05
563.987,915.55
564.525,908.45
565.064,918.9
565.602,915.85
566.14,938.95
566.678,915.95
567.216,904.6
567.753,911.6
568.291,909.55
568.828,909.3
569.366,911.9
569.903,910.8
570.44,909.05
570.977,912.5
571.514,929.0
572.051,922.8
572.588,919.5
573.125,922.9
573.661,924.1
574.198,920.9
574.734,930.8
575.271,915.95
575.807,914.35
576.343,925.5
576.879,962.2
577.415,926.55
577.951,917.0
578.486,916.85
579.022,914.1
579.557,916.25
580.093,917.05
580.628,915.6
581.164,916.05
581.699,918.9
582.234,917.55
582.769,915.95
583.304,918.8
583.838,916.1
584.373,918.85
584.908,915.7
585.442,919.65
585.977,922.1
586.511,930.7
587.045,945.15
587.58,962.8
588.114,930.55
588.648,919.6
589.182,919.45
589.715,917.75
590.249,919.25
590.783,918.35
591.316,917.65
591.85,922.7
592.383,918.2
592.917,919.3
593.45,918.5
593.983,920.3
594.516,917.7
595.049,920.35
595.582,919.75
596.115,918.3
596.648,919.25
597.18,921.9
597.713,922.45
598.245,923.5
598.778,921.4
599.31,920.95
599.842,923.0
600.375,918.55
600.907,920.6
601.439,920.75
601.971,921.55
602.503,921.45
603.034,919.75
603.566,922.65
604.098,918.0
604.629,922.15
605.161,918.25
605.692,917.55
606.224,917.5
606.755,915.95
607.286,920.3
607.817,918.7
608.348,918.95
608.879,918.8
609.41,917.6
609.941,920.55
610.472,918.15
611.002,916.0
611.533,916.75
612.063,917.75
612.594,916.55
613.124,919.0
613.655,918.7
614.185,920.7
614.715,918.85
615.245,920.1
615.775,917.45
616.305,919.4
616.835,920.65
617.365,920.05
617.895,920.1
618.425,921.2
618.954,919.5
619.484,917.5
620.013,915.1
620.543,917.65
621.072,915.75
621.602,919.3
622.131,921.6
622.66,924.05
623.189,929.45
623.718,924.2
624.247,920.7
624.776,920.45
625.305,918.3
625.834,917.5
626.363,915.55
626.891,917.4
627.42,920.1
627.949,927.2
628.477,970.4
629.006,957.85
629.534,958.4
630.062,958.35
630.591,1003.15
631.119,1253.2
631.647,1076.35
632.175,997.65
632.703,986.55
633.231,1054.9
633.759,1030.6
634.287,962.35
634.815,927.4
635.343,920.95
635.871,917.65
636.398,915.15
636.926,911.25
637.454,910.6
637.981,912.15
638.509,908.95
639.036,909.85
639.564,910.05
640.091,912.45
640.618,910.3
641.146,910.95
641.673,911.55
642.2,911.75
642.727,913.3
643.254,909.8
643.781,907.4
644.308,905.25
644.835,906.65
645.362,906.15
645.889,905.2
646.416,903.75
646.942,903.75
647.469,904.85
647.996,902.6
648.522,903.7
649.049,904.1
649.576,901.25
650.102,901.1
650.629,901.8
651.155,901.85
651.682,900.85
652.208,898.8
652.734,898.95
653.261,899.25
653.787,899.1
654.313,895.6
654.839,900.1
655.365,898.35
655.892,896.35
656.418,897.65
656.944,897.8
657.47,896.45
657.996,896.4
658.522,896.65
659.048,895.75
659.574,896.25
660.099,897.55
660.625,897.95
661.151,893.85
661.677,893.6
662.203,892.6
662.728,891.75
663.123,893.05