File: spectra/VLFR_02-HDPE_bio_Raman_603869a7.csv
nm,Intensity
528.635,1838.5
529.14,1836.3
529.645,1839.3
530.151,1837.9
530.656,1837.3
531.161,1840.5
531.666,1884.4
532.171,4674.6
532.676,1839.4
533.181,1840.9
533.686,1976.5
534.191,2357.2
534.696,2378.0
535.201,2356.6
535.705,2221.3
536.21,2187.0
536.715,2157.4
537.219,2147.3
537.724,2154.5
538.228,2144.1
538.733,2135.4
539.237,2118.8
539.741,2109.4
540.246,2103.2
540.75,2112.3
541.254,2096.2
541.758,2095.2
542.262,2106.2
542.766,2090.7
543.27,2084.4
543.774,2090.9
544.278,2064.9
544.781,2079.4
545.285,2086.1
545.789,2061.5
546.292,2057.8
546.796,2048.2
547.299,2048.9
547.803,2047.8
548.306,2038.3
548.809,2043.8
549.313,2034.9
549.816,2036.8
550.319,2029.1
550.822,2016.2
551.325,2027.3
551.828,2023.2
552.331,2025.6
552.834,2021.5
553.337,2027.5
553.839,2030.5
554.342,2029.6
554.845,2034.1
555.347,2031.9
555.85,2038.1
556.352,2034.1
556.854,2055.0
557.357,2056.9
557.859,2070.4
558.361,2068.9
558.863,2057.8
559.365,2060.5
559.867,2063.1
560.369,2045.1
560.871,2047.4
561.373,2047.2
561.875,2058.5
562.377,2078.4
562.878,2084.6
563.38,2111.5
563.881,2783.6
564.383,2268.8
564.884,2193.9
565.386,2152.0
565.887,2475.2
566.388,2510.0
566.889,2118.5
567.391,2265.5
567.892,2104.1
568.393,2093.8
568.893,2095.6
569.394,2096.9
569.895,2109.9
570.396,2149.7
570.897,2197.8
571.397,3174.2
571.898,2378.2
572.398,2182.6
572.899,2135.2
573.399,2134.0
573.899,2234.1
574.399,2113.9
574.9,2131.0
575.4,2574.6
575.9,2576.6
576.4,3150.8
576.899,2832.5
577.399,2465.8
577.899,2193.3
578.399,2167.1
578.898,2134.3
579.398,2130.4
579.897,2142.8
580.397,2127.4
580.896,2126.3
581.396,2117.1
581.895,2122.5
582.394,2128.5
582.893,2111.6
583.392,2109.7
583.891,2107.8
584.39,2108.1
584.889,2116.9
585.387,2099.0
585.886,2099.8
586.385,2098.1
586.883,2087.6
587.382,2079.8
587.88,2079.9
588.379,2079.2
588.877,2087.1
589.375,2074.3
589.873,2061.7
590.371,2076.2
590.869,2083.1
591.367,2077.9
591.865,2094.4
592.363,2072.4
592.86,2075.8
593.358,2077.4
593.856,2079.7
594.353,2077.1
594.851,2076.5
595.348,2074.3
595.845,2084.4
596.342,2075.3
596.84,2078.0
597.337,2107.0
597.834,2097.3
598.331,2093.9
598.827,2098.7
599.324,2114.4
599.821,2115.6
600.318,2110.4
600.814,2113.0
601.311,2122.0
601.807,2134.5
602.303,2141.6
602.8,2115.1
603.296,2120.0
603.792,2118.2
604.288,2133.3
604.784,2097.1
605.28,2104.2
605.776,2092.7
606.272,2094.7
606.767,2088.3
607.263,2088.9
607.758,2080.4
608.254,2095.7
608.749,2082.5
609.244,2074.1
609.74,2087.5
610.235,2085.0
610.73,2098.0
611.225,2100.6
611.72,2081.8
612.215,2080.0
612.709,2058.2
613.204,2072.5
613.699,2073.9
614.193,2077.6
614.688,2075.9
615.182,2086.7
615.676,2087.1
616.171,2094.6
616.665,2122.8
617.159,2155.2
617.653,2185.5
618.147,2177.4
618.641,2168.6
619.134,2174.1
619.628,2210.7
620.122,2193.6
620.615,2217.6
621.109,2281.4
621.602,2456.5
622.095,2727.3
622.588,2573.7
623.082,2298.6
623.575,2206.6
624.068,2179.5
624.56,2208.2
625.053,2216.8
625.546,2278.8
626.039,2481.4
626.531,3630.1
627.024,9050.1
627.516,8054.4
628.008,6718.7
628.501,10502.9
628.993,6094.5
629.485,5194.9
629.977,4352.7
630.469,4004.7
630.961,3074.8
631.452,2375.7
631.944,2259.9
632.436,2205.3
632.927,2157.5
633.418,2138.4
633.91,2121.5
634.401,2072.6
634.892,2079.1
635.383,2064.7
635.874,2059.9
636.365,2041.5
636.856,2031.0
637.347,2007.9
637.837,2000.0
638.328,2005.2
638.818,1986.8
639.309,1984.1
639.799,1981.3
640.289,1975.8
640.78,1980.1
641.27,1969.8
641.76,1970.2
642.249,1970.9
642.739,1977.3
643.229,1965.2
643.719,1962.2
644.208,1973.1
644.698,1968.7
645.187,1966.9
645.676,1967.5
646.165,1958.8
646.655,1958.7
647.144,1954.7
647.633,1956.4
648.121,1958.1
648.61,1954.0
649.099,1962.0
649.587,1952.6
650.076,1948.1
650.564,1949.2
651.053,1951.5
651.541,1958.1
652.029,1951.5
652.517,1951.8
653.005,1965.1
653.493,1949.6
653.981,1943.9
654.468,1949.4
654.956,1943.1
655.444,1940.6
655.931,1949.3
656.418,1939.4
656.906,1938.4
657.393,1935.8
657.88,1946.0
658.367,1932.3
658.854,1936.7
659.341,1938.5
659.827,1940.0
660.314,1938.4
660.8,1939.8
661.044,1926.9