File: spectra/VLFR_07-PET_bio_Raman_7b4890d1.csv
nm,Intensity
791.377,5497.88
792.477,5434.18
793.576,5432.28
794.676,5370.12
795.775,5336.28
796.874,5320.62
797.973,5359.46
799.072,5333.82
800.171,5293.8
801.27,5288.66
802.368,5296.36
803.467,5272.7
804.565,5241.18
805.664,5282.24
806.762,5246.04
807.86,5254.52
808.958,5217.16
810.056,5199.4
811.153,5163.44
812.251,5153.38
813.349,5132.02
814.446,5110.58
815.543,5089.14
816.64,5052.12
817.737,5041.5
818.834,5044.96
819.931,5038.2
821.028,5077.82
822.125,4986.84
823.221,4937.6
824.317,4995.28
825.414,4980.1
826.51,4975.78
827.606,4952.42
828.702,4933.7
829.797,4931.94
830.893,4908.52
831.988,4891.12
833.084,4912.76
834.179,4864.7
835.274,4862.58
836.369,4865.88
837.464,4906.66
838.559,4854.28
839.654,4855.38
840.748,4829.32
841.843,4826.58
842.937,4793.46
844.031,4789.14
845.125,4794.3
846.219,4766.14
847.313,4754.62
848.407,4790.46
849.5,4722.56
850.593,4715.9
851.687,4727.5
852.78,4697.92
853.873,4662.8
854.966,4650.68
856.059,4670.4
857.151,4665.72
858.244,4652.64
859.336,4653.16
860.428,4630.56
861.52,4618.76
862.612,4622.52
863.704,4618.08
864.796,4586.82
865.888,4569.72
866.979,4543.98
868.07,4581.46
869.162,4549.56
870.253,4547.64
871.344,4573.2
872.434,4522.96
873.525,4547.16
874.615,4518.86
875.706,4495.02
876.796,4508.0
877.886,4495.96
878.976,4499.12
880.066,4468.02
881.156,4431.82
882.245,4451.36
883.335,4443.36
884.424,4439.44
885.513,4443.2
886.602,4403.74
887.691,4390.32
888.78,4396.46
889.868,4374.32
890.957,4368.42
892.045,4356.6
893.133,4335.6
894.221,4324.36
895.309,4295.96
896.397,4298.5
897.484,4282.96
898.571,4268.56
899.659,4253.14
900.746,4245.76
901.833,4247.12
902.92,4254.4
904.006,4231.28
905.093,4242.66
906.179,4216.78
907.266,4199.32
908.352,4172.86
909.438,4182.18
910.523,4171.76
911.609,4163.62
912.695,4149.2
913.78,4143.44
914.865,4129.2
915.95,4130.32
917.035,4115.88
918.12,4124.1
919.204,4115.26
920.289,4106.92
921.373,4097.98
922.457,4100.04
923.541,4080.26
924.625,4073.74
925.709,4071.18
926.792,4056.6
927.876,4046.74
928.959,4034.58
930.042,4018.84
931.125,3992.44
932.208,3989.58
933.29,3981.46
934.373,3971.84
935.455,3970.62
936.537,3962.08
937.619,3964.52
938.701,3957.38
939.782,3968.22
940.864,3955.36
941.945,3952.54
943.026,3935.0
944.107,3934.5
945.188,3927.28
946.269,3930.38
947.349,3918.78
948.43,3918.7
949.51,3919.42
950.59,3914.72
951.67,3908.68
952.75,3908.96
953.829,3899.74
954.909,3899.74
955.988,3897.06
957.067,3897.44
958.146,3893.94
959.224,3889.14
960.303,3889.08
961.381,3883.88
962.459,3882.36
963.537,3880.76
964.615,3881.38
965.693,3875.82
966.771,3873.64
967.848,3879.18
968.925,3872.84
970.002,3872.78
971.079,3870.22
972.156,3868.74
973.232,3859.94
974.309,3859.5
975.385,3855.12
976.461,3855.82
977.537,3853.0
978.612,3853.46
979.688,3852.96
980.763,3849.44
981.838,3850.18
982.913,3848.1
983.988,3845.42
985.063,3849.62
986.137,3845.3
987.211,3842.24
988.285,3841.48
989.359,3840.28
990.433,3838.98
991.506,3835.66
992.58,3832.18
993.653,3835.74
994.726,3832.44
995.799,3831.38
996.872,3827.38
997.944,3827.96
999.016,3827.68
1000.09,3825.82
1001.16,3821.86
1002.23,3822.5
1003.3,3817.34
1004.38,3816.7
1005.45,3814.18
1006.52,3814.06
1007.59,3814.52
1008.66,3812.46
1009.73,3810.2
1010.8,3810.86
1011.87,3809.56
1012.94,3807.3
1014.01,3809.6
1015.08,3806.82
1016.15,3805.9
1017.22,3805.16
1018.29,3803.08
1019.36,3802.26
1020.42,3801.42
1021.49,3800.16
1022.56,3799.3
1023.63,3797.7
1024.7,3797.08
1025.76,3797.24
1026.83,3793.0
1027.9,3792.24
1028.97,3793.28
1030.03,3791.24
1031.1,3790.22
1032.17,3791.4
1033.23,3791.26
1034.3,3789.92
1035.36,3788.28
1036.43,3790.06
1037.5,3787.56
1038.56,3787.86
1039.63,3789.26
1040.69,3788.52
1041.76,3786.6
1042.82,3786.44
1043.89,3787.78
1044.95,3784.96
1046.01,3784.98
1047.08,3786.36
1048.14,3786.5
1049.2,3784.1
1050.27,3784.28
1051.33,3783.88
1052.39,3783.96
1053.46,3782.5
1054.52,3782.94
1055.58,3784.68
1056.64,3781.74
1057.7,3782.78
1058.77,3782.52
1059.83,3783.74
1060.89,3782.32
1061.95,3781.68
1063.01,3781.48
1064.07,3781.84
1065.13,3781.14
1066.19,3781.68
1067.25,3781.84
1068.05,3781.36