File: spectra/VLFR_01-LDPE_nobio_Raman_28bdde73.csv
nm,Intensity
526.486,829.8
527.033,831.5
527.579,830.2
528.126,830.1
528.672,831.1
529.219,829.5
529.765,830.9
530.311,830.0
530.857,830.2
531.403,830.3
531.948,833.3
532.494,832.0
533.039,829.9
533.585,831.1
534.13,897.0
534.675,887.2
535.22,874.3
535.764,863.5
536.309,855.4
536.854,851.8
537.398,853.6
537.942,852.3
538.486,850.5
539.03,846.2
539.574,843.3
540.118,845.1
540.662,842.8
541.205,843.0
541.749,842.8
542.292,842.0
542.835,840.2
543.378,840.4
543.921,838.8
544.464,842.8
545.006,840.5
545.549,840.9
546.091,839.5
546.634,837.5
547.176,838.8
547.718,840.2
548.26,840.7
548.802,841.3
549.343,839.5
549.885,841.3
550.426,838.1
550.968,838.9
551.509,842.4
552.05,840.9
552.591,839.9
553.132,842.2
553.673,844.3
554.214,844.6
554.754,842.3
555.295,844.1
555.835,847.1
556.375,845.6
556.915,850.0
557.455,850.4
557.995,853.1
558.535,854.1
559.075,852.6
559.614,852.5
560.154,850.9
560.693,850.8
561.232,849.3
561.772,850.2
562.311,852.0
562.85,853.8
563.388,857.4
563.927,939.9
564.466,880.2
565.004,875.0
565.543,870.3
566.081,1024.2
566.619,879.5
567.157,861.6
567.695,861.9
568.233,857.4
568.771,857.7
569.309,860.4
569.846,859.8
570.384,862.8
570.921,870.5
571.458,1003.3
571.995,893.1
572.532,871.2
573.069,862.7
573.606,862.6
574.143,877.3
574.68,861.6
575.216,874.2
575.753,986.7
576.289,996.9
576.825,950.8
577.361,923.1
577.897,888.5
578.433,885.8
578.969,884.1
579.505,888.4
580.041,886.2
580.576,889.4
581.112,892.2
581.647,895.8
582.183,900.7
582.718,897.1
583.253,901.3
583.788,905.6
584.323,905.3
584.858,904.1
585.392,904.1
585.927,908.8
586.462,910.3
586.996,911.3
587.53,916.5
588.065,914.5
588.599,917.4
589.133,916.4
589.667,918.2
590.201,920.6
590.735,920.4
591.268,925.3
591.802,927.5
592.335,929.2
592.869,927.6
593.402,929.6
593.936,935.2
594.469,935.8
595.002,938.0
595.535,936.4
596.068,934.6
596.601,936.5
597.133,937.2
597.666,938.9
598.199,939.0
598.731,945.7
599.264,946.7
599.796,948.9
600.328,945.2
600.86,945.6
601.393,943.3
601.925,945.6
602.457,946.4
602.988,943.6
603.52,940.9
604.052,942.5
604.583,935.6
605.115,942.0
605.646,934.2
606.178,930.0
606.709,930.4
607.24,926.9
607.771,927.7
608.302,929.5
608.833,927.4
609.364,924.2
609.895,919.2
610.426,923.3
610.957,924.2
611.487,923.8
612.018,917.4
612.548,921.3
613.078,918.4
613.609,915.1
614.139,917.2
614.669,911.7
615.199,913.2
615.729,913.8
616.259,911.9
616.789,911.3
617.319,915.3
617.849,913.4
618.378,915.4
618.908,912.4
619.437,918.2
619.967,915.8
620.496,918.0
621.025,918.3
621.555,928.1
622.084,950.6
622.613,947.3
623.142,920.0
623.671,910.9
624.2,907.3
624.729,912.7
625.258,911.1
625.786,917.7
626.315,948.8
626.844,1161.2
627.372,1660.0
627.901,1338.1
628.429,1462.5
628.957,1370.3
629.486,1286.2
630.014,1162.9
630.542,1143.1
631.07,1018.6
631.598,937.3
632.126,920.9
632.654,912.9
633.182,905.9
633.71,904.2
634.237,902.3
634.765,902.2
635.293,898.1
635.82,897.9
636.348,898.3
636.875,899.2
637.403,899.2
637.93,896.5
638.458,895.9
638.985,895.2
639.512,895.0
640.039,896.6
640.566,896.0
641.093,899.3
641.62,895.1
642.147,896.2
642.674,897.9
643.201,898.5
643.728,901.3
644.255,897.1
644.781,900.7
645.308,898.2
645.835,902.3
646.361,902.4
646.888,898.6
647.414,901.8
647.941,903.2
648.467,904.2
648.993,904.6
649.52,902.6
650.046,899.5
650.572,900.1
651.098,897.1
651.625,902.2
652.151,898.7
652.677,897.3
653.203,899.6
653.729,900.3
654.255,899.6
654.78,901.6
655.306,899.4
655.832,895.8
656.358,895.5
656.884,899.9
657.409,897.8
657.935,896.4
658.461,895.6
658.986,893.6
659.512,891.3
660.037,894.9
660.563,889.9
661.088,889.7
661.614,887.8
662.139,888.3
662.664,889.6
663.058,887.4