File: spectra/VLFR_02-HDPE_bio_Raman_3ad4a4f8.csv
nm,Intensity
526.508,830.4
527.055,829.5
527.602,830.7
528.149,830.4
528.695,829.7
529.241,829.5
529.787,828.9
530.334,829.9
530.879,830.8
531.425,830.3
531.971,835.1
532.516,831.3
533.062,830.1
533.607,831.2
534.152,922.1
534.697,913.7
535.242,898.7
535.786,888.7
536.331,882.7
536.876,884.2
537.42,881.0
537.964,879.0
538.508,876.9
539.052,873.8
539.596,875.0
540.14,871.7
540.683,872.9
541.227,869.9
541.77,874.6
542.313,872.4
542.856,872.2
543.399,873.7
543.942,875.6
544.485,875.0
545.027,875.8
545.57,876.2
546.112,877.1
546.654,877.6
547.196,879.4
547.738,879.9
548.28,877.6
548.822,876.2
549.363,879.0
549.905,881.1
550.446,878.0
550.988,879.1
551.529,877.2
552.07,879.1
552.611,877.5
553.152,882.0
553.692,876.4
554.233,880.2
554.773,881.7
555.314,882.6
555.854,881.3
556.394,882.2
556.934,884.2
557.474,884.8
558.014,891.0
558.553,894.0
559.093,893.2
559.632,892.0
560.172,891.4
560.711,890.4
561.25,892.8
561.789,893.8
562.328,895.8
562.867,902.6
563.406,905.1
563.944,1007.0
564.483,933.7
565.021,928.4
565.559,932.2
566.098,1122.1
566.636,945.2
567.174,925.9
567.711,923.9
568.249,928.6
568.787,934.4
569.324,941.4
569.862,944.9
570.399,956.3
570.936,963.3
571.474,1123.9
572.011,1000.8
572.548,984.5
573.084,995.6
573.621,1007.9
574.158,1030.8
574.694,1044.5
575.231,1064.7
575.767,1194.3
576.303,1196.3
576.84,1201.9
577.376,1203.8
577.912,1218.1
578.447,1262.3
578.983,1315.2
579.519,1365.2
580.054,1405.2
580.59,1458.5
581.125,1502.0
581.661,1568.2
582.196,1593.6
582.731,1636.2
583.266,1664.2
583.801,1692.5
584.336,1713.4
584.87,1717.2
585.405,1736.5
585.94,1744.7
586.474,1770.5
587.008,1793.9
587.543,1792.7
588.077,1796.3
588.611,1817.0
589.145,1829.2
589.679,1865.5
590.213,1884.9
590.747,1900.7
591.28,1904.6
591.814,1940.6
592.347,1949.7
592.881,1955.1
593.414,1976.3
593.947,1975.0
594.48,1982.9
595.014,2007.4
595.547,2025.9
596.079,2031.2
596.612,2045.9
597.145,2056.4
597.678,2051.2
598.21,2089.2
598.743,2105.6
599.275,2103.2
599.807,2120.1
600.34,2116.5
600.872,2124.8
601.404,2119.6
601.936,2103.7
602.468,2089.4
603.0,2096.5
603.532,2072.2
604.063,2036.6
604.595,2013.6
605.126,1961.5
605.658,1926.3
606.189,1871.1
606.721,1847.4
607.252,1822.7
607.783,1795.3
608.314,1770.0
608.845,1745.9
609.376,1719.2
609.907,1693.6
610.438,1677.6
610.968,1648.9
611.499,1636.1
612.03,1619.9
612.56,1609.7
613.091,1605.6
613.621,1584.7
614.151,1568.8
614.681,1549.3
615.212,1534.7
615.742,1512.9
616.272,1496.1
616.802,1490.6
617.332,1476.4
617.861,1471.1
618.391,1467.0
618.921,1446.1
619.45,1444.7
619.98,1438.8
620.509,1416.8
621.039,1424.3
621.568,1428.6
622.097,1439.2
622.627,1425.1
623.156,1415.8
623.685,1408.4
624.214,1409.9
624.743,1409.0
625.272,1404.3
625.801,1419.9
626.33,1427.0
626.858,1615.6
627.387,1995.2
627.916,1746.5
628.444,1849.2
628.973,1816.7
629.501,1732.0
630.029,1653.5
630.558,1662.5
631.086,1555.4
631.614,1500.9
632.142,1482.3
632.67,1493.0
633.198,1480.7
633.726,1492.0
634.254,1492.1
634.782,1495.1
635.31,1493.3
635.838,1502.7
636.365,1512.3
636.893,1512.7
637.421,1509.8
637.948,1517.2
638.476,1508.5
639.003,1522.9
639.531,1518.9
640.058,1528.2
640.585,1524.8
641.113,1518.7
641.64,1530.6
642.167,1536.4
642.694,1537.4
643.221,1537.6
643.748,1532.0
644.275,1532.9
644.802,1539.2
645.329,1540.5
645.856,1538.5
646.382,1544.5
646.909,1537.2
647.436,1538.7
647.962,1543.3
648.489,1536.6
649.016,1525.8
649.542,1519.5
650.069,1514.2
650.595,1500.4
651.121,1508.5
651.648,1512.8
652.174,1502.5
652.7,1502.5
653.227,1503.1
653.753,1498.0
654.279,1492.2
654.805,1484.4
655.331,1481.3
655.857,1462.3
656.383,1466.2
656.909,1450.7
657.435,1449.6
657.961,1439.0
658.487,1420.8
659.013,1408.2
659.538,1394.9
660.064,1389.7
660.59,1368.9
661.116,1351.2
661.641,1327.8
662.167,1305.5
662.692,1303.7
663.087,1294.2