File: spectra/VLFR_02-HDPE_nobio_Raman_7c3a38b7.csv
nm,Intensity
526.532,830.133
527.079,830.333
527.625,830.0
528.172,829.933
528.718,829.4
529.265,829.233
529.811,830.1
530.357,828.933
530.903,829.767
531.449,830.6
531.994,833.667
532.54,830.2
533.085,830.033
533.63,830.8
534.176,900.9
534.721,900.167
535.266,896.467
535.81,871.1
536.355,864.5
536.9,861.7
537.444,860.867
537.988,860.7
538.533,858.6
539.077,855.333
539.621,854.667
540.165,853.1
540.708,852.4
541.252,852.467
541.795,852.933
542.339,852.767
542.882,851.033
543.425,850.5
543.968,852.3
544.511,851.033
545.054,852.167
545.597,851.0
546.139,851.467
546.682,851.367
547.224,851.767
547.766,852.2
548.308,850.8
548.85,852.1
549.392,850.667
549.934,850.933
550.475,851.9
551.017,853.3
551.558,853.1
552.1,853.1
552.641,852.0
553.182,853.067
553.723,853.167
554.264,855.733
554.804,857.067
555.345,854.167
555.885,856.633
556.426,857.0
556.966,856.967
557.506,858.267
558.046,860.433
558.586,858.767
559.126,858.3
559.665,859.267
560.205,856.133
560.745,858.067
561.284,857.967
561.823,857.767
562.362,858.533
562.901,861.5
563.44,863.1
563.979,959.5
564.518,879.133
565.056,873.267
565.595,868.067
566.133,946.567
566.671,868.133
567.21,867.7
567.748,868.9
568.285,860.533
568.823,858.567
569.361,861.967
569.899,861.767
570.436,866.4
570.974,869.8
571.511,1036.07
572.048,884.733
572.585,867.433
573.122,862.233
573.659,863.033
574.196,867.067
574.733,861.633
575.269,866.9
575.806,897.633
576.342,1026.8
576.878,943.933
577.414,912.4
577.951,871.433
578.486,864.633
579.022,862.967
579.558,862.167
580.094,862.8
580.629,862.533
581.165,863.0
581.7,862.833
582.236,861.933
582.771,863.3
583.306,863.1
583.841,862.9
584.376,863.8
584.911,863.233
585.445,864.667
585.98,864.3
586.514,866.367
587.049,866.567
587.583,868.033
588.117,867.233
588.651,868.433
589.186,865.733
589.72,866.767
590.253,869.733
590.787,869.267
591.321,870.233
591.854,870.2
592.388,869.367
592.921,870.6
593.455,870.7
593.988,871.1
594.521,872.867
595.054,874.267
595.587,874.2
596.12,875.7
596.653,872.367
597.186,876.833
597.718,873.5
598.251,880.567
598.783,879.833
599.316,880.133
599.848,880.733
600.38,881.767
600.912,882.367
601.444,881.0
601.976,885.2
602.508,883.067
603.04,882.1
603.572,881.567
604.103,880.4
604.635,879.733
605.167,878.067
605.698,876.5
606.229,876.4
606.761,874.9
607.292,874.067
607.823,872.1
608.354,873.033
608.885,873.933
609.416,872.933
609.947,872.2
610.477,873.767
611.008,874.1
611.539,872.8
612.069,871.333
612.6,871.8
613.13,873.2
613.66,869.2
614.19,869.733
614.721,872.433
615.251,872.667
615.781,871.533
616.311,872.167
616.841,878.9
617.37,884.833
617.9,884.7
618.43,883.967
618.96,885.067
619.489,887.633
620.019,887.333
620.548,889.7
621.077,896.733
621.607,912.733
622.136,954.767
622.665,941.6
623.194,899.533
623.723,892.633
624.252,889.0
624.781,887.2
625.31,894.1
625.839,906.833
626.368,951.667
626.896,1379.07
627.425,1857.0
627.953,1450.73
628.482,1917.77
629.01,1410.17
629.539,1283.7
630.067,1154.63
630.596,1126.17
631.124,976.567
631.652,908.567
632.18,892.4
632.708,888.033
633.236,884.367
633.764,880.133
634.292,875.7
634.82,874.733
635.348,873.5
635.876,872.8
636.403,871.6
636.931,873.467
637.459,868.667
637.986,867.267
638.514,865.867
639.041,868.033
639.568,866.433
640.096,865.133
640.623,866.267
641.15,865.367
641.678,866.467
642.205,866.2
642.732,865.667
643.259,865.0
643.786,864.467
644.313,864.967
644.84,863.6
645.367,863.067
645.894,863.1
646.421,862.533
646.948,863.367
647.474,862.0
648.001,863.233
648.528,862.767
649.054,862.067
649.581,860.033
650.108,862.8
650.634,863.233
651.161,864.233
651.687,861.067
652.214,863.367
652.74,862.0
653.266,861.1
653.793,862.2
654.319,860.7
654.845,861.433
655.371,860.6
655.897,860.167
656.424,859.3
656.95,862.1
657.476,860.433
658.002,861.567
658.528,861.067
659.054,862.067
659.58,860.9
660.106,864.3
660.631,862.167
661.157,859.933
661.683,860.9
662.209,858.567
662.735,858.533
663.129,858.633