File: spectra/VLFR_06-PET_bio_Raman_a105c92a.csv
nm,Intensity
526.549,832.3
527.096,832.2
527.643,831.75
528.19,832.7
528.737,832.3
529.283,832.7
529.83,831.85
530.376,832.95
530.922,831.65
531.468,831.9
532.014,844.7
532.559,833.2
533.105,832.9
533.65,846.35
534.196,1787.15
534.741,1551.45
535.286,1313.8
535.83,1181.8
536.375,1100.15
536.92,1067.45
537.464,1054.1
538.008,1053.7
538.553,1056.6
539.097,1057.35
539.641,1069.05
540.184,1073.45
540.728,1048.9
541.271,1040.65
541.815,1037.45
542.358,1045.75
542.901,1046.2
543.444,1043.1
543.987,1055.65
544.53,1050.1
545.072,1052.25
545.615,1055.6
546.157,1056.7
546.699,1054.2
547.242,1058.05
547.784,1057.15
548.325,1056.3
548.867,1061.65
549.409,1059.85
549.95,1061.25
550.492,1081.4
551.033,1069.15
551.574,1065.65
552.115,1067.3
552.656,1076.95
553.197,1081.65
553.737,1073.95
554.278,1073.35
554.818,1073.4
555.358,1085.65
555.899,1117.75
556.439,1125.7
556.979,1133.25
557.518,1240.3
558.058,1150.95
558.598,1143.6
559.137,1112.4
559.677,1099.65
560.216,1107.8
560.755,1103.7
561.294,1116.65
561.833,1122.85
562.372,1127.95
562.91,1135.65
563.449,1142.8
563.987,1141.8
564.526,1150.05
565.064,1188.35
565.602,1231.05
566.14,1229.15
566.678,1169.1
567.216,1163.2
567.754,1226.35
568.291,1165.1
568.829,1175.05
569.366,1180.15
569.904,1202.0
570.441,1245.8
570.978,1340.15
571.515,1404.95
572.052,1307.8
572.589,1229.25
573.125,1224.0
573.662,1230.85
574.199,1253.6
574.735,1246.85
575.271,1269.15
575.807,1259.75
576.344,1286.1
576.88,1292.75
577.415,1272.15
577.951,1274.4
578.487,1279.4
579.023,1281.85
579.558,1289.45
580.094,1297.25
580.629,1296.25
581.164,1318.65
581.699,1396.1
582.234,2249.65
582.769,1359.1
583.304,1327.0
583.839,1332.4
584.374,1342.75
584.908,1362.75
585.443,1446.45
585.977,1833.1
586.511,1610.35
587.046,1398.05
587.58,1375.35
588.114,1371.7
588.648,1358.75
589.182,1364.65
589.716,1363.55
590.249,1368.65
590.783,1367.9
591.316,1373.8
591.85,1377.65
592.383,1374.45
592.917,1371.0
593.45,1371.65
593.983,1375.25
594.516,1387.65
595.049,1382.1
595.582,1388.2
596.115,1395.75
596.647,1397.0
597.18,1399.75
597.712,1395.5
598.245,1408.0
598.777,1406.85
599.31,1404.25
599.842,1407.85
600.374,1406.25
600.906,1405.35
601.438,1404.7
601.97,1405.3
602.502,1408.05
603.034,1409.25
603.565,1407.8
604.097,1414.2
604.628,1409.5
605.16,1409.7
605.691,1401.5
606.223,1398.0
606.754,1396.9
607.285,1400.85
607.816,1398.85
608.347,1408.9
608.878,1403.4
609.409,1414.8
609.94,1405.05
610.47,1409.85
611.001,1404.1
611.532,1414.25
612.062,1422.55
612.593,1429.4
613.123,1431.75
613.653,1432.2
614.184,1441.7
614.714,1452.25
615.244,1446.0
615.774,1440.9
616.304,1448.2
616.834,1446.7
617.364,1458.75
617.894,1460.65
618.423,1464.1
618.953,1466.95
619.482,1462.15
620.012,1457.95
620.541,1462.5
621.071,1459.9
621.6,1469.7
622.13,1470.1
622.659,1474.8
623.188,1483.0
623.717,1493.15
624.246,1496.45
624.775,1505.6
625.304,1508.2
625.833,1504.7
626.362,1511.65
626.89,1515.2
627.419,1523.35
627.948,1525.75
628.476,1554.05
629.005,1570.75
629.533,1576.85
630.061,1578.65
630.59,1577.0
631.118,1636.8
631.646,1744.85
632.175,1731.65
632.703,1669.4
633.231,1653.25
633.759,1643.85
634.287,1626.35
634.815,1621.9
635.342,1634.55
635.87,1698.0
636.398,1808.5
636.926,1785.35
637.453,1679.0
637.981,1655.5
638.509,1658.75
639.036,1659.35
639.563,1670.45
640.091,1676.5
640.618,1686.95
641.146,1688.7
641.673,1694.25
642.2,1711.1
642.727,1708.35
643.254,1695.95
643.781,1693.35
644.309,1704.85
644.836,1704.6
645.362,1707.25
645.889,1711.75
646.416,1714.4
646.943,1730.55
647.47,1736.1
647.997,1734.8
648.523,1732.95
649.05,1736.2
649.577,1737.2
650.103,1733.35
650.63,1734.6
651.156,1734.85
651.683,1749.75
652.209,1744.5
652.735,1749.45
653.262,1751.3
653.788,1749.35
654.314,1751.4
654.841,1736.45
655.367,1739.05
655.893,1735.8
656.419,1743.2
656.945,1745.2
657.471,1737.8
657.997,1734.8
658.523,1738.5
659.049,1738.6
659.575,1736.0
660.101,1742.0
660.627,1729.55
661.153,1729.9
661.679,1722.0
662.205,1716.95
662.731,1718.5
663.125,1707.8