File: spectra/VLFR_02-HDPE_bio_Raman_123cdeff.csv
nm,Intensity
528.65,1837.25
529.155,1836.75
529.66,1836.1
530.165,1837.0
530.67,1837.25
531.175,1839.3
531.68,1886.05
532.185,4966.85
532.69,1841.05
533.194,1838.9
533.699,1941.0
534.204,2292.75
534.708,2301.3
535.213,2285.45
535.717,2139.35
536.222,2079.8
536.726,2063.6
537.231,2067.95
537.735,2067.4
538.239,2059.6
538.743,2048.7
539.247,2027.75
539.751,2019.9
540.255,2016.5
540.759,2018.45
541.263,2019.65
541.767,2028.6
542.271,2026.25
542.775,2026.3
543.279,2022.85
543.782,2021.5
544.286,2026.85
544.789,2020.7
545.293,2022.65
545.796,2022.5
546.3,2031.0
546.803,2030.3
547.306,2034.3
547.81,2027.6
548.313,2032.95
548.816,2030.85
549.319,2035.15
549.822,2033.45
550.325,2034.95
550.828,2045.3
551.331,2044.0
551.834,2059.6
552.337,2058.55
552.839,2059.3
553.342,2076.75
553.844,2082.25
554.347,2084.65
554.849,2084.6
555.352,2095.8
555.854,2103.05
556.357,2111.15
556.859,2130.3
557.361,2141.7
557.863,2155.45
558.365,2165.65
558.867,2155.9
559.369,2156.85
559.871,2143.1
560.373,2134.25
560.875,2144.6
561.377,2154.8
561.878,2166.7
562.38,2181.9
562.881,2192.2
563.383,2223.95
563.884,2894.4
564.386,2413.65
564.887,2340.1
565.388,2283.25
565.89,2589.6
566.391,2723.2
566.892,2243.6
567.393,2384.55
567.894,2223.4
568.395,2211.6
568.896,2216.95
569.396,2215.9
569.897,2223.15
570.398,2261.95
570.898,2314.45
571.399,3382.65
571.9,2631.55
572.4,2333.45
572.9,2260.95
573.401,2252.9
573.901,2344.2
574.401,2241.3
574.901,2249.0
575.401,2712.1
575.901,2787.95
576.401,3497.65
576.901,3099.8
577.401,2679.9
577.901,2351.0
578.4,2317.3
578.9,2299.85
579.399,2314.4
579.899,2334.25
580.398,2338.65
580.898,2350.0
581.397,2364.65
581.896,2368.05
582.395,2376.0
582.895,2389.15
583.394,2413.05
583.893,2414.9
584.391,2432.8
584.89,2445.35
585.389,2450.1
585.888,2479.25
586.386,2490.3
586.885,2534.4
587.384,2544.45
587.882,2568.05
588.38,2594.25
588.879,2634.2
589.377,2629.2
589.875,2683.8
590.373,2720.5
590.871,2742.05
591.369,2755.2
591.867,2838.4
592.365,2841.65
592.863,2862.75
593.361,2887.1
593.858,2928.5
594.356,2975.85
594.853,3011.65
595.351,3045.6
595.848,3096.4
596.345,3147.5
596.843,3183.4
597.34,3248.95
597.837,3291.25
598.334,3303.05
598.831,3359.95
599.328,3428.95
599.824,3427.1
600.321,3489.05
600.818,3477.55
601.314,3492.95
601.811,3507.7
602.307,3516.8
602.804,3473.55
603.3,3439.9
603.796,3400.9
604.293,3346.4
604.789,3327.45
605.285,3303.0
605.781,3217.7
606.277,3171.7
606.772,3139.05
607.268,3098.05
607.764,3045.35
608.259,3043.85
608.755,2995.6
609.25,2979.9
609.746,2964.75
610.241,2920.65
610.736,2938.3
611.231,2922.3
611.727,2857.85
612.222,2861.15
612.716,2841.05
613.211,2816.95
613.706,2798.0
614.201,2805.05
614.695,2783.45
615.19,2782.8
615.684,2777.05
616.179,2773.05
616.673,2767.1
617.168,2834.9
617.662,2848.3
618.156,2844.7
618.65,2811.1
619.144,2799.75
619.638,2859.15
620.131,2836.8
620.625,2854.65
621.119,2923.85
621.612,3151.7
622.106,3523.9
622.599,3352.1
623.093,2952.3
623.586,2835.8
624.079,2796.5
624.572,2778.15
625.065,2843.05
625.558,2899.05
626.051,3136.95
626.544,4683.35
627.037,12585.2
627.529,11549.0
628.022,9231.2
628.514,15236.5
629.007,8375.3
629.499,7046.3
629.991,5755.8
630.483,5441.45
630.976,4072.45
631.468,3079.15
631.959,2840.35
632.451,2721.1
632.943,2720.45
633.435,2679.25
633.926,2624.05
634.418,2583.6
634.909,2559.3
635.401,2557.4
635.892,2536.45
636.383,2531.25
636.874,2520.95
637.365,2488.65
637.856,2464.3
638.347,2468.65
638.838,2472.3
639.329,2477.1
639.819,2469.35
640.31,2469.35
640.8,2474.75
641.291,2458.55
641.781,2457.2
642.271,2472.55
642.761,2456.0
643.251,2453.1
643.741,2460.85
644.231,2466.65
644.721,2469.5
645.211,2478.4
645.7,2479.1
646.19,2462.3
646.679,2467.5
647.169,2457.6
647.658,2477.8
648.147,2454.85
648.636,2476.8
649.125,2469.85
649.614,2464.1
650.103,2465.75
650.592,2464.65
651.08,2459.3
651.569,2462.0
652.058,2463.25
652.546,2442.85
653.034,2440.5
653.523,2458.7
654.011,2442.95
654.499,2436.85
654.987,2421.45
655.475,2426.05
655.963,2404.2
656.45,2388.6
656.938,2388.3
657.425,2377.55
657.913,2369.9
658.4,2342.25
658.888,2326.6
659.375,2312.95
659.862,2314.05
660.349,2296.3
660.836,2280.7
661.079,2261.25