File: spectra/VLFR_08-PLA_nobio_Raman_ae20f206.csv
nm,Intensity
526.486,830.7
527.033,830.1
527.579,829.8
528.126,829.3
528.672,829.6
529.219,829.0
529.765,829.2
530.311,829.3
530.857,830.8
531.403,829.1
531.948,832.4
532.494,832.4
533.039,829.7
533.585,831.2
534.13,1040.0
534.675,1001.9
535.22,966.7
535.764,945.4
536.309,932.3
536.854,935.3
537.398,926.8
537.942,925.0
538.486,913.6
539.03,911.9
539.574,908.8
540.118,900.9
540.662,917.2
541.205,920.4
541.749,913.2
542.292,907.8
542.835,911.0
543.378,927.9
543.921,940.3
544.464,916.0
545.006,905.8
545.549,904.1
546.091,904.6
546.634,902.3
547.176,906.6
547.718,906.7
548.26,907.3
548.802,906.3
549.343,911.6
549.885,909.0
550.426,913.8
550.968,914.4
551.509,913.6
552.05,919.8
552.591,922.8
553.132,921.7
553.673,923.6
554.214,930.8
554.754,919.3
555.295,917.7
555.835,912.4
556.375,910.9
556.915,914.2
557.455,932.3
557.995,1042.3
558.535,955.8
559.075,933.2
559.614,924.0
560.154,927.1
560.693,924.2
561.232,919.1
561.772,917.2
562.311,920.0
562.85,931.7
563.388,961.9
563.927,944.7
564.466,934.1
565.004,953.4
565.543,950.6
566.081,975.8
566.619,953.0
567.157,927.0
567.695,936.5
568.233,937.9
568.771,934.9
569.309,933.5
569.846,935.2
570.384,935.1
570.921,935.5
571.458,954.8
571.995,956.7
572.532,953.0
573.069,948.3
573.606,962.6
574.143,951.6
574.68,962.4
575.216,939.5
575.753,937.5
576.289,960.0
576.825,1018.5
577.361,966.4
577.897,942.2
578.433,942.6
578.969,943.2
579.505,940.7
580.041,943.2
580.576,936.5
581.112,942.4
581.647,940.6
582.183,941.7
582.718,941.4
583.253,945.2
583.788,943.2
584.323,947.3
584.858,945.3
585.392,948.4
585.927,945.3
586.462,960.3
586.996,992.9
587.53,1021.9
588.065,975.3
588.599,949.7
589.133,944.9
589.667,944.8
590.201,946.6
590.735,941.8
591.268,945.0
591.802,947.6
592.335,945.6
592.869,947.3
593.402,946.6
593.936,947.8
594.469,941.3
595.002,943.2
595.535,945.4
596.068,947.1
596.601,945.4
597.133,946.7
597.666,943.6
598.199,943.5
598.731,949.7
599.264,951.2
599.796,946.4
600.328,951.3
600.86,948.5
601.393,949.5
601.925,948.8
602.457,948.3
602.988,944.6
603.52,949.4
604.052,949.5
604.583,944.1
605.115,947.5
605.646,941.7
606.178,943.0
606.709,939.3
607.24,944.6
607.771,943.1
608.302,948.2
608.833,945.2
609.364,946.5
609.895,947.1
610.426,949.2
610.957,945.2
611.487,945.1
612.018,943.0
612.548,945.7
613.078,946.3
613.609,947.3
614.139,948.9
614.669,952.2
615.199,946.1
615.729,950.1
616.259,954.7
616.789,948.9
617.319,949.2
617.849,946.3
618.378,946.1
618.908,944.8
619.437,947.3
619.967,945.8
620.496,942.1
621.025,943.3
621.555,947.6
622.084,948.2
622.613,955.7
623.142,960.7
623.671,960.3
624.2,954.2
624.729,949.8
625.258,940.0
625.786,949.6
626.315,940.8
626.844,946.3
627.372,942.5
627.901,953.3
628.429,1022.6
628.957,1013.8
629.486,1014.4
630.014,1011.5
630.542,1068.3
631.07,1467.4
631.598,1235.9
632.126,1081.8
632.654,1059.8
633.182,1152.1
633.71,1122.2
634.237,1016.1
634.765,965.8
635.293,948.6
635.82,944.7
636.348,935.4
636.875,932.8
637.403,934.1
637.93,930.9
638.458,932.0
638.985,933.7
639.512,932.1
640.039,930.2
640.566,932.9
641.093,931.6
641.62,930.8
642.147,931.1
642.674,929.4
643.201,929.4
643.728,923.4
644.255,922.2
644.781,919.7
645.308,921.8
645.835,922.3
646.361,918.4
646.888,918.9
647.414,919.5
647.941,918.7
648.467,915.2
648.993,914.2
649.52,915.8
650.046,916.9
650.572,914.8
651.098,913.7
651.625,914.6
652.151,911.9
652.677,912.8
653.203,910.5
653.729,912.0
654.255,909.3
654.78,908.0
655.306,908.7
655.832,907.8
656.358,909.6
656.884,912.7
657.409,909.2
657.935,909.7
658.461,910.9
658.986,905.3
659.512,910.2
660.037,906.7
660.563,905.2
661.088,903.0
661.614,904.5
662.139,901.6
662.664,903.0
663.058,902.3