File: spectra/VLFR_06-PET_bio_Raman_facab51f.csv
nm,Intensity
526.549,832.35
527.096,832.45
527.643,832.25
528.19,832.5
528.737,831.85
529.283,832.75
529.83,831.15
530.376,831.6
530.922,832.7
531.468,833.05
532.014,843.95
532.559,831.95
533.105,832.0
533.65,860.3
534.196,2598.15
534.741,2094.1
535.286,1615.45
535.83,1324.1
536.375,1156.0
536.92,1091.55
537.464,1062.65
538.008,1052.2
538.553,1061.75
539.097,1057.9
539.641,1081.9
540.184,1085.1
540.728,1034.7
541.271,1014.1
541.815,1008.6
542.358,1006.8
542.901,1012.65
543.444,1007.25
543.987,1022.15
544.53,1009.4
545.072,1013.45
545.615,1017.25
546.157,1013.35
546.699,1013.45
547.242,1012.85
547.784,1013.15
548.325,1012.5
548.867,1012.9
549.409,1011.9
549.95,1012.55
550.492,1052.3
551.033,1028.55
551.574,1016.15
552.115,1025.9
552.656,1033.1
553.197,1041.05
553.737,1021.8
554.278,1023.6
554.818,1021.6
555.358,1044.6
555.899,1106.5
556.439,1124.7
556.979,1132.6
557.518,1355.25
558.058,1158.35
558.598,1153.35
559.137,1078.35
559.677,1045.7
560.216,1046.55
560.755,1042.5
561.294,1049.7
561.833,1059.05
562.372,1076.25
562.91,1096.35
563.449,1092.55
563.987,1071.1
564.526,1096.5
565.064,1163.75
565.602,1252.3
566.14,1229.85
566.678,1109.4
567.216,1088.15
567.754,1213.05
568.291,1102.55
568.829,1096.6
569.366,1109.65
569.904,1144.65
570.441,1221.0
570.978,1410.95
571.515,1547.8
572.052,1316.1
572.589,1167.7
573.125,1138.7
573.662,1142.85
574.199,1183.8
574.735,1155.9
575.271,1209.6
575.807,1166.25
576.344,1209.8
576.88,1225.25
577.415,1175.25
577.951,1161.6
578.487,1169.65
579.023,1172.3
579.558,1173.35
580.094,1181.65
580.629,1188.7
581.164,1219.05
581.699,1371.8
582.234,3050.95
582.769,1272.4
583.304,1220.55
583.839,1220.65
584.374,1228.9
584.908,1254.7
585.443,1432.9
585.977,2159.6
586.511,1728.05
587.046,1308.5
587.58,1243.75
588.114,1230.05
588.648,1231.15
589.182,1230.9
589.716,1232.4
590.249,1227.6
590.783,1226.25
591.316,1233.85
591.85,1229.75
592.383,1228.9
592.917,1227.9
593.45,1227.85
593.983,1230.65
594.516,1229.8
595.049,1236.7
595.582,1237.3
596.115,1237.85
596.647,1241.05
597.18,1242.1
597.712,1235.35
598.245,1239.85
598.777,1246.35
599.31,1246.05
599.842,1240.25
600.374,1245.3
600.906,1240.55
601.438,1237.9
601.97,1240.0
602.502,1241.2
603.034,1241.85
603.565,1244.7
604.097,1248.75
604.628,1239.65
605.16,1240.0
605.691,1236.15
606.223,1231.0
606.754,1236.3
607.285,1236.3
607.816,1236.2
608.347,1242.0
608.878,1239.65
609.409,1235.1
609.94,1235.15
610.47,1241.55
611.001,1233.3
611.532,1244.15
612.062,1247.45
612.593,1251.25
613.123,1254.25
613.653,1260.35
614.184,1260.95
614.714,1267.7
615.244,1258.1
615.774,1260.15
616.304,1261.15
616.834,1270.3
617.364,1273.05
617.894,1282.6
618.423,1287.55
618.953,1280.5
619.482,1278.65
620.012,1273.3
620.541,1276.6
621.071,1268.6
621.6,1273.75
622.13,1281.6
622.659,1286.5
623.188,1285.6
623.717,1288.9
624.246,1299.45
624.775,1308.45
625.304,1308.65
625.833,1307.5
626.362,1310.55
626.89,1308.8
627.419,1312.55
627.948,1323.95
628.476,1345.05
629.005,1377.9
629.533,1372.2
630.061,1366.75
630.59,1371.9
631.118,1467.2
631.646,1638.45
632.175,1601.15
632.703,1493.05
633.231,1481.7
633.759,1446.15
634.287,1412.0
634.815,1387.05
635.342,1407.4
635.87,1498.8
636.398,1681.25
636.926,1627.7
637.453,1457.45
637.981,1417.65
638.509,1404.3
639.036,1408.25
639.563,1413.45
640.091,1413.3
640.618,1414.35
641.146,1412.95
641.673,1418.55
642.2,1433.05
642.727,1441.2
643.254,1425.15
643.781,1422.0
644.309,1418.55
644.836,1422.45
645.362,1421.75
645.889,1427.3
646.416,1431.0
646.943,1436.05
647.47,1443.3
647.997,1436.0
648.523,1433.65
649.05,1431.3
649.577,1436.9
650.103,1437.75
650.63,1437.55
651.156,1437.15
651.683,1441.6
652.209,1446.9
652.735,1442.8
653.262,1440.55
653.788,1450.35
654.314,1441.55
654.841,1444.4
655.367,1444.6
655.893,1447.65
656.419,1440.4
656.945,1444.15
657.471,1446.1
657.997,1442.55
658.523,1443.65
659.049,1445.0
659.575,1445.6
660.101,1442.65
660.627,1439.4
661.153,1438.2
661.679,1426.55
662.205,1429.7
662.731,1424.95
663.125,1426.9