File: spectra/VLFR_02-HDPE_nobio_Raman_2b3cf964.csv
nm,Intensity
526.5,828.7
527.047,829.6
527.594,829.0
528.14,829.5
528.687,829.5
529.233,829.2
529.779,829.0
530.325,829.7
530.871,828.2
531.417,830.5
531.962,831.4
532.508,829.4
533.053,830.0
533.599,828.8
534.144,889.1
534.689,876.4
535.234,866.1
535.778,857.5
536.323,854.0
536.867,850.9
537.412,848.4
537.956,847.4
538.5,846.8
539.044,844.3
539.588,843.1
540.132,841.1
540.675,841.7
541.219,842.0
541.762,841.8
542.305,840.5
542.848,840.8
543.391,842.3
543.934,843.0
544.477,839.7
545.02,840.8
545.562,839.8
546.105,838.8
546.647,840.3
547.189,838.4
547.731,840.8
548.273,840.6
548.815,841.1
549.356,840.7
549.898,838.3
550.439,839.8
550.981,839.7
551.522,839.8
552.063,841.3
552.604,840.1
553.145,841.1
553.686,843.7
554.226,842.8
554.767,843.3
555.307,840.3
555.848,844.2
556.388,845.2
556.928,846.9
557.468,848.4
558.008,850.3
558.547,853.5
559.087,849.2
559.626,849.0
560.166,849.0
560.705,847.2
561.244,849.2
561.783,845.5
562.322,849.1
562.861,851.8
563.4,855.5
563.939,936.3
564.477,872.8
565.015,866.9
565.554,863.2
566.092,1002.7
566.63,868.3
567.168,854.6
567.706,854.8
568.244,850.9
568.781,851.0
569.319,854.2
569.857,851.2
570.394,855.6
570.931,862.7
571.468,983.6
572.005,877.3
572.542,858.0
573.079,853.6
573.616,854.7
574.153,862.1
574.689,851.7
575.226,860.2
575.762,939.5
576.298,944.0
576.834,911.4
577.371,888.0
577.907,859.5
578.442,854.9
578.978,852.0
579.514,852.4
580.049,853.6
580.585,852.8
581.12,854.9
581.656,852.9
582.191,852.8
582.726,854.7
583.261,855.7
583.796,857.2
584.331,858.5
584.865,862.0
585.4,864.7
585.935,868.9
586.469,872.8
587.004,873.9
587.538,878.4
588.072,878.1
588.606,885.9
589.14,890.0
589.674,891.3
590.208,898.3
590.742,899.7
591.275,903.6
591.809,902.6
592.342,902.4
592.876,901.3
593.409,903.2
593.942,898.7
594.476,896.7
595.009,897.4
595.542,894.4
596.075,894.5
596.607,893.1
597.14,892.0
597.673,890.6
598.205,893.3
598.738,890.2
599.27,890.6
599.803,894.3
600.335,889.0
600.867,886.0
601.399,892.6
601.931,893.0
602.463,889.2
602.995,889.5
603.527,888.8
604.058,886.7
604.59,885.7
605.122,885.2
605.653,881.5
606.184,881.4
606.716,881.6
607.247,878.0
607.778,881.5
608.309,879.4
608.84,875.7
609.371,879.0
609.902,877.3
610.433,877.3
610.964,879.3
611.494,880.7
612.025,874.6
612.556,873.4
613.086,873.9
613.616,870.9
614.147,873.5
614.677,871.9
615.207,873.4
615.737,870.8
616.267,873.1
616.797,871.5
617.327,878.1
617.857,872.1
618.387,873.1
618.917,871.6
619.446,875.3
619.976,874.1
620.505,873.8
621.035,877.2
621.564,880.2
622.093,894.6
622.623,895.1
623.152,875.9
623.681,876.0
624.21,870.9
624.739,874.2
625.268,876.2
625.797,880.3
626.326,898.2
626.855,1062.1
627.383,1404.9
627.912,1178.9
628.441,1288.7
628.969,1215.0
629.498,1144.6
630.026,1066.6
630.554,1048.2
631.083,947.9
631.611,895.7
632.139,882.5
632.667,880.6
633.195,873.9
633.724,873.7
634.252,870.8
634.779,869.3
635.307,868.0
635.835,869.7
636.363,869.6
636.891,867.7
637.418,868.4
637.946,870.1
638.474,868.8
639.001,867.6
639.529,867.7
640.056,869.3
640.583,870.6
641.111,873.1
641.638,872.1
642.165,873.8
642.692,876.1
643.22,875.4
643.747,874.6
644.274,873.2
644.801,872.9
645.328,872.0
645.854,874.5
646.381,872.4
646.908,873.6
647.435,868.7
647.962,871.0
648.488,869.7
649.015,869.8
649.542,868.9
650.068,866.7
650.595,870.7
651.121,865.7
651.648,869.1
652.174,866.9
652.7,866.1
653.227,865.6
653.753,862.9
654.279,862.6
654.805,863.9
655.331,862.6
655.858,862.8
656.384,862.6
656.91,862.4
657.436,864.0
657.962,862.9
658.488,862.3
659.013,862.6
659.539,860.6
660.065,862.6
660.591,862.3
661.117,859.4
661.642,858.7
662.168,856.7
662.694,859.6
663.088,855.7