File: spectra/VLFR_08-PLA_bio_Raman_3c1c2dac.csv
nm,Intensity
528.65,1826.25
529.155,1826.65
529.66,1828.45
530.165,1828.05
530.67,1827.1
531.175,1830.4
531.68,1873.85
532.185,4366.2
532.69,1828.95
533.194,1829.1
533.699,1969.3
534.204,2427.8
534.708,2405.15
535.213,2398.9
535.717,2374.25
536.222,2378.15
536.726,2410.75
537.231,2406.55
537.735,2409.05
538.239,2410.8
538.743,2396.25
539.247,2430.8
539.751,2414.8
540.255,2454.4
540.759,2482.35
541.263,2481.35
541.767,2472.3
542.271,2486.05
542.775,2506.6
543.279,2557.95
543.782,2583.6
544.286,2572.0
544.789,2523.75
545.293,2551.7
545.796,2566.5
546.3,2592.5
546.803,2601.6
547.306,2614.0
547.81,2613.8
548.313,2657.3
548.816,2659.25
549.319,2659.3
549.822,2670.65
550.325,2689.75
550.828,2714.25
551.331,2715.6
551.834,2746.5
552.337,2736.15
552.839,2762.2
553.342,2753.2
553.844,2752.85
554.347,2795.1
554.849,2781.4
555.352,2763.2
555.854,2780.0
556.357,2784.5
556.859,2788.9
557.361,2822.05
557.863,2973.45
558.365,2935.55
558.867,2846.5
559.369,2835.0
559.871,2824.6
560.373,2833.75
560.875,2861.05
561.377,2872.5
561.878,2873.9
562.38,2857.0
562.881,2920.7
563.383,2949.0
563.884,2933.0
564.386,2908.85
564.887,2974.35
565.388,2997.65
565.89,3025.55
566.391,3046.5
566.892,2961.45
567.393,2989.05
567.894,2995.9
568.395,3010.0
568.896,3018.7
569.396,2992.6
569.897,3031.4
570.398,3025.5
570.898,3036.85
571.399,3099.1
571.9,3113.15
572.4,3094.0
572.9,3076.8
573.401,3122.45
573.901,3074.15
574.401,3092.75
574.901,3076.7
575.401,3089.55
575.901,3118.7
576.401,3192.55
576.901,3236.6
577.401,3137.15
577.901,3085.9
578.4,3063.45
578.9,3090.15
579.399,3082.8
579.899,3127.95
580.398,3115.2
580.898,3087.8
581.397,3093.5
581.896,3087.45
582.395,3087.35
582.895,3064.15
583.394,3110.5
583.893,3055.2
584.391,3089.15
584.89,3091.05
585.389,3091.2
585.888,3069.4
586.386,3081.85
586.885,3161.6
587.384,3186.75
587.882,3110.9
588.38,3080.3
588.879,3067.35
589.377,3035.8
589.875,3046.55
590.373,3067.35
590.871,3050.95
591.369,3046.5
591.867,3030.6
592.365,3024.75
592.863,3007.15
593.361,3019.8
593.858,2998.75
594.356,3044.1
594.853,3051.4
595.351,3016.8
595.848,3035.1
596.345,3018.3
596.843,3043.95
597.34,3021.95
597.837,3019.55
598.334,3031.55
598.831,3008.1
599.328,3032.4
599.824,3042.25
600.321,3016.25
600.818,3027.9
601.314,3040.1
601.811,3018.25
602.307,3031.95
602.804,3029.9
603.3,3035.85
603.796,3000.7
604.293,3028.3
604.789,3009.9
605.285,3002.6
605.781,2970.85
606.277,3019.15
606.772,3004.5
607.268,3002.75
607.764,2992.8
608.259,2989.35
608.755,2994.3
609.25,2974.3
609.746,2984.85
610.241,3012.25
610.736,2997.15
611.231,3000.2
611.727,2963.8
612.222,2993.75
612.716,2967.4
613.211,2995.5
613.706,2950.75
614.201,2978.4
614.695,2966.05
615.19,2982.45
615.684,2947.65
616.179,2962.85
616.673,2940.1
617.168,2978.2
617.662,2952.25
618.156,2961.0
618.65,2919.75
619.144,2959.95
619.638,2933.15
620.131,2907.25
620.625,2930.55
621.119,2922.9
621.612,2909.85
622.106,2889.2
622.599,2931.25
623.093,2912.65
623.586,2923.6
624.079,2871.15
624.572,2875.55
625.065,2886.25
625.558,2881.85
626.051,2867.2
626.544,2835.45
627.037,2858.25
627.529,2825.15
628.022,2863.05
628.514,2963.55
629.007,2925.15
629.499,2928.55
629.991,2906.05
630.483,3044.75
630.976,3516.5
631.468,3358.15
631.959,3061.45
632.451,2971.8
632.943,3068.6
633.435,3068.8
633.926,2927.65
634.418,2786.9
634.909,2755.8
635.401,2706.15
635.892,2697.4
636.383,2697.3
636.874,2701.0
637.365,2647.8
637.856,2670.85
638.347,2676.05
638.838,2648.05
639.329,2654.45
639.819,2631.95
640.31,2627.8
640.8,2627.85
641.291,2591.55
641.781,2603.65
642.271,2587.8
642.761,2567.4
643.251,2566.25
643.741,2545.65
644.231,2553.9
644.721,2529.75
645.211,2519.15
645.7,2534.2
646.19,2520.15
646.679,2501.55
647.169,2499.05
647.658,2483.15
648.147,2476.75
648.636,2444.2
649.125,2457.15
649.614,2478.3
650.103,2418.45
650.592,2412.05
651.08,2415.2
651.569,2407.8
652.058,2420.25
652.546,2385.2
653.034,2392.35
653.523,2381.5
654.011,2357.2
654.499,2359.85
654.987,2342.1
655.475,2361.25
655.963,2340.35
656.45,2320.8
656.938,2318.0
657.425,2309.0
657.913,2296.1
658.4,2288.65
658.888,2281.55
659.375,2286.55
659.862,2273.7
660.349,2262.55
660.836,2247.8
661.079,2257.9