File: spectra/VLFR_06-PET_nobio_Raman_9a38f7cd.csv
nm,Intensity
526.547,832.8
527.094,831.7
527.641,831.9
528.188,832.6
528.734,832.1
529.281,833.2
529.827,833.7
530.373,831.3
530.92,832.5
531.466,833.9
532.011,838.8
532.557,832.7
533.103,832.1
533.648,852.2
534.193,2139.3
534.738,1754.5
535.283,1403.5
535.828,1214.9
536.373,1095.6
536.917,1043.0
537.462,1024.9
538.006,1016.5
538.55,1027.2
539.094,1028.3
539.638,1045.7
540.182,1054.0
540.726,1007.5
541.269,1000.2
541.812,1002.1
542.356,1001.3
542.899,995.9
543.442,1000.5
543.985,1018.8
544.527,1015.0
545.07,1014.0
545.612,1014.6
546.155,1027.2
546.697,1021.5
547.239,1029.7
547.781,1036.5
548.323,1035.5
548.865,1038.6
549.406,1044.2
549.948,1041.5
550.489,1072.1
551.03,1063.9
551.572,1059.9
552.113,1066.9
552.654,1079.3
553.194,1084.3
553.735,1074.0
554.276,1084.8
554.816,1089.9
555.356,1104.1
555.896,1155.1
556.437,1155.6
556.977,1183.9
557.516,1347.0
558.056,1199.8
558.596,1200.9
559.135,1150.0
559.675,1133.7
560.214,1136.3
560.753,1142.9
561.292,1145.7
561.831,1147.8
562.37,1168.5
562.909,1194.1
563.448,1199.7
563.986,1190.2
564.525,1211.4
565.063,1257.1
565.601,1336.8
566.139,1321.5
566.677,1226.2
567.215,1218.0
567.753,1313.8
568.291,1228.2
568.828,1233.5
569.366,1255.5
569.903,1282.5
570.441,1333.9
570.978,1477.3
571.515,1576.4
572.052,1426.7
572.589,1318.1
573.126,1296.3
573.662,1304.7
574.199,1338.9
574.735,1333.3
575.272,1359.3
575.808,1344.4
576.344,1372.3
576.88,1388.8
577.416,1353.3
577.952,1354.6
578.488,1363.3
579.024,1377.0
579.559,1372.8
580.095,1386.2
580.63,1394.6
581.166,1412.2
581.701,1528.0
582.236,2751.1
582.771,1463.2
583.306,1438.1
583.841,1434.3
584.376,1439.6
584.911,1468.6
585.445,1603.3
585.98,2144.0
586.514,1819.1
587.048,1514.7
587.583,1486.7
588.117,1473.5
588.651,1474.6
589.185,1482.5
589.719,1478.1
590.253,1483.4
590.786,1478.3
591.32,1483.3
591.853,1499.0
592.387,1495.5
592.92,1495.3
593.454,1499.0
593.987,1509.5
594.52,1504.2
595.053,1528.2
595.586,1521.1
596.119,1525.0
596.651,1531.3
597.184,1540.7
597.717,1534.6
598.249,1559.1
598.782,1564.0
599.314,1560.7
599.846,1558.9
600.379,1552.3
600.911,1569.0
601.443,1563.0
601.975,1556.4
602.507,1568.7
603.038,1575.8
603.57,1581.0
604.102,1582.3
604.633,1576.0
605.165,1576.3
605.696,1559.4
606.228,1571.0
606.759,1569.9
607.29,1569.0
607.821,1580.9
608.352,1593.0
608.883,1593.4
609.414,1591.0
609.945,1595.5
610.476,1601.8
611.006,1597.1
611.537,1589.9
612.067,1597.0
612.598,1615.6
613.128,1637.0
613.659,1648.5
614.189,1645.0
614.719,1644.2
615.249,1638.1
615.779,1640.4
616.309,1636.3
616.839,1656.8
617.369,1656.0
617.899,1677.9
618.428,1673.8
618.958,1681.7
619.487,1673.5
620.017,1688.3
620.546,1676.4
621.076,1679.8
621.605,1687.6
622.134,1699.5
622.663,1698.1
623.193,1730.5
623.722,1729.0
624.251,1735.4
624.78,1757.1
625.308,1746.7
625.837,1763.8
626.366,1767.3
626.895,1761.9
627.423,1770.4
627.952,1780.4
628.48,1805.2
629.009,1837.9
629.537,1845.0
630.065,1839.0
630.594,1843.0
631.122,1929.3
631.65,2068.2
632.178,2049.6
632.706,1973.7
633.234,1964.5
633.762,1938.8
634.29,1904.9
634.818,1913.9
635.346,1925.1
635.873,2001.8
636.401,2150.7
636.929,2121.6
637.456,2005.2
637.984,1985.6
638.511,1977.1
639.039,1977.7
639.566,1992.9
640.093,1985.4
640.62,2004.5
641.148,2023.6
641.675,2016.1
642.202,2026.9
642.729,2034.6
643.256,2017.5
643.783,2017.2
644.31,2025.3
644.837,2032.6
645.364,2034.3
645.891,2046.7
646.417,2047.2
646.944,2067.3
647.471,2075.9
647.997,2059.1
648.524,2060.2
649.051,2056.5
649.577,2064.5
650.104,2068.7
650.63,2058.6
651.157,2068.0
651.683,2081.6
652.209,2091.4
652.736,2093.0
653.262,2095.3
653.788,2099.5
654.314,2087.1
654.84,2096.6
655.366,2104.6
655.893,2098.2
656.419,2089.1
656.945,2102.1
657.471,2099.4
657.997,2092.6
658.522,2104.2
659.048,2094.5
659.574,2112.0
660.1,2104.8
660.626,2103.2
661.152,2084.8
661.677,2078.0
662.203,2069.1
662.729,2078.9
663.123,2066.2