File: spectra/VLFR_02-HDPE_bio_Raman_da0a41ad.csv
nm,Intensity
526.508,827.3
527.055,829.1
527.602,826.6
528.149,826.8
528.695,829.8
529.241,827.6
529.787,828.6
530.334,828.0
530.879,827.6
531.425,827.9
531.971,836.6
532.516,829.4
533.062,827.1
533.607,827.3
534.152,891.1
534.697,884.0
535.242,872.1
535.786,865.3
536.331,859.4
536.876,858.2
537.42,858.9
537.964,856.8
538.508,855.9
539.052,851.3
539.596,851.5
540.14,849.8
540.683,848.7
541.227,848.9
541.77,848.7
542.313,849.8
542.856,845.8
543.399,844.7
543.942,845.8
544.485,847.0
545.027,844.7
545.57,845.6
546.112,843.8
546.654,844.7
547.196,844.9
547.738,845.9
548.28,844.0
548.822,846.3
549.363,845.1
549.905,844.7
550.446,844.2
550.988,846.8
551.529,845.1
552.07,843.6
552.611,845.5
553.152,844.7
553.692,847.3
554.233,845.6
554.773,846.2
555.314,850.5
555.854,849.5
556.394,850.7
556.934,849.7
557.474,852.1
558.014,857.0
558.553,856.3
559.093,855.3
559.632,854.2
560.172,854.0
560.711,854.7
561.25,855.2
561.789,855.6
562.328,859.2
562.867,862.6
563.406,865.8
563.944,925.2
564.483,878.8
565.021,872.4
565.559,876.1
566.098,985.3
566.636,875.3
567.174,868.0
567.711,867.1
568.249,864.3
568.787,861.8
569.324,860.9
569.862,865.1
570.399,867.4
570.936,870.3
571.474,968.2
572.011,887.8
572.548,871.9
573.084,865.6
573.621,865.2
574.158,870.5
574.694,863.7
575.231,871.4
575.767,931.9
576.303,935.3
576.84,915.6
577.376,892.6
577.912,868.2
578.447,863.5
578.983,864.4
579.519,865.7
580.054,867.1
580.59,868.6
581.125,864.7
581.661,868.9
582.196,867.1
582.731,869.4
583.266,874.3
583.801,876.8
584.336,875.9
584.87,881.5
585.405,880.1
585.94,884.7
586.474,887.5
587.008,888.7
587.543,890.9
588.077,888.1
588.611,888.3
589.145,890.0
589.679,892.1
590.213,889.9
590.747,888.6
591.28,890.1
591.814,891.5
592.347,885.8
592.881,886.3
593.414,886.9
593.947,885.5
594.48,887.8
595.014,888.4
595.547,887.1
596.079,886.3
596.612,886.4
597.145,886.2
597.678,889.8
598.21,893.5
598.743,891.4
599.275,894.3
599.807,896.5
600.34,893.3
600.872,893.2
601.404,891.1
601.936,895.8
602.468,895.2
603.0,895.6
603.532,894.4
604.063,895.0
604.595,895.8
605.126,893.7
605.658,893.8
606.189,894.3
606.721,894.5
607.252,893.3
607.783,897.5
608.314,898.6
608.845,896.8
609.376,897.8
609.907,894.6
610.438,898.4
610.968,902.7
611.499,902.7
612.03,895.5
612.56,896.3
613.091,894.8
613.621,898.5
614.151,899.9
614.681,894.3
615.212,896.7
615.742,896.2
616.272,898.3
616.802,896.8
617.332,903.0
617.861,899.8
618.391,896.7
618.921,895.0
619.45,899.4
619.98,896.4
620.509,899.3
621.039,902.6
621.568,902.0
622.097,915.8
622.627,913.9
623.156,901.5
623.685,897.6
624.214,892.9
624.743,892.0
625.272,895.2
625.801,898.4
626.33,914.2
626.858,1067.0
627.387,1385.4
627.916,1178.8
628.444,1278.0
628.973,1200.3
629.501,1137.9
630.029,1066.0
630.558,1051.1
631.086,956.8
631.614,915.8
632.142,897.1
632.67,894.9
633.198,893.2
633.726,890.7
634.254,886.1
634.782,883.4
635.31,885.2
635.838,885.3
636.365,886.8
636.893,885.6
637.421,884.9
637.948,884.4
638.476,881.0
639.003,886.1
639.531,887.6
640.058,884.8
640.585,885.1
641.113,887.6
641.64,884.2
642.167,884.7
642.694,884.2
643.221,880.1
643.748,881.1
644.275,877.8
644.802,877.5
645.329,880.6
645.856,876.5
646.382,878.4
646.909,877.4
647.436,874.7
647.962,876.2
648.489,877.3
649.016,874.1
649.542,876.2
650.069,872.0
650.595,875.3
651.121,876.2
651.648,875.7
652.174,874.0
652.7,871.4
653.227,872.8
653.753,870.7
654.279,873.2
654.805,871.4
655.331,875.2
655.857,872.1
656.383,870.8
656.909,871.9
657.435,871.9
657.961,871.7
658.487,868.8
659.013,871.1
659.538,873.8
660.064,871.2
660.59,871.1
661.116,868.9
661.641,867.9
662.167,867.8
662.692,864.2
663.087,870.4