File: spectra/VLFR_07-PET_bio_Raman_e2af9574.csv
nm,Intensity
791.377,8018.4
792.477,7705.92
793.576,7481.64
794.676,7415.48
795.775,7266.54
796.874,7329.98
797.973,7279.72
799.072,7236.16
800.171,7135.42
801.27,7129.62
802.368,7161.5
803.467,6975.44
804.565,6943.28
805.664,6932.2
806.762,6832.74
807.86,6754.14
808.958,6742.46
810.056,6717.38
811.153,6638.96
812.251,6631.86
813.349,6525.72
814.446,6502.66
815.543,6469.0
816.64,6421.98
817.737,6321.58
818.834,6336.96
819.931,6279.98
821.028,6231.3
822.125,6239.86
823.221,6107.58
824.317,6092.9
825.414,6125.42
826.51,6085.32
827.606,6000.82
828.702,5919.38
829.797,5903.3
830.893,5957.0
831.988,5790.24
833.084,5770.34
834.179,5768.74
835.274,5702.18
836.369,5731.94
837.464,5698.76
838.559,5692.82
839.654,5667.38
840.748,5646.62
841.843,5710.0
842.937,5616.48
844.031,5578.02
845.125,5465.8
846.219,5466.24
847.313,5372.76
848.407,5391.66
849.5,5413.2
850.593,5356.4
851.687,5362.32
852.78,5292.6
853.873,5267.56
854.966,5259.12
856.059,5273.42
857.151,5236.8
858.244,5256.8
859.336,5251.6
860.428,5249.48
861.52,5224.58
862.612,5153.06
863.704,5161.66
864.796,5133.92
865.888,5098.74
866.979,5055.8
868.07,5040.62
869.162,5057.72
870.253,5063.34
871.344,5071.6
872.434,5122.68
873.525,5102.38
874.615,5079.7
875.706,4964.82
876.796,4954.28
877.886,4924.82
878.976,4890.02
880.066,4892.1
881.156,4868.06
882.245,4875.7
883.335,4828.86
884.424,4808.28
885.513,4809.0
886.602,4785.14
887.691,4743.52
888.78,4793.28
889.868,4732.74
890.957,4710.48
892.045,4715.72
893.133,4676.5
894.221,4608.86
895.309,4637.7
896.397,4597.88
897.484,4664.78
898.571,4810.84
899.659,4660.78
900.746,4534.3
901.833,4512.24
902.92,4513.98
904.006,4470.16
905.093,4472.28
906.179,4494.52
907.266,4601.5
908.352,4566.6
909.438,4485.1
910.523,4412.2
911.609,4375.94
912.695,4375.26
913.78,4321.34
914.865,4334.5
915.95,4331.06
917.035,4286.08
918.12,4277.12
919.204,4282.94
920.289,4284.5
921.373,4245.66
922.457,4221.38
923.541,4232.32
924.625,4212.9
925.709,4209.96
926.792,4183.78
927.876,4170.02
928.959,4155.5
930.042,4129.88
931.125,4125.48
932.208,4103.22
933.29,4090.08
934.373,4083.24
935.455,4070.24
936.537,4061.44
937.619,4060.04
938.701,4043.28
939.782,4055.04
940.864,4041.22
941.945,4032.52
943.026,4018.54
944.107,4013.5
945.188,4000.58
946.269,3994.82
947.349,3992.5
948.43,3985.26
949.51,3971.24
950.59,3968.96
951.67,3968.1
952.75,3954.6
953.829,3950.46
954.909,3947.36
955.988,3947.96
957.067,3940.78
958.146,3931.84
959.224,3933.38
960.303,3923.86
961.381,3915.82
962.459,3912.36
963.537,3910.04
964.615,3908.28
965.693,3899.86
966.771,3894.22
967.848,3902.32
968.925,3893.52
970.002,3887.22
971.079,3885.26
972.156,3882.88
973.232,3873.28
974.309,3874.4
975.385,3870.5
976.461,3867.36
977.537,3864.4
978.612,3860.04
979.688,3860.68
980.763,3857.18
981.838,3854.46
982.913,3852.8
983.988,3852.56
985.063,3846.8
986.137,3845.6
987.211,3846.66
988.285,3839.48
989.359,3839.64
990.433,3838.46
991.506,3832.56
992.58,3833.5
993.653,3829.06
994.726,3826.64
995.799,3826.6
996.872,3824.04
997.944,3821.36
999.016,3820.0
1000.09,3819.88
1001.16,3817.88
1002.23,3818.62
1003.3,3814.58
1004.38,3813.12
1005.45,3812.9
1006.52,3810.38
1007.59,3808.34
1008.66,3807.78
1009.73,3806.58
1010.8,3804.66
1011.87,3804.44
1012.94,3803.64
1014.01,3804.5
1015.08,3800.64
1016.15,3800.78
1017.22,3799.08
1018.29,3798.86
1019.36,3798.14
1020.42,3797.04
1021.49,3797.92
1022.56,3798.94
1023.63,3796.7
1024.7,3796.42
1025.76,3793.2
1026.83,3792.7
1027.9,3791.28
1028.97,3791.2
1030.03,3789.8
1031.1,3788.58
1032.17,3788.72
1033.23,3788.42
1034.3,3788.86
1035.36,3789.82
1036.43,3788.3
1037.5,3787.8
1038.56,3786.6
1039.63,3785.9
1040.69,3785.62
1041.76,3785.4
1042.82,3783.96
1043.89,3784.2
1044.95,3782.92
1046.01,3782.28
1047.08,3783.56
1048.14,3783.18
1049.2,3781.74
1050.27,3783.02
1051.33,3781.76
1052.39,3781.78
1053.46,3781.62
1054.52,3781.42
1055.58,3781.7
1056.64,3781.4
1057.7,3781.26
1058.77,3780.56
1059.83,3781.28
1060.89,3781.14
1061.95,3781.6
1063.01,3780.64
1064.07,3780.86
1065.13,3780.12
1066.19,3780.16
1067.25,3779.7
1068.05,3780.36