File: spectra/VLFR_08-PLA_bio_Raman_2167d2db.csv
nm,Intensity
526.508,829.9
527.055,828.6
527.602,830.2
528.149,830.2
528.695,829.5
529.241,830.6
529.787,831.6
530.334,829.5
530.879,830.4
531.425,829.3
531.971,837.7
532.516,831.3
533.062,829.9
533.607,830.4
534.152,890.8
534.697,890.9
535.242,890.1
535.786,889.6
536.331,889.5
536.876,892.2
537.42,892.7
537.964,888.0
538.508,890.5
539.052,891.7
539.596,893.0
540.14,892.8
540.683,899.3
541.227,895.6
541.77,899.9
542.313,900.5
542.856,900.4
543.399,903.5
543.942,905.7
544.485,906.5
545.027,908.6
545.57,906.9
546.112,907.8
546.654,907.3
547.196,907.1
547.738,909.3
548.28,910.3
548.822,914.4
549.363,915.5
549.905,915.5
550.446,915.0
550.988,916.3
551.529,916.5
552.07,918.9
552.611,916.9
553.152,919.6
553.692,918.4
554.233,919.0
554.773,921.5
555.314,926.8
555.854,922.2
556.394,922.7
556.934,924.3
557.474,928.6
558.014,935.5
558.553,927.4
559.093,923.9
559.632,930.1
560.172,931.6
560.711,929.5
561.25,928.9
561.789,931.6
562.328,932.0
562.867,934.3
563.406,940.1
563.944,938.6
564.483,940.0
565.021,945.0
565.559,942.4
566.098,944.9
566.636,943.3
567.174,940.6
567.711,941.0
568.249,941.1
568.787,946.5
569.324,947.1
569.862,948.0
570.399,950.5
570.936,948.5
571.474,950.1
572.011,949.6
572.548,949.8
573.084,952.6
573.621,952.7
574.158,953.3
574.694,954.3
575.231,958.1
575.767,956.4
576.303,959.3
576.84,960.5
577.376,962.6
577.912,957.6
578.447,963.0
578.983,959.6
579.519,960.8
580.054,962.4
580.59,964.6
581.125,966.1
581.661,964.0
582.196,964.5
582.731,966.2
583.266,972.5
583.801,969.4
584.336,969.7
584.87,966.3
585.405,971.2
585.94,968.0
586.474,970.9
587.008,979.6
587.543,974.9
588.077,974.8
588.611,970.6
589.145,975.9
589.679,968.9
590.213,971.1
590.747,972.0
591.28,975.4
591.814,973.7
592.347,972.6
592.881,970.9
593.414,971.8
593.947,973.9
594.48,976.5
595.014,977.9
595.547,977.9
596.079,978.7
596.612,983.6
597.145,976.8
597.678,978.6
598.21,980.6
598.743,981.7
599.275,980.5
599.807,982.4
600.34,984.8
600.872,977.6
601.404,984.6
601.936,977.9
602.468,982.7
603.0,980.3
603.532,986.8
604.063,983.4
604.595,979.7
605.126,982.3
605.658,981.2
606.189,977.0
606.721,977.6
607.252,978.4
607.783,980.5
608.314,982.5
608.845,983.3
609.376,979.1
609.907,979.9
610.438,977.2
610.968,980.7
611.499,984.7
612.03,985.4
612.56,986.0
613.091,986.6
613.621,987.8
614.151,988.9
614.681,989.7
615.212,984.1
615.742,985.3
616.272,982.9
616.802,987.5
617.332,986.8
617.861,989.1
618.391,991.9
618.921,984.8
619.45,984.5
619.98,988.1
620.509,992.2
621.039,987.3
621.568,985.3
622.097,986.8
622.627,985.6
623.156,989.8
623.685,993.0
624.214,987.4
624.743,984.5
625.272,991.6
625.801,983.8
626.33,990.1
626.858,987.8
627.387,992.7
627.916,989.8
628.444,989.5
628.973,995.2
629.501,987.8
630.029,999.6
630.558,996.5
631.086,1017.1
631.614,1004.7
632.142,989.3
632.67,992.0
633.198,995.9
633.726,990.9
634.254,987.1
634.782,980.9
635.31,982.9
635.838,983.5
636.365,985.3
636.893,984.8
637.421,987.3
637.948,982.3
638.476,983.0
639.003,983.5
639.531,985.6
640.058,977.5
640.585,980.8
641.113,981.8
641.64,982.7
642.167,984.6
642.694,981.9
643.221,978.4
643.748,978.7
644.275,977.8
644.802,975.9
645.329,977.1
645.856,981.4
646.382,977.8
646.909,978.0
647.436,978.4
647.962,973.3
648.489,974.4
649.016,974.7
649.542,976.6
650.069,974.0
650.595,971.1
651.121,973.2
651.648,973.6
652.174,971.9
652.7,977.5
653.227,970.8
653.753,973.2
654.279,977.1
654.805,968.8
655.331,969.8
655.857,968.0
656.383,964.3
656.909,972.2
657.435,967.0
657.961,968.6
658.487,968.4
659.013,967.4
659.538,963.7
660.064,963.0
660.59,968.1
661.116,963.4
661.641,964.1
662.167,965.5
662.692,967.5
663.087,961.5