File: spectra/VLFR_02-HDPE_nobio_Raman_d8560cc8.csv
nm,Intensity
526.508,829.4
527.055,829.7
527.602,828.9
528.149,829.1
528.695,830.2
529.241,827.9
529.787,829.9
530.334,829.6
530.879,828.6
531.425,830.9
531.971,833.4
532.516,831.4
533.062,827.7
533.607,829.9
534.152,851.0
534.697,848.2
535.242,846.4
535.786,842.2
536.331,840.8
536.876,840.7
537.42,839.6
537.964,842.4
538.508,839.9
539.052,838.9
539.596,838.8
540.14,836.5
540.683,837.9
541.227,839.6
541.77,836.8
542.313,839.0
542.856,838.5
543.399,836.4
543.942,839.3
544.485,837.2
545.027,837.3
545.57,839.5
546.112,838.8
546.654,838.6
547.196,839.4
547.738,839.8
548.28,838.3
548.822,838.2
549.363,838.4
549.905,838.7
550.446,840.1
550.988,840.9
551.529,841.0
552.07,839.3
552.611,840.3
553.152,839.4
553.692,841.3
554.233,839.8
554.773,841.5
555.314,840.2
555.854,839.6
556.394,841.5
556.934,841.2
557.474,844.5
558.014,843.2
558.553,842.8
559.093,839.9
559.632,842.4
560.172,842.5
560.711,841.2
561.25,841.0
561.789,842.2
562.328,842.6
562.867,842.5
563.406,844.0
563.944,865.4
564.483,849.9
565.021,848.2
565.559,844.4
566.098,864.1
566.636,845.6
567.174,843.2
567.711,843.5
568.249,841.2
568.787,844.7
569.324,843.5
569.862,842.6
570.399,842.2
570.936,845.0
571.474,887.5
572.011,852.2
572.548,847.9
573.084,842.3
573.621,844.2
574.158,846.0
574.694,844.4
575.231,845.1
575.767,858.1
576.303,892.0
576.84,872.5
577.376,864.3
577.912,848.8
578.447,842.9
578.983,842.6
579.519,843.8
580.054,844.6
580.59,843.4
581.125,844.0
581.661,843.9
582.196,842.3
582.731,843.7
583.266,841.4
583.801,842.6
584.336,843.5
584.87,841.4
585.405,844.0
585.94,843.3
586.474,842.5
587.008,843.1
587.543,843.2
588.077,842.5
588.611,842.5
589.145,844.9
589.679,844.2
590.213,845.6
590.747,841.8
591.28,844.9
591.814,845.1
592.347,846.1
592.881,846.2
593.414,845.1
593.947,847.4
594.48,846.0
595.014,845.7
595.547,848.0
596.079,846.6
596.612,845.6
597.145,846.9
597.678,848.8
598.21,848.7
598.743,847.1
599.275,851.5
599.807,850.7
600.34,849.0
600.872,852.6
601.404,851.6
601.936,851.8
602.468,851.5
603.0,851.4
603.532,851.3
604.063,851.9
604.595,851.0
605.126,853.9
605.658,850.6
606.189,852.4
606.721,853.1
607.252,851.8
607.783,851.1
608.314,852.6
608.845,855.8
609.376,852.2
609.907,854.4
610.438,853.6
610.968,854.8
611.499,856.8
612.03,853.3
612.56,856.9
613.091,857.4
613.621,856.5
614.151,857.4
614.681,857.3
615.212,856.5
615.742,859.3
616.272,857.1
616.802,858.9
617.332,860.6
617.861,861.2
618.391,861.6
618.921,860.7
619.45,858.6
619.98,863.1
620.509,861.7
621.039,861.1
621.568,868.7
622.097,879.9
622.627,880.0
623.156,864.3
623.685,860.3
624.214,860.3
624.743,860.8
625.272,860.2
625.801,866.6
626.33,874.1
626.858,988.7
627.387,1163.8
627.916,1039.2
628.444,1122.2
628.973,1045.0
629.501,1004.9
630.029,951.6
630.558,939.0
631.086,894.0
631.614,864.9
632.142,861.0
632.67,858.1
633.198,857.3
633.726,852.9
634.254,854.1
634.782,850.7
635.31,850.7
635.838,850.5
636.365,849.4
636.893,850.5
637.421,849.8
637.948,850.9
638.476,846.5
639.003,845.5
639.531,846.8
640.058,847.5
640.585,848.7
641.113,846.2
641.64,847.3
642.167,846.3
642.694,843.6
643.221,846.7
643.748,848.4
644.275,846.2
644.802,847.5
645.329,844.5
645.856,845.1
646.382,846.4
646.909,843.9
647.436,845.6
647.962,845.6
648.489,845.3
649.016,843.9
649.542,844.8
650.069,843.9
650.595,845.2
651.121,844.5
651.648,843.9
652.174,843.0
652.7,843.8
653.227,843.9
653.753,844.5
654.279,844.1
654.805,842.3
655.331,845.2
655.857,844.8
656.383,847.2
656.909,845.3
657.435,843.2
657.961,845.0
658.487,845.8
659.013,843.6
659.538,844.3
660.064,845.9
660.59,844.8
661.116,845.0
661.641,845.2
662.167,843.3
662.692,843.4
663.087,844.4