File: spectra/VLFR_09-PET_bio_Raman_346dfb0b.csv
nm,Intensity
526.508,830.5
527.055,828.8
527.602,829.6
528.149,829.7
528.695,830.8
529.241,829.1
529.787,830.3
530.334,829.9
530.879,830.1
531.425,831.1
531.971,839.7
532.516,831.5
533.062,831.8
533.607,834.5
534.152,1409.0
534.697,1377.1
535.242,1310.3
535.786,1288.7
536.331,1269.5
536.876,1266.1
537.42,1276.0
537.964,1274.7
538.508,1285.4
539.052,1299.3
539.596,1307.1
540.14,1320.9
540.683,1322.3
541.227,1321.1
541.77,1340.1
542.313,1338.9
542.856,1345.9
543.399,1342.8
543.942,1368.7
544.485,1354.5
545.027,1374.4
545.57,1386.7
546.112,1392.7
546.654,1405.6
547.196,1403.3
547.738,1403.3
548.28,1423.9
548.822,1424.6
549.363,1438.3
549.905,1436.5
550.446,1452.2
550.988,1461.2
551.529,1455.2
552.07,1459.7
552.611,1471.4
553.152,1478.0
553.692,1491.8
554.233,1494.8
554.773,1507.3
555.314,1505.0
555.854,1519.8
556.394,1528.1
556.934,1530.9
557.474,1594.0
558.014,1561.5
558.553,1552.8
559.093,1551.9
559.632,1556.0
560.172,1571.6
560.711,1581.3
561.25,1584.2
561.789,1601.5
562.328,1603.0
562.867,1605.8
563.406,1632.3
563.944,1640.1
564.483,1650.4
565.021,1684.3
565.559,1697.8
566.098,1698.8
566.636,1677.2
567.174,1677.4
567.711,1693.3
568.249,1693.7
568.787,1706.3
569.324,1711.5
569.862,1724.6
570.399,1750.6
570.936,1795.0
571.474,1874.5
572.011,1796.2
572.548,1765.9
573.084,1781.7
573.621,1784.0
574.158,1796.7
574.694,1788.6
575.231,1819.0
575.767,1819.3
576.303,1819.0
576.84,1840.0
577.376,1829.7
577.912,1830.7
578.447,1855.0
578.983,1866.1
579.519,1853.3
580.054,1868.0
580.59,1881.6
581.125,1894.6
581.661,1918.2
582.196,2410.6
582.731,1935.4
583.266,1906.5
583.801,1923.6
584.336,1917.5
584.87,1939.0
585.405,1968.2
585.94,2174.6
586.474,2097.5
587.008,1981.9
587.543,1965.6
588.077,1954.1
588.611,1952.2
589.145,1952.2
589.679,1952.5
590.213,1963.4
590.747,1968.0
591.28,1973.7
591.814,1988.3
592.347,1985.4
592.881,1992.6
593.414,1974.1
593.947,1982.3
594.48,1976.0
595.014,1993.9
595.547,2010.3
596.079,2002.3
596.612,2015.6
597.145,2014.8
597.678,2023.4
598.21,2034.9
598.743,2040.7
599.275,2050.9
599.807,2051.6
600.34,2036.6
600.872,2031.2
601.404,2052.4
601.936,2040.9
602.468,2054.0
603.0,2069.9
603.532,2058.2
604.063,2067.7
604.595,2062.3
605.126,2077.2
605.658,2060.7
606.189,2060.7
606.721,2069.5
607.252,2078.9
607.783,2095.0
608.314,2108.0
608.845,2114.9
609.376,2131.6
609.907,2127.6
610.438,2138.7
610.968,2134.7
611.499,2142.9
612.03,2170.8
612.56,2186.0
613.091,2223.5
613.621,2222.4
614.151,2245.4
614.681,2267.1
615.212,2263.5
615.742,2265.2
616.272,2286.0
616.802,2304.8
617.332,2322.6
617.861,2337.5
618.391,2348.6
618.921,2362.0
619.45,2371.8
619.98,2385.5
620.509,2389.8
621.039,2413.2
621.568,2402.8
622.097,2441.2
622.627,2473.5
623.156,2494.3
623.685,2507.4
624.214,2515.1
624.743,2542.3
625.272,2553.9
625.801,2580.6
626.33,2585.9
626.858,2593.8
627.387,2589.8
627.916,2617.4
628.444,2628.3
628.973,2659.5
629.501,2674.9
630.029,2680.5
630.558,2718.0
631.086,2725.0
631.614,2782.7
632.142,2793.0
632.67,2770.5
633.198,2790.5
633.726,2796.1
634.254,2796.6
634.782,2797.5
635.31,2819.3
635.838,2869.1
636.365,2911.0
636.893,2933.2
637.421,2886.8
637.948,2873.8
638.476,2894.8
639.003,2904.0
639.531,2909.1
640.058,2927.4
640.585,2935.7
641.113,2938.6
641.64,2980.0
642.167,2959.2
642.694,2969.4
643.221,2958.7
643.748,2952.6
644.275,2932.0
644.802,2948.1
645.329,2956.9
645.856,2962.1
646.382,2968.7
646.909,2986.5
647.436,2989.0
647.962,2984.0
648.489,2991.4
649.016,2976.3
649.542,2979.6
650.069,2981.4
650.595,2978.9
651.121,2977.4
651.648,2979.6
652.174,2986.7
652.7,3001.0
653.227,3003.9
653.753,2999.4
654.279,3010.1
654.805,2994.0
655.331,2991.9
655.857,2994.3
656.383,2994.1
656.909,3004.1
657.435,3005.8
657.961,3002.5
658.487,3044.2
659.013,2994.6
659.538,3014.8
660.064,3024.8
660.59,3005.1
661.116,2989.2
661.641,2970.6
662.167,2966.2
662.692,2968.0
663.087,2948.6