File: spectra/VLFR_07-PET_nobio_Raman_83ca78c0.csv
nm,Intensity
791.588,9900.8
792.685,9246.1
793.781,8941.1
794.878,8771.1
795.975,8731.7
797.071,8729.5
798.168,8637.6
799.264,8650.2
800.36,8614.9
801.456,8556.2
802.552,8585.0
803.648,8456.2
804.744,8418.8
805.84,8337.6
806.936,8320.1
808.031,8144.8
809.127,8049.7
810.222,8016.7
811.317,8039.9
812.412,7857.5
813.507,7814.9
814.602,7694.2
815.697,7662.4
816.792,7651.8
817.887,7612.5
818.981,7557.4
820.076,7506.3
821.17,7425.2
822.265,7399.8
823.359,7332.1
824.453,7358.5
825.547,7386.6
826.641,7219.4
827.735,7231.2
828.828,7155.0
829.922,7073.4
831.016,7118.1
832.109,6964.3
833.202,6959.3
834.295,6949.7
835.388,6838.2
836.481,6856.4
837.574,6885.1
838.667,6918.3
839.76,6817.6
840.852,6927.0
841.945,6853.3
843.037,6678.5
844.129,6571.1
845.221,6532.7
846.314,6425.3
847.405,6362.9
848.497,6336.8
849.589,6328.6
850.681,6286.6
851.772,6251.7
852.863,6222.9
853.955,6189.4
855.046,6159.1
856.137,6141.9
857.228,6138.0
858.318,6166.4
859.409,6194.7
860.5,6167.2
861.59,6054.3
862.681,5961.5
863.771,6049.5
864.861,5967.5
865.951,5907.9
867.041,5850.3
868.131,5817.0
869.22,5835.0
870.31,5860.0
871.399,5932.8
872.488,6040.0
873.578,6026.5
874.667,5870.7
875.756,5807.1
876.845,5697.8
877.933,5692.4
879.022,5648.9
880.11,5678.8
881.199,5654.7
882.287,5619.1
883.375,5594.5
884.463,5543.2
885.551,5606.8
886.639,5493.5
887.726,5501.6
888.814,5419.0
889.901,5405.5
890.988,5424.1
892.075,5364.2
893.162,5314.1
894.249,5288.0
895.336,5259.7
896.423,5281.3
897.509,5453.3
898.595,5678.0
899.682,5442.0
900.768,5155.7
901.854,5072.0
902.94,5054.3
904.025,5024.7
905.111,5035.6
906.196,5095.2
907.282,5268.9
908.367,5240.0
909.452,5054.0
910.537,4909.5
911.622,4822.3
912.706,4790.0
913.791,4751.5
914.875,4780.2
915.959,4723.0
917.044,4695.3
918.128,4702.9
919.211,4659.0
920.295,4598.2
921.379,4604.4
922.462,4565.6
923.546,4549.7
924.629,4535.7
925.712,4487.8
926.795,4470.1
927.877,4468.0
928.96,4447.0
930.043,4403.6
931.125,4397.2
932.207,4367.1
933.289,4355.5
934.371,4330.3
935.453,4309.2
936.535,4300.1
937.616,4282.6
938.697,4262.9
939.779,4242.3
940.86,4236.5
941.941,4217.0
943.022,4213.9
944.102,4180.8
945.183,4175.8
946.263,4165.3
947.343,4153.4
948.423,4136.0
949.503,4133.8
950.583,4116.7
951.663,4107.2
952.742,4099.1
953.822,4072.0
954.901,4070.6
955.98,4057.9
957.059,4048.2
958.137,4040.7
959.216,4040.8
960.294,4013.8
961.373,4016.9
962.451,4011.2
963.529,4000.2
964.607,3994.6
965.684,3979.1
966.762,3979.0
967.839,3968.1
968.917,3964.2
969.994,3950.5
971.071,3955.8
972.147,3945.3
973.224,3934.0
974.3,3932.9
975.377,3920.4
976.453,3921.6
977.529,3911.8
978.605,3903.8
979.68,3898.2
980.756,3906.3
981.831,3890.5
982.907,3888.3
983.982,3885.4
985.057,3884.6
986.131,3876.6
987.206,3871.4
988.28,3869.6
989.355,3865.5
990.429,3862.9
991.503,3852.9
992.576,3854.1
993.65,3845.8
994.723,3841.5
995.797,3841.8
996.87,3837.9
997.943,3834.2
999.016,3833.8
1000.09,3830.0
1001.16,3828.1
1002.23,3822.3
1003.31,3821.7
1004.38,3820.9
1005.45,3816.5
1006.52,3813.2
1007.59,3806.3
1008.66,3810.0
1009.73,3804.9
1010.81,3802.8
1011.88,3801.8
1012.95,3801.5
1014.02,3800.6
1015.09,3799.1
1016.16,3795.3
1017.23,3793.3
1018.3,3791.2
1019.37,3790.2
1020.44,3790.1
1021.51,3790.9
1022.58,3790.1
1023.64,3791.8
1024.71,3788.3
1025.78,3786.6
1026.85,3781.9
1027.92,3778.4
1028.99,3775.3
1030.05,3779.7
1031.12,3775.9
1032.19,3773.4
1033.26,3774.6
1034.32,3775.3
1035.39,3774.8
1036.46,3775.2
1037.52,3771.5
1038.59,3769.3
1039.66,3768.1
1040.72,3765.9
1041.79,3767.2
1042.86,3766.8
1043.92,3765.3
1044.99,3764.4
1046.05,3761.8
1047.12,3762.2
1048.18,3762.4
1049.25,3763.8
1050.31,3763.9
1051.37,3761.1
1052.44,3759.3
1053.5,3760.0
1054.57,3762.5
1055.63,3760.4
1056.69,3760.2
1057.76,3761.1
1058.82,3761.3
1059.88,3757.8
1060.95,3759.5
1062.01,3759.5
1063.07,3759.9
1064.13,3760.1
1065.19,3760.7
1066.26,3759.1
1067.32,3758.5
1068.11,3760.3