File: spectra/VLFR_02-HDPE_bio_Raman_a0acc8b3.csv
nm,Intensity
526.494,835.2
527.041,833.7
527.588,836.3
528.135,834.3
528.682,834.9
529.229,835.0
529.775,835.0
530.321,836.4
530.868,835.5
531.414,834.7
531.96,845.5
532.506,838.1
533.051,835.0
533.597,835.5
534.142,911.6
534.687,902.8
535.232,891.4
535.777,880.9
536.322,879.5
536.867,875.6
537.411,873.2
537.956,875.2
538.5,872.1
539.044,871.7
539.588,869.3
540.132,870.0
540.676,865.1
541.22,867.3
541.763,866.7
542.306,867.4
542.85,865.6
543.393,867.9
543.936,865.9
544.479,866.6
545.021,868.4
545.564,868.7
546.106,869.7
546.649,867.8
547.191,867.2
547.733,867.8
548.275,869.0
548.817,869.9
549.359,866.6
549.9,869.3
550.442,868.6
550.983,872.2
551.524,868.0
552.066,871.4
552.607,870.1
553.148,871.9
553.688,872.6
554.229,874.7
554.77,875.7
555.31,877.0
555.85,874.9
556.39,878.8
556.931,877.4
557.471,882.3
558.01,881.8
558.55,883.3
559.09,881.3
559.629,881.0
560.169,882.5
560.708,883.7
561.247,882.7
561.786,887.8
562.325,887.9
562.864,889.6
563.403,893.3
563.941,957.1
564.48,910.6
565.018,904.4
565.557,905.9
566.095,984.1
566.633,908.5
567.171,900.1
567.709,903.4
568.247,899.0
568.784,903.3
569.322,908.6
569.859,909.5
570.397,918.0
570.934,921.0
571.471,1041.4
572.008,942.1
572.545,927.5
573.082,926.2
573.619,934.4
574.155,947.5
574.692,942.8
575.228,954.3
575.765,996.9
576.301,1082.7
576.837,1035.2
577.373,1025.8
577.909,998.2
578.445,1001.0
578.981,1013.1
579.516,1024.3
580.052,1036.2
580.587,1043.6
581.123,1058.7
581.658,1068.8
582.193,1078.6
582.728,1097.5
583.263,1110.6
583.798,1130.2
584.333,1138.6
584.868,1154.5
585.402,1173.8
585.937,1197.8
586.471,1224.4
587.005,1237.0
587.54,1258.9
588.074,1284.6
588.608,1313.5
589.142,1317.2
589.676,1356.0
590.21,1375.9
590.743,1404.7
591.277,1417.8
591.81,1438.9
592.344,1455.6
592.877,1465.9
593.411,1485.6
593.944,1503.0
594.477,1512.7
595.01,1523.8
595.543,1532.8
596.076,1550.0
596.608,1558.2
597.141,1573.4
597.674,1570.9
598.206,1594.2
598.739,1610.8
599.271,1601.8
599.803,1616.2
600.335,1608.3
600.868,1601.8
601.4,1605.5
601.931,1603.7
602.463,1603.0
602.995,1606.5
603.527,1596.8
604.058,1585.6
604.59,1574.2
605.121,1557.1
605.653,1535.9
606.184,1527.8
606.715,1501.6
607.246,1509.0
607.778,1493.9
608.309,1491.3
608.839,1475.7
609.37,1481.9
609.901,1461.1
610.432,1462.3
610.962,1444.1
611.493,1431.8
612.023,1421.7
612.554,1418.2
613.084,1411.7
613.614,1400.9
614.145,1401.2
614.675,1393.9
615.205,1389.2
615.735,1370.9
616.265,1359.4
616.795,1351.5
617.324,1351.8
617.854,1339.0
618.384,1323.3
618.913,1313.9
619.443,1307.8
619.972,1299.2
620.502,1294.7
621.031,1286.7
621.56,1288.4
622.089,1301.7
622.618,1297.1
623.147,1264.0
623.676,1257.5
624.205,1242.8
624.734,1239.1
625.263,1241.5
625.792,1248.5
626.32,1255.0
626.849,1446.0
627.377,1748.3
627.906,1530.4
628.434,1663.7
628.963,1531.2
629.491,1443.0
630.019,1366.5
630.547,1352.7
631.076,1267.4
631.604,1218.1
632.132,1200.3
632.66,1200.8
633.188,1189.4
633.715,1189.6
634.243,1180.2
634.771,1183.3
635.299,1181.5
635.826,1179.4
636.354,1182.1
636.881,1183.1
637.409,1181.7
637.936,1179.2
638.464,1175.2
638.991,1175.0
639.518,1171.4
640.045,1178.9
640.573,1175.3
641.1,1178.9
641.627,1177.5
642.154,1178.2
642.681,1174.1
643.208,1171.6
643.735,1172.9
644.261,1177.9
644.788,1170.7
645.315,1171.2
645.842,1170.7
646.368,1169.3
646.895,1159.9
647.421,1166.5
647.948,1171.9
648.474,1159.7
649.001,1162.5
649.527,1154.7
650.054,1155.4
650.58,1156.3
651.106,1149.7
651.633,1154.5
652.159,1156.9
652.685,1150.2
653.211,1150.3
653.737,1136.6
654.263,1143.9
654.789,1133.0
655.315,1133.8
655.841,1137.8
656.367,1131.1
656.893,1128.8
657.419,1120.9
657.945,1130.7
658.47,1121.5
658.996,1115.4
659.522,1110.5
660.047,1111.9
660.573,1102.4
661.099,1096.8
661.624,1095.5
662.15,1084.3
662.675,1085.3
663.07,1080.0