File: spectra/VLFR_08-PLA_bio_Raman_b1133382.csv
nm,Intensity
528.626,1863.35
529.132,1864.0
529.637,1863.25
530.143,1862.6
530.648,1864.8
531.153,1864.6
531.658,1874.8
532.164,3287.8
532.669,1865.55
533.174,1866.65
533.679,2086.25
534.184,2896.65
534.689,2712.3
535.194,2627.2
535.699,2521.45
536.203,2427.3
536.708,2474.7
537.213,2358.9
537.717,2396.55
538.222,2380.5
538.726,2288.05
539.231,2266.75
539.735,2218.55
540.239,2249.95
540.744,2423.95
541.248,2370.85
541.752,2258.9
542.256,2248.15
542.76,2255.8
543.264,2403.0
543.768,2609.65
544.272,2436.55
544.776,2256.0
545.28,2224.2
545.784,2214.75
546.287,2219.85
546.791,2237.05
547.294,2243.75
547.798,2223.5
548.301,2229.65
548.805,2249.75
549.308,2242.35
549.811,2237.15
550.315,2256.8
550.818,2259.0
551.321,2275.85
551.824,2321.95
552.327,2339.9
552.83,2358.8
553.333,2320.45
553.835,2401.15
554.338,2342.55
554.841,2291.55
555.343,2258.4
555.846,2246.3
556.349,2255.3
556.851,2269.55
557.353,2351.15
557.856,3026.6
558.358,3042.6
558.86,2401.4
559.362,2390.1
559.864,2364.6
560.366,2301.4
560.868,2301.05
561.37,2275.35
561.872,2294.45
562.374,2308.8
562.876,2401.15
563.377,2698.85
563.879,2481.8
564.38,2372.6
564.882,2543.95
565.383,2524.2
565.885,2641.4
566.386,2701.25
566.887,2361.25
567.388,2341.75
567.889,2420.4
568.391,2373.35
568.892,2395.0
569.392,2366.7
569.893,2344.65
570.394,2345.65
570.895,2362.95
571.395,2566.35
571.896,2559.15
572.397,2439.65
572.897,2442.55
573.397,2472.7
573.898,2484.05
574.398,2521.85
574.898,2455.85
575.398,2360.2
575.898,2385.7
576.398,2684.15
576.898,2979.45
577.398,2501.8
577.898,2363.4
578.398,2338.8
578.897,2338.6
579.397,2330.8
579.896,2334.1
580.396,2340.55
580.895,2337.25
581.395,2338.2
581.894,2328.45
582.393,2331.6
582.892,2351.7
583.391,2348.35
583.89,2344.1
584.389,2363.45
584.888,2342.8
585.387,2346.35
585.886,2359.25
586.384,2406.8
586.883,2622.1
587.381,2903.2
587.88,2667.05
588.378,2383.0
588.876,2335.6
589.375,2331.7
589.873,2334.35
590.371,2340.55
590.869,2329.95
591.367,2336.25
591.865,2333.1
592.363,2321.6
592.86,2342.3
593.358,2331.6
593.856,2329.15
594.353,2317.4
594.851,2329.95
595.348,2332.35
595.845,2333.55
596.342,2339.05
596.84,2313.35
597.337,2316.8
597.834,2322.25
598.331,2321.6
598.828,2329.55
599.324,2323.8
599.821,2334.5
600.318,2334.55
600.814,2344.8
601.311,2338.45
601.807,2327.05
602.304,2325.15
602.8,2323.65
603.296,2329.65
603.792,2331.95
604.288,2321.1
604.784,2323.0
605.28,2324.95
605.776,2311.05
606.272,2311.35
606.767,2325.9
607.263,2321.4
607.759,2310.85
608.254,2311.8
608.749,2307.5
609.245,2297.3
609.74,2314.15
610.235,2306.8
610.73,2306.5
611.225,2304.95
611.72,2307.7
612.215,2299.35
612.71,2308.35
613.204,2300.6
613.699,2289.75
614.194,2299.05
614.688,2292.65
615.182,2294.05
615.677,2300.25
616.171,2290.5
616.665,2307.45
617.159,2296.85
617.653,2299.05
618.147,2297.7
618.641,2306.7
619.135,2289.5
619.628,2301.1
620.122,2289.15
620.615,2285.85
621.109,2279.7
621.602,2301.75
622.095,2309.65
622.589,2363.6
623.082,2405.55
623.575,2360.3
624.068,2329.8
624.561,2312.35
625.053,2290.9
625.546,2291.3
626.039,2287.15
626.531,2277.2
627.024,2310.5
627.516,2316.95
628.008,2475.9
628.501,2914.1
628.993,2768.65
629.485,2756.9
629.977,2820.1
630.469,3189.7
630.96,5634.6
631.452,4981.7
631.944,3471.9
632.435,3039.6
632.927,3362.45
633.418,3760.7
633.91,3180.5
634.401,2617.9
634.892,2368.75
635.383,2302.7
635.874,2260.95
636.365,2234.7
636.856,2241.6
637.346,2217.6
637.837,2224.55
638.327,2223.95
638.818,2208.55
639.308,2221.55
639.799,2213.1
640.289,2213.0
640.779,2186.0
641.269,2198.65
641.759,2214.85
642.249,2211.05
642.738,2205.55
643.228,2184.7
643.718,2186.2
644.207,2174.95
644.697,2173.15
645.186,2160.65
645.675,2170.55
646.164,2159.2
646.653,2157.3
647.142,2148.5
647.631,2146.7
648.12,2129.75
648.609,2134.4
649.098,2137.7
649.586,2130.05
650.075,2131.85
650.563,2137.85
651.051,2132.2
651.539,2129.25
652.027,2118.6
652.515,2113.8
653.003,2123.4
653.491,2101.85
653.979,2104.65
654.467,2098.35
654.954,2112.15
655.442,2088.9
655.929,2088.35
656.416,2081.45
656.904,2082.35
657.391,2088.05
657.878,2088.75
658.365,2070.1
658.851,2078.8
659.338,2064.35
659.825,2065.5
660.311,2069.15
660.798,2066.6
661.041,2061.05