File: spectra/VLFR_02-HDPE_bio_Raman_3e764038.csv
nm,Intensity
528.65,1848.95
529.155,1851.5
529.66,1850.05
530.165,1851.55
530.67,1851.45
531.175,1852.85
531.68,1889.55
532.185,4543.65
532.69,1856.4
533.194,1859.65
533.699,2813.45
534.204,6205.15
534.708,6502.85
535.213,6793.25
535.717,6815.85
536.222,6556.9
536.726,6799.35
537.231,6662.7
537.735,6922.6
538.239,6805.55
538.743,6815.7
539.247,7047.95
539.751,7071.0
540.255,7110.45
540.759,7109.45
541.263,7115.95
541.767,7232.1
542.271,7360.45
542.775,7346.1
543.279,7435.3
543.782,7530.6
544.286,7476.7
544.789,7487.9
545.293,7583.45
545.796,7554.4
546.3,7655.65
546.803,7681.1
547.306,7706.65
547.81,7834.85
548.313,7901.95
548.816,7934.25
549.319,7940.15
549.822,7838.5
550.325,7893.15
550.828,8063.95
551.331,8158.85
551.834,8220.75
552.337,8274.9
552.839,8332.85
553.342,8364.75
553.844,8428.1
554.347,8437.0
554.849,8427.85
555.352,8426.0
555.854,8481.45
556.357,8508.25
556.859,8575.75
557.361,8595.15
557.863,8697.65
558.365,8804.6
558.867,8764.65
559.369,8911.95
559.871,8858.35
560.373,8982.35
560.875,9200.0
561.377,9128.15
561.878,9230.7
562.38,9524.1
562.881,9274.85
563.383,9324.5
563.884,10187.4
564.386,9700.05
564.887,9606.25
565.388,9758.15
565.89,10106.3
566.391,10595.0
566.892,10171.7
567.393,10008.9
567.894,9809.7
568.395,9801.0
568.896,9959.75
569.396,9921.4
569.897,9933.65
570.398,10183.5
570.898,10188.0
571.399,11861.8
571.9,10636.9
572.4,10317.7
572.9,10250.0
573.401,10586.7
573.901,10488.7
574.401,10291.8
574.901,10627.3
575.401,10616.2
575.901,11130.5
576.401,12069.5
576.901,11490.5
577.401,11115.8
577.901,10725.5
578.4,10757.4
578.9,11263.5
579.399,10954.1
579.899,10740.2
580.398,10922.5
580.898,11016.3
581.397,10984.2
581.896,11009.3
582.395,10950.5
582.895,10903.6
583.394,10651.7
583.893,10799.2
584.391,10802.0
584.89,10837.9
585.389,10585.0
585.888,10626.8
586.386,10750.3
586.885,10667.9
587.384,10685.5
587.882,10653.7
588.38,10834.0
588.879,10930.7
589.377,10771.4
589.875,10940.8
590.373,10535.8
590.871,10695.3
591.369,10878.9
591.867,11001.3
592.365,10818.8
592.863,10958.2
593.361,10953.0
593.858,10876.0
594.356,10954.9
594.853,11013.3
595.351,10960.8
595.848,11045.6
596.345,11189.8
596.843,11213.3
597.34,11227.2
597.837,11088.3
598.334,11103.1
598.831,11136.1
599.328,11307.1
599.824,11339.0
600.321,11181.5
600.818,11463.3
601.314,11386.3
601.811,11473.7
602.307,11365.8
602.804,11252.0
603.3,11426.3
603.796,11011.0
604.293,11268.3
604.789,11293.4
605.285,11076.5
605.781,11202.2
606.277,11327.4
606.772,11248.8
607.268,11205.3
607.764,11193.6
608.259,11117.0
608.755,11136.3
609.25,10982.8
609.746,10656.5
610.241,11118.4
610.736,11187.5
611.231,11209.8
611.727,10940.8
612.222,10923.7
612.716,11131.4
613.211,10877.7
613.706,10978.5
614.201,11090.0
614.695,11232.3
615.19,11031.3
615.684,11036.3
616.179,10885.6
616.673,10988.3
617.168,10896.8
617.662,10982.0
618.156,10923.1
618.65,10987.3
619.144,11026.1
619.638,11438.2
620.131,11282.5
620.625,10929.1
621.119,11399.8
621.612,11465.3
622.106,11992.0
622.599,11666.1
623.093,11165.5
623.586,11177.9
624.079,11094.7
624.572,11031.8
625.065,11157.0
625.558,11044.0
626.051,11491.2
626.544,12636.0
627.037,19275.6
627.529,18788.8
628.022,16314.3
628.514,21812.3
629.007,16867.2
629.499,15424.5
629.991,14043.8
630.483,13725.7
630.976,12370.0
631.468,11397.6
631.959,11097.1
632.451,11057.8
632.943,10902.3
633.435,11076.1
633.926,11018.8
634.418,10571.3
634.909,10761.9
635.401,10693.9
635.892,10496.6
636.383,10254.8
636.874,10515.6
637.365,10570.0
637.856,10455.0
638.347,10574.9
638.838,10549.0
639.329,10429.5
639.819,10277.1
640.31,10267.4
640.8,10236.8
641.291,10142.7
641.781,10312.7
642.271,10116.0
642.761,10169.7
643.251,9986.4
643.741,9986.85
644.231,10047.0
644.721,9786.65
645.211,9905.35
645.7,9590.25
646.19,9627.95
646.679,9836.0
647.169,9916.65
647.658,9664.7
648.147,9618.5
648.636,9385.05
649.125,9533.05
649.614,9324.3
650.103,9145.6
650.592,9265.1
651.08,9277.3
651.569,9165.45
652.058,9264.8
652.546,9112.95
653.034,8858.65
653.523,8716.05
654.011,8718.35
654.499,8605.7
654.987,8550.5
655.475,8702.6
655.963,8604.45
656.45,8575.0
656.938,8579.35
657.425,8423.85
657.913,8207.05
658.4,7951.55
658.888,8172.55
659.375,7989.35
659.862,7845.7
660.349,7988.3
660.836,7886.6
661.079,7882.55