File: spectra/VLFR_01-LDPE_nobio_Raman_965bc2ab.csv
nm,Intensity
526.486,829.7
527.033,829.7
527.579,827.0
528.126,828.6
528.672,829.1
529.219,830.2
529.765,828.2
530.311,829.3
530.857,827.8
531.403,829.0
531.948,829.3
532.494,830.0
533.039,828.1
533.585,828.2
534.13,1059.5
534.675,1085.2
535.22,1083.2
535.764,1100.4
536.309,1094.8
536.854,1098.3
537.398,1101.7
537.942,1096.4
538.486,1101.0
539.03,1103.1
539.574,1102.1
540.118,1108.4
540.662,1111.3
541.205,1114.8
541.749,1111.3
542.292,1118.4
542.835,1118.1
543.378,1123.9
543.921,1126.0
544.464,1134.1
545.006,1135.4
545.549,1135.8
546.091,1134.5
546.634,1134.7
547.176,1141.8
547.718,1138.6
548.26,1140.9
548.802,1146.9
549.343,1150.8
549.885,1154.9
550.426,1154.2
550.968,1158.6
551.509,1159.4
552.05,1166.1
552.591,1159.1
553.132,1162.2
553.673,1163.9
554.214,1176.1
554.754,1170.6
555.295,1168.1
555.835,1172.1
556.375,1172.4
556.915,1182.3
557.455,1179.3
557.995,1185.2
558.535,1181.7
559.075,1180.5
559.614,1182.3
560.154,1188.7
560.693,1189.8
561.232,1196.1
561.772,1189.2
562.311,1200.0
562.85,1197.9
563.388,1213.6
563.927,1210.6
564.466,1211.3
565.004,1216.0
565.543,1217.7
566.081,1219.1
566.619,1223.5
567.157,1218.5
567.695,1226.3
568.233,1223.2
568.771,1226.2
569.309,1239.9
569.846,1238.1
570.384,1245.8
570.921,1238.7
571.458,1244.7
571.995,1249.8
572.532,1258.8
573.069,1253.6
573.606,1269.2
574.143,1265.9
574.68,1261.0
575.216,1266.1
575.753,1265.9
576.289,1269.7
576.825,1272.0
577.361,1276.7
577.897,1269.3
578.433,1280.1
578.969,1284.7
579.505,1291.8
580.041,1294.6
580.576,1288.7
581.112,1285.5
581.647,1280.3
582.183,1288.1
582.718,1290.8
583.253,1287.6
583.788,1277.3
584.323,1285.0
584.858,1280.4
585.392,1287.0
585.927,1287.7
586.462,1288.4
586.996,1295.1
587.53,1291.9
588.065,1288.3
588.599,1286.5
589.133,1288.3
589.667,1289.7
590.201,1283.9
590.735,1288.3
591.268,1292.6
591.802,1289.9
592.335,1299.3
592.869,1284.1
593.402,1285.9
593.936,1292.1
594.469,1297.4
595.002,1299.9
595.535,1294.8
596.068,1299.4
596.601,1300.2
597.133,1297.6
597.666,1300.1
598.199,1301.0
598.731,1311.1
599.264,1316.0
599.796,1315.2
600.328,1304.2
600.86,1304.7
601.393,1303.9
601.925,1305.0
602.457,1308.5
602.988,1315.3
603.52,1323.5
604.052,1321.3
604.583,1313.0
605.115,1309.0
605.646,1300.4
606.178,1299.5
606.709,1305.0
607.24,1307.2
607.771,1306.1
608.302,1313.5
608.833,1316.0
609.364,1316.5
609.895,1315.1
610.426,1316.7
610.957,1313.2
611.487,1316.5
612.018,1321.4
612.548,1331.7
613.078,1328.8
613.609,1334.0
614.139,1332.1
614.669,1329.8
615.199,1338.6
615.729,1333.9
616.259,1338.1
616.789,1331.7
617.319,1347.4
617.849,1346.9
618.378,1341.3
618.908,1338.8
619.437,1347.2
619.967,1346.1
620.496,1334.0
621.025,1335.7
621.555,1342.0
622.084,1343.8
622.613,1347.7
623.142,1344.2
623.671,1353.0
624.2,1344.8
624.729,1354.1
625.258,1358.4
625.786,1350.2
626.315,1354.7
626.844,1351.7
627.372,1354.8
627.901,1337.0
628.429,1345.1
628.957,1350.0
629.486,1350.0
630.014,1351.8
630.542,1348.2
631.07,1344.5
631.598,1350.5
632.126,1347.2
632.654,1347.8
633.182,1349.6
633.71,1334.3
634.237,1337.8
634.765,1335.5
635.293,1343.2
635.82,1340.8
636.348,1340.4
636.875,1335.4
637.403,1343.5
637.93,1338.2
638.458,1339.0
638.985,1341.1
639.512,1334.4
640.039,1332.6
640.566,1335.8
641.093,1337.7
641.62,1334.1
642.147,1336.3
642.674,1333.5
643.201,1322.5
643.728,1320.3
644.255,1322.9
644.781,1320.4
645.308,1312.6
645.835,1318.6
646.361,1317.6
646.888,1310.7
647.414,1316.5
647.941,1319.2
648.467,1316.9
648.993,1323.4
649.52,1311.5
650.046,1312.7
650.572,1306.4
651.098,1317.4
651.625,1317.4
652.151,1327.4
652.677,1312.1
653.203,1313.8
653.729,1320.7
654.255,1321.4
654.78,1310.5
655.306,1321.1
655.832,1309.7
656.358,1313.5
656.884,1318.6
657.409,1316.4
657.935,1315.2
658.461,1324.8
658.986,1327.9
659.512,1330.9
660.037,1326.2
660.563,1326.4
661.088,1330.9
661.614,1328.0
662.139,1321.0
662.664,1326.3
663.058,1323.5