File: spectra/VLFR_08-PLA_nobio_Raman_7a13d99b.csv
nm,Intensity
526.5,828.6
527.047,829.2
527.594,827.4
528.14,827.5
528.687,829.5
529.233,827.9
529.779,827.7
530.325,829.0
530.871,828.7
531.417,829.1
531.962,829.9
532.508,829.0
533.053,827.6
533.599,830.2
534.144,1019.2
534.689,970.4
535.234,942.9
535.778,925.3
536.323,912.4
536.867,916.7
537.412,893.9
537.956,899.0
538.5,889.4
539.044,884.2
539.588,879.8
540.132,875.0
540.675,899.8
541.219,896.0
541.762,882.5
542.305,879.6
542.848,884.0
543.391,905.5
543.934,929.4
544.477,889.0
545.02,876.2
545.562,874.7
546.105,868.6
546.647,874.1
547.189,877.9
547.731,874.3
548.273,874.5
548.815,874.9
549.356,879.0
549.898,876.7
550.439,878.7
550.981,882.6
551.522,880.9
552.063,887.1
552.604,887.3
553.145,893.1
553.686,888.8
554.226,891.6
554.767,883.2
555.307,880.8
555.848,875.9
556.388,878.4
556.928,877.6
557.468,894.0
558.008,1000.9
558.547,911.0
559.087,892.9
559.626,892.9
560.166,884.5
560.705,884.4
561.244,882.8
561.783,880.3
562.322,882.1
562.861,889.1
563.4,926.7
563.939,901.8
564.477,892.5
565.015,918.1
565.554,908.3
566.092,946.2
566.63,906.2
567.168,889.6
567.706,896.2
568.244,892.8
568.781,894.8
569.319,896.0
569.857,891.8
570.394,890.0
570.931,891.3
571.468,920.1
572.005,912.0
572.542,898.7
573.079,902.2
573.616,906.4
574.153,906.2
574.689,920.9
575.226,891.9
575.762,894.8
576.298,910.1
576.834,973.1
577.371,914.7
577.907,895.3
578.442,890.9
578.978,892.2
579.514,893.8
580.049,890.3
580.585,891.4
581.12,888.7
581.656,897.2
582.191,892.6
582.726,894.7
583.261,897.4
583.796,895.6
584.331,892.9
584.865,894.0
585.4,894.1
585.935,896.6
586.469,907.8
587.004,938.4
587.538,977.4
588.072,918.7
588.606,896.3
589.14,895.5
589.674,897.4
590.208,892.7
590.742,892.1
591.275,892.6
591.809,897.0
592.342,893.7
592.876,893.5
593.409,895.5
593.942,892.5
594.476,894.4
595.009,893.5
595.542,894.9
596.075,893.0
596.607,895.4
597.14,891.1
597.673,893.3
598.205,896.4
598.738,893.1
599.27,892.6
599.803,892.8
600.335,896.5
600.867,892.5
601.399,891.5
601.931,896.6
602.463,898.1
602.995,895.1
603.527,893.2
604.058,889.1
604.59,892.4
605.122,891.2
605.653,891.4
606.184,888.4
606.716,892.5
607.247,891.9
607.778,892.7
608.309,890.5
608.84,892.1
609.371,891.7
609.902,893.2
610.433,890.8
610.964,887.7
611.494,889.8
612.025,888.8
612.556,888.5
613.086,892.6
613.616,891.2
614.147,891.0
614.677,893.5
615.207,888.3
615.737,892.8
616.267,896.5
616.797,891.7
617.327,894.1
617.857,890.5
618.387,891.9
618.917,890.1
619.446,888.5
619.976,890.5
620.505,888.0
621.035,890.4
621.564,898.2
622.093,894.8
622.623,900.3
623.152,904.5
623.681,901.3
624.21,898.3
624.739,891.5
625.268,892.2
625.797,890.2
626.326,895.8
626.855,892.9
627.383,896.1
627.912,905.0
628.441,972.5
628.969,960.5
629.498,962.3
630.026,962.6
630.554,1018.9
631.083,1439.5
631.611,1203.6
632.139,1038.2
632.667,1000.3
633.195,1095.9
633.724,1068.0
634.252,964.9
634.779,914.6
635.307,898.0
635.835,893.2
636.363,890.2
636.891,889.9
637.418,887.6
637.946,883.9
638.474,886.0
639.001,885.3
639.529,884.6
640.056,882.7
640.583,885.1
641.111,886.0
641.638,886.1
642.165,885.8
642.692,885.6
643.22,881.5
643.747,880.5
644.274,881.0
644.801,877.2
645.328,877.8
645.854,875.5
646.381,878.3
646.908,875.2
647.435,877.9
647.962,877.6
648.488,878.8
649.015,879.0
649.542,875.7
650.068,874.8
650.595,873.6
651.121,873.5
651.648,871.9
652.174,875.1
652.7,874.7
653.227,874.8
653.753,874.4
654.279,872.4
654.805,874.5
655.331,875.9
655.858,873.9
656.384,876.6
656.91,875.7
657.436,873.0
657.962,873.6
658.488,873.3
659.013,874.8
659.539,871.5
660.065,874.0
660.591,872.8
661.117,871.5
661.642,870.6
662.168,870.8
662.694,871.0
663.088,867.3