File: spectra/VLFR_01-LDPE_nobio_Raman_3f7c6464.csv
nm,Intensity
528.65,1832.25
529.155,1832.6
529.66,1833.4
530.165,1833.1
530.67,1833.95
531.175,1833.5
531.68,1845.35
532.185,2364.05
532.69,1833.75
533.194,1833.2
533.699,1892.7
534.204,2026.9
534.708,2014.55
535.213,1994.3
535.717,1974.2
536.222,1961.85
536.726,1952.5
537.231,1951.8
537.735,1956.5
538.239,1949.55
538.743,1941.2
539.247,1939.25
539.751,1931.65
540.255,1927.25
540.759,1933.65
541.263,1930.05
541.767,1933.15
542.271,1928.05
542.775,1927.6
543.279,1927.6
543.782,1932.85
544.286,1924.3
544.789,1923.9
545.293,1926.4
545.796,1921.7
546.3,1925.4
546.803,1920.7
547.306,1922.85
547.81,1924.0
548.313,1923.95
548.816,1925.15
549.319,1921.6
549.822,1922.75
550.325,1925.9
550.828,1920.45
551.331,1923.15
551.834,1927.0
552.337,1928.85
552.839,1928.5
553.342,1936.1
553.844,1934.85
554.347,1938.4
554.849,1947.85
555.352,1942.4
555.854,1949.9
556.357,1951.15
556.859,1955.75
557.361,1960.3
557.863,1967.8
558.365,1968.95
558.867,1962.25
559.369,1959.05
559.871,1955.45
560.373,1954.9
560.875,1964.05
561.377,1960.6
561.878,1966.3
562.38,1970.4
562.881,1977.25
563.383,1989.8
563.884,2144.25
564.386,2044.45
564.887,2015.45
565.388,2005.2
565.89,2096.95
566.391,2088.55
566.892,1994.6
567.393,2012.75
567.894,1990.95
568.395,1987.2
568.896,1986.15
569.396,1985.85
569.897,1993.15
570.398,2004.4
570.898,2013.05
571.399,2275.0
571.9,2104.85
572.4,2038.9
572.9,2020.0
573.401,2016.75
573.901,2038.9
574.401,2010.65
574.901,2021.65
575.401,2110.8
575.901,2195.5
576.401,2348.75
576.901,2259.15
577.401,2138.75
577.901,2081.75
578.4,2076.5
578.9,2086.75
579.399,2091.55
579.899,2104.5
580.398,2118.25
580.898,2116.7
581.397,2129.4
581.896,2142.95
582.395,2156.25
582.895,2161.1
583.394,2177.25
583.893,2194.25
584.391,2203.25
584.89,2213.2
585.389,2229.6
585.888,2263.55
586.386,2252.8
586.885,2276.0
587.384,2322.75
587.882,2354.75
588.38,2356.4
588.879,2376.95
589.377,2405.15
589.875,2419.15
590.373,2437.0
590.871,2475.9
591.369,2481.55
591.867,2506.45
592.365,2497.2
592.863,2521.55
593.361,2553.15
593.858,2554.3
594.356,2583.25
594.853,2594.1
595.351,2636.3
595.848,2641.6
596.345,2689.4
596.843,2694.85
597.34,2732.1
597.837,2740.9
598.334,2758.75
598.831,2792.85
599.328,2824.45
599.824,2822.2
600.321,2808.75
600.818,2817.2
601.314,2804.25
601.811,2814.75
602.307,2804.3
602.804,2763.7
603.3,2751.8
603.796,2747.05
604.293,2701.4
604.789,2663.65
605.285,2617.6
605.781,2597.3
606.277,2565.85
606.772,2554.45
607.268,2527.8
607.764,2486.25
608.259,2491.1
608.755,2452.5
609.25,2420.7
609.746,2411.9
610.241,2388.8
610.736,2377.7
611.231,2372.95
611.727,2347.95
612.222,2341.2
612.716,2329.2
613.211,2320.9
613.706,2292.65
614.201,2297.25
614.695,2283.7
615.19,2256.8
615.684,2276.85
616.179,2259.55
616.673,2248.25
617.168,2252.85
617.662,2243.8
618.156,2236.9
618.65,2228.95
619.144,2219.3
619.638,2227.65
620.131,2227.45
620.625,2229.6
621.119,2246.45
621.612,2253.5
622.106,2290.0
622.599,2258.7
623.093,2214.7
623.586,2196.25
624.079,2178.4
624.572,2173.85
625.065,2193.4
625.558,2202.25
626.051,2230.35
626.544,2462.3
627.037,3558.3
627.529,3461.25
628.022,3156.65
628.514,3843.8
629.007,3207.9
629.499,2969.75
629.991,2806.05
630.483,2732.6
630.976,2431.8
631.468,2266.95
631.959,2201.8
632.451,2173.2
632.943,2159.55
633.435,2151.85
633.926,2139.1
634.418,2149.2
634.909,2140.35
635.401,2130.45
635.892,2124.85
636.383,2132.45
636.874,2128.9
637.365,2130.1
637.856,2138.1
638.347,2131.05
638.838,2136.55
639.329,2120.9
639.819,2123.95
640.31,2136.4
640.8,2134.55
641.291,2137.2
641.781,2134.1
642.271,2137.15
642.761,2136.8
643.251,2136.3
643.741,2135.45
644.231,2155.25
644.721,2133.7
645.211,2149.3
645.7,2144.1
646.19,2142.35
646.679,2147.25
647.169,2153.45
647.658,2132.65
648.147,2140.1
648.636,2126.35
649.125,2133.0
649.614,2127.5
650.103,2152.1
650.592,2144.35
651.08,2159.3
651.569,2113.95
652.058,2145.2
652.546,2126.75
653.034,2121.9
653.523,2131.5
654.011,2131.85
654.499,2129.2
654.987,2113.95
655.475,2108.25
655.963,2100.15
656.45,2092.45
656.938,2091.45
657.425,2086.3
657.913,2095.95
658.4,2068.05
658.888,2065.85
659.375,2051.4
659.862,2040.05
660.349,2053.85
660.836,2029.85
661.079,2026.75