File: spectra/VLFR_07-PET_bio_Raman_6de274d4.csv
nm,Intensity
791.75,6886.2
792.846,6765.8
793.942,6674.4
795.037,6605.6
796.133,6482.6
797.228,6532.35
798.324,6484.15
799.419,6453.75
800.514,6379.9
801.61,6429.15
802.705,6393.6
803.8,6340.25
804.894,6293.05
805.989,6289.75
807.084,6227.95
808.178,6232.2
809.273,6120.0
810.367,6093.9
811.461,6081.7
812.556,6026.15
813.65,5963.3
814.744,5888.15
815.837,5849.55
816.931,5890.3
818.025,5790.05
819.118,5751.8
820.212,5801.05
821.305,5735.8
822.398,5585.0
823.491,5660.8
824.585,5677.3
825.677,5664.75
826.77,5616.3
827.863,5598.7
828.956,5505.4
830.048,5559.5
831.14,5554.8
832.233,5497.4
833.325,5486.55
834.417,5503.1
835.509,5462.8
836.601,5449.2
837.692,5449.3
838.784,5437.05
839.876,5385.85
840.967,5426.75
842.058,5397.65
843.149,5398.7
844.24,5384.0
845.331,5323.45
846.422,5307.4
847.513,5314.8
848.604,5247.1
849.694,5254.2
850.784,5204.25
851.875,5189.95
852.965,5169.25
854.055,5138.0
855.145,5150.45
856.235,5133.1
857.324,5107.25
858.414,5147.55
859.503,5079.4
860.593,5106.8
861.682,5055.1
862.771,5043.25
863.86,5007.35
864.949,5008.65
866.038,4970.4
867.126,4994.1
868.215,4940.9
869.303,4959.5
870.391,4977.65
871.479,4955.45
872.567,4982.9
873.655,4988.75
874.743,4909.25
875.831,4893.1
876.918,4866.35
878.006,4836.95
879.093,4818.9
880.18,4817.3
881.267,4827.1
882.354,4799.95
883.441,4778.55
884.527,4781.95
885.614,4772.85
886.7,4742.15
887.786,4716.45
888.872,4685.1
889.958,4688.9
891.044,4654.35
892.13,4644.75
893.216,4598.5
894.301,4557.2
895.386,4529.75
896.472,4525.75
897.557,4560.25
898.642,4519.95
899.726,4484.55
900.811,4435.1
901.896,4433.55
902.98,4473.15
904.064,4453.55
905.148,4382.95
906.232,4403.05
907.316,4413.0
908.4,4365.9
909.484,4340.65
910.567,4310.55
911.65,4288.5
912.734,4275.4
913.817,4260.35
914.9,4234.5
915.982,4241.7
917.065,4221.6
918.147,4229.65
919.23,4227.05
920.312,4210.05
921.394,4204.95
922.476,4178.0
923.558,4158.45
924.639,4157.4
925.721,4143.65
926.802,4109.3
927.884,4098.2
928.965,4066.45
930.046,4050.0
931.126,4025.8
932.207,4021.0
933.288,4009.25
934.368,4009.65
935.448,3983.3
936.528,3987.6
937.608,3975.65
938.688,3975.85
939.767,3972.8
940.847,3957.3
941.926,3950.45
943.005,3937.2
944.084,3925.35
945.163,3927.15
946.242,3926.15
947.321,3915.15
948.399,3911.1
949.477,3906.4
950.556,3900.85
951.634,3887.9
952.711,3884.05
953.789,3880.65
954.867,3874.95
955.944,3870.1
957.021,3871.0
958.098,3862.7
959.175,3858.7
960.252,3855.65
961.328,3851.25
962.405,3851.85
963.481,3849.6
964.557,3841.1
965.633,3843.95
966.709,3835.9
967.785,3842.2
968.86,3836.7
969.936,3833.3
971.011,3830.9
972.086,3828.8
973.161,3817.95
974.235,3813.5
975.31,3818.4
976.384,3809.75
977.459,3807.65
978.533,3807.55
979.607,3799.1
980.68,3804.15
981.754,3801.45
982.827,3797.85
983.901,3795.8
984.974,3793.95
986.047,3792.85
987.119,3793.75
988.192,3792.0
989.264,3787.6
990.337,3783.8
991.409,3781.35
992.481,3777.6
993.553,3776.65
994.624,3776.3
995.696,3770.9
996.767,3769.75
997.838,3766.05
998.909,3767.55
999.98,3763.35
1001.05,3762.8
1002.12,3758.75
1003.19,3754.8
1004.26,3755.05
1005.33,3755.4
1006.4,3753.45
1007.47,3749.5
1008.54,3747.55
1009.61,3743.95
1010.68,3745.55
1011.75,3746.25
1012.82,3742.45
1013.88,3744.25
1014.95,3742.4
1016.02,3739.65
1017.09,3737.0
1018.16,3736.85
1019.22,3736.25
1020.29,3736.7
1021.36,3732.8
1022.43,3732.25
1023.49,3730.75
1024.56,3728.45
1025.63,3724.4
1026.69,3724.35
1027.76,3723.6
1028.83,3720.95
1029.89,3719.1
1030.96,3719.95
1032.02,3719.8
1033.09,3716.35
1034.15,3721.5
1035.22,3717.05
1036.28,3716.55
1037.35,3717.05
1038.41,3714.85
1039.48,3715.8
1040.54,3712.3
1041.6,3712.5
1042.67,3712.05
1043.73,3709.95
1044.79,3710.75
1045.86,3711.15
1046.92,3712.35
1047.98,3709.65
1049.05,3707.9
1050.11,3709.0
1051.17,3708.85
1052.23,3708.05
1053.29,3707.7
1054.36,3708.85
1055.42,3708.2
1056.48,3707.3
1057.54,3706.1
1058.6,3706.6
1059.66,3705.8
1060.72,3704.9
1061.78,3705.3
1062.84,3708.5
1063.9,3705.9
1064.96,3705.65
1066.02,3704.25
1067.08,3705.5
1067.88,3705.15