File: spectra/VLFR_08-PLA_bio_Raman_5e9e504d.csv
nm,Intensity
526.547,832.55
527.095,833.05
527.642,832.7
528.189,831.9
528.736,832.5
529.283,832.25
529.829,832.8
530.376,833.85
530.922,832.9
531.468,832.35
532.014,833.7
532.56,832.75
533.106,831.8
533.651,836.3
534.196,1111.2
534.742,1057.0
535.287,1010.75
535.832,987.15
536.376,979.5
536.921,979.7
537.465,965.95
538.01,969.0
538.554,954.45
539.098,954.4
539.642,948.3
540.186,941.6
540.729,965.25
541.273,970.8
541.816,955.8
542.36,948.7
542.903,954.7
543.446,983.3
543.988,998.35
544.531,968.1
545.074,956.7
545.616,949.3
546.158,950.3
546.701,952.55
547.243,953.4
547.785,955.9
548.326,957.4
548.868,959.95
549.41,958.5
549.951,962.3
550.492,963.6
551.034,966.1
551.575,968.85
552.116,973.85
552.656,975.05
553.197,975.35
553.738,973.3
554.278,981.55
554.819,975.55
555.359,966.65
555.899,965.6
556.439,966.45
556.979,972.3
557.519,993.6
558.058,1151.8
558.598,1011.0
559.137,991.05
559.677,985.1
560.216,979.8
560.755,980.35
561.294,970.5
561.833,975.35
562.371,979.85
562.91,993.9
563.449,1031.55
563.987,1002.65
564.525,991.35
565.064,1021.25
565.602,1011.4
566.14,1061.9
566.678,1010.0
567.216,985.7
567.753,996.6
568.291,999.9
568.828,999.75
569.366,1003.1
569.903,994.65
570.44,994.8
570.977,1000.55
571.514,1024.5
572.051,1020.7
572.588,1013.15
573.125,1016.55
573.661,1021.5
574.198,1014.55
574.734,1026.45
575.271,1006.3
575.807,1008.5
576.343,1032.0
576.879,1100.6
577.415,1032.4
577.951,1011.7
578.486,1004.55
579.022,1005.95
579.557,1007.3
580.093,1007.4
580.628,1006.0
581.164,1002.25
581.699,1004.0
582.234,1006.5
582.769,1004.8
583.304,1008.35
583.838,1010.4
584.373,1010.15
584.908,1008.9
585.442,1008.55
585.977,1014.1
586.511,1032.55
587.045,1074.7
587.58,1103.7
588.114,1038.7
588.648,1016.85
589.182,1015.1
589.715,1010.85
590.249,1010.7
590.783,1008.05
591.316,1007.95
591.85,1010.45
592.383,1010.3
592.917,1010.05
593.45,1005.4
593.983,1005.85
594.516,1004.55
595.049,1010.15
595.582,1012.35
596.115,1009.1
596.648,1009.4
597.18,1010.5
597.713,1010.6
598.245,1008.6
598.778,1013.3
599.31,1015.15
599.842,1012.25
600.375,1010.35
600.907,1010.2
601.439,1009.9
601.971,1004.6
602.503,1004.35
603.034,1010.4
603.566,1010.3
604.098,1008.0
604.629,1005.7
605.161,1002.15
605.692,999.55
606.224,1001.2
606.755,995.35
607.286,1001.5
607.817,1000.8
608.348,999.25
608.879,1002.3
609.41,997.7
609.941,999.65
610.472,1000.35
611.002,996.45
611.533,1000.15
612.063,1001.1
612.594,1002.55
613.124,1003.7
613.655,1004.7
614.185,1006.55
614.715,1002.0
615.245,1002.05
615.775,1001.55
616.305,1000.2
616.835,1004.8
617.365,1003.85
617.895,1002.45
618.425,999.5
618.954,1002.75
619.484,1001.6
620.013,996.3
620.543,997.6
621.072,994.75
621.602,997.6
622.131,999.85
622.66,1011.3
623.189,1017.6
623.718,1013.85
624.247,1001.95
624.776,998.4
625.305,998.8
625.834,998.65
626.363,997.8
626.891,1000.05
627.42,1000.55
627.949,1017.25
628.477,1098.3
629.006,1073.85
629.534,1073.05
630.062,1080.55
630.591,1164.75
631.119,1615.7
631.647,1287.5
632.175,1149.15
632.703,1135.4
633.231,1237.75
633.759,1187.6
634.287,1073.1
634.815,1017.55
635.343,994.25
635.871,990.95
636.398,985.5
636.926,986.3
637.454,981.95
637.981,982.05
638.509,978.45
639.036,980.35
639.564,981.45
640.091,978.75
640.618,977.8
641.146,981.35
641.673,979.45
642.2,977.85
642.727,976.2
643.254,973.15
643.781,972.75
644.308,970.4
644.835,969.05
645.362,964.2
645.889,965.5
646.416,964.45
646.942,965.6
647.469,962.45
647.996,961.35
648.522,965.65
649.049,959.3
649.576,961.1
650.102,957.4
650.629,957.7
651.155,958.0
651.682,957.3
652.208,956.55
652.734,954.65
653.261,955.45
653.787,953.6
654.313,953.4
654.839,956.4
655.365,953.7
655.892,956.1
656.418,952.6
656.944,955.35
657.47,954.75
657.996,954.05
658.522,952.75
659.048,952.3
659.574,951.7
660.099,951.45
660.625,953.15
661.151,950.1
661.677,946.75
662.203,944.8
662.728,942.0
663.123,944.3