File: spectra/VLFR_06-PET_bio_Raman_5d772afa.csv
nm,Intensity
526.493,829.1
527.039,829.4
527.586,829.1
528.133,829.65
528.679,829.1
529.225,829.35
529.771,829.1
530.317,830.1
530.863,828.5
531.409,828.6
531.955,830.5
532.5,830.0
533.046,829.05
533.591,837.6
534.136,1831.85
534.681,1547.45
535.226,1264.75
535.771,1094.3
536.315,991.0
536.86,946.15
537.404,932.1
537.948,921.85
538.493,926.65
539.037,926.75
539.58,937.45
540.124,938.9
540.668,907.6
541.211,895.3
541.755,889.7
542.298,890.0
542.841,891.85
543.384,889.35
543.927,899.5
544.47,889.15
545.013,893.9
545.555,893.45
546.098,894.8
546.64,896.35
547.182,896.75
547.724,897.8
548.266,898.45
548.808,901.75
549.35,898.4
549.892,903.35
550.433,912.1
550.974,918.4
551.516,907.95
552.057,905.55
552.598,912.3
553.139,924.25
553.68,911.3
554.22,910.2
554.761,913.85
555.301,925.2
555.842,957.95
556.382,959.8
556.922,966.8
557.462,1065.9
558.002,987.95
558.542,982.1
559.082,947.3
559.621,927.15
560.161,925.35
560.7,931.35
561.239,930.8
561.778,936.7
562.317,945.9
562.856,957.85
563.395,955.5
563.934,946.15
564.472,954.3
565.011,983.9
565.549,1031.2
566.088,1032.5
566.626,967.0
567.164,954.6
567.702,1009.75
568.24,961.85
568.777,956.25
569.315,959.8
569.853,979.2
570.39,1012.95
570.927,1109.9
571.465,1193.55
572.002,1078.55
572.539,999.9
573.076,979.95
573.612,978.25
574.149,998.7
574.686,984.15
575.222,1003.4
575.759,988.35
576.295,1006.25
576.831,1018.1
577.367,996.15
577.903,982.1
578.439,986.95
578.975,984.75
579.511,990.85
580.046,991.75
580.582,999.5
581.117,1009.1
581.653,1068.05
582.188,1935.05
582.723,1043.65
583.258,1007.55
583.793,1005.7
584.328,1012.55
584.863,1018.3
585.398,1091.9
585.932,1483.0
586.467,1307.75
587.001,1051.5
587.535,1017.35
588.07,1014.8
588.604,1014.6
589.138,1013.65
589.672,1007.65
590.206,1009.25
590.739,1010.4
591.273,1009.95
591.807,1010.6
592.34,1007.9
592.873,1011.05
593.407,1008.9
593.94,1012.55
594.473,1010.7
595.006,1014.5
595.539,1015.75
596.072,1017.2
596.605,1018.95
597.138,1024.25
597.67,1017.5
598.203,1023.45
598.735,1020.55
599.268,1019.35
599.8,1020.15
600.332,1026.6
600.865,1025.05
601.397,1020.55
601.929,1022.2
602.46,1024.65
602.992,1025.55
603.524,1024.8
604.056,1027.55
604.587,1023.2
605.119,1025.25
605.65,1016.6
606.182,1022.75
606.713,1021.15
607.244,1017.75
607.775,1014.05
608.306,1023.05
608.837,1023.5
609.368,1020.75
609.899,1026.2
610.43,1026.15
610.961,1026.15
611.491,1024.9
612.022,1027.8
612.552,1028.35
613.083,1033.95
613.613,1035.3
614.143,1039.75
614.673,1037.5
615.203,1032.7
615.734,1036.8
616.263,1036.9
616.793,1039.55
617.323,1043.5
617.853,1044.55
618.383,1049.15
618.912,1045.3
619.442,1039.6
619.971,1041.45
620.501,1041.45
621.03,1033.75
621.56,1043.4
622.089,1045.55
622.618,1048.85
623.147,1048.25
623.676,1048.65
624.205,1053.0
624.734,1060.4
625.263,1058.3
625.792,1063.0
626.321,1057.25
626.849,1056.95
627.378,1062.0
627.906,1063.85
628.435,1078.7
628.963,1095.75
629.492,1097.2
630.02,1088.2
630.548,1092.35
631.077,1144.25
631.605,1247.45
632.133,1235.7
632.661,1169.55
633.189,1153.8
633.717,1148.7
634.245,1121.1
634.773,1110.1
635.3,1114.9
635.828,1164.9
636.356,1261.5
636.883,1265.1
637.411,1148.4
637.938,1118.8
638.466,1116.75
638.993,1113.8
639.521,1117.95
640.048,1116.4
640.575,1118.5
641.103,1119.25
641.63,1123.1
642.157,1135.35
642.684,1133.0
643.211,1124.75
643.738,1124.45
644.265,1119.25
644.792,1125.75
645.319,1123.1
645.845,1121.65
646.372,1135.25
646.899,1132.2
647.425,1133.3
647.952,1138.1
648.479,1133.9
649.005,1138.7
649.532,1138.8
650.058,1137.75
650.585,1133.75
651.111,1141.8
651.637,1139.8
652.164,1141.25
652.69,1145.65
653.216,1143.3
653.742,1144.45
654.268,1144.15
654.794,1145.05
655.32,1144.25
655.846,1146.8
656.372,1141.4
656.898,1148.25
657.424,1148.2
657.95,1143.05
658.476,1149.4
659.002,1149.7
659.528,1150.25
660.053,1156.65
660.579,1158.1
661.105,1145.15
661.63,1146.0
662.156,1150.95
662.681,1144.8
663.076,1145.6