File: spectra/VLFR_02-HDPE_nobio_Raman_918b874f.csv
nm,Intensity
528.65,1833.85
529.155,1833.35
529.66,1833.7
530.165,1834.3
530.67,1833.95
531.175,1833.3
531.68,1846.8
532.185,2554.25
532.69,1833.95
533.194,1832.75
533.699,1890.35
534.204,2030.15
534.708,2020.15
535.213,2010.95
535.717,1974.85
536.222,1955.1
536.726,1953.35
537.231,1950.2
537.735,1955.25
538.239,1943.95
538.743,1946.75
539.247,1939.55
539.751,1936.5
540.255,1929.35
540.759,1934.15
541.263,1937.1
541.767,1934.75
542.271,1935.25
542.775,1937.55
543.279,1931.6
543.782,1943.3
544.286,1938.95
544.789,1934.4
545.293,1936.7
545.796,1936.3
546.3,1934.45
546.803,1938.4
547.306,1935.6
547.81,1941.9
548.313,1943.45
548.816,1937.65
549.319,1940.45
549.822,1944.75
550.325,1941.15
550.828,1940.65
551.331,1936.35
551.834,1950.05
552.337,1949.45
552.839,1940.25
553.342,1952.5
553.844,1955.8
554.347,1958.05
554.849,1961.1
555.352,1960.6
555.854,1963.0
556.357,1962.6
556.859,1969.3
557.361,1970.55
557.863,1972.6
558.365,1986.9
558.867,1972.65
559.369,1974.45
559.871,1977.8
560.373,1972.1
560.875,1971.35
561.377,1982.45
561.878,1982.35
562.38,1983.85
562.881,1996.25
563.383,2013.35
563.884,2252.15
564.386,2070.25
564.887,2044.1
565.388,2028.3
565.89,2149.95
566.391,2184.9
566.892,2015.0
567.393,2057.95
567.894,2006.65
568.395,2001.9
568.896,1997.05
569.396,2009.4
569.897,2014.1
570.398,2024.2
570.898,2047.85
571.399,2478.1
571.9,2124.55
572.4,2050.25
572.9,2047.2
573.401,2035.65
573.901,2073.4
574.401,2038.6
574.901,2058.45
575.401,2221.6
575.901,2259.8
576.401,2479.55
576.901,2371.15
577.401,2215.7
577.901,2132.15
578.4,2110.6
578.9,2127.1
579.399,2154.3
579.899,2148.95
580.398,2154.1
580.898,2158.9
581.397,2169.9
581.896,2175.5
582.395,2196.65
582.895,2196.85
583.394,2203.75
583.893,2216.25
584.391,2215.3
584.89,2229.95
585.389,2250.2
585.888,2265.8
586.386,2281.05
586.885,2288.3
587.384,2301.35
587.882,2324.6
588.38,2342.55
588.879,2347.1
589.377,2354.75
589.875,2384.5
590.373,2411.8
590.871,2419.4
591.369,2427.6
591.867,2457.5
592.365,2462.4
592.863,2450.25
593.361,2500.6
593.858,2480.15
594.356,2487.0
594.853,2493.55
595.351,2513.1
595.848,2515.8
596.345,2500.25
596.843,2506.5
597.34,2523.45
597.837,2525.15
598.334,2516.3
598.831,2520.05
599.328,2537.85
599.824,2522.7
600.321,2521.5
600.818,2513.35
601.314,2509.4
601.811,2512.2
602.307,2509.6
602.804,2488.6
603.3,2488.0
603.796,2481.1
604.293,2470.6
604.789,2438.65
605.285,2443.65
605.781,2419.6
606.277,2408.75
606.772,2397.9
607.268,2384.15
607.764,2379.2
608.259,2363.25
608.755,2340.9
609.25,2337.05
609.746,2336.05
610.241,2330.25
610.736,2313.95
611.231,2322.05
611.727,2296.5
612.222,2302.2
612.716,2266.4
613.211,2276.25
613.706,2264.6
614.201,2265.95
614.695,2263.3
615.19,2251.1
615.684,2253.85
616.179,2249.6
616.673,2248.7
617.168,2266.1
617.662,2259.55
618.156,2264.9
618.65,2236.5
619.144,2251.95
619.638,2241.1
620.131,2260.15
620.625,2254.7
621.119,2283.6
621.612,2317.7
622.106,2413.95
622.599,2361.95
623.093,2259.25
623.586,2234.0
624.079,2219.8
624.572,2215.05
625.065,2218.0
625.558,2229.35
626.051,2313.4
626.544,2724.95
627.037,4712.9
627.529,4295.25
628.022,3786.5
628.514,4912.0
629.007,3566.3
629.499,3264.65
629.991,3009.4
630.483,2889.45
630.976,2554.5
631.468,2285.3
631.959,2228.4
632.451,2196.35
632.943,2183.2
633.435,2197.5
633.926,2182.9
634.418,2169.8
634.909,2172.75
635.401,2173.9
635.892,2160.5
636.383,2166.1
636.874,2147.5
637.365,2167.0
637.856,2149.45
638.347,2151.35
638.838,2145.4
639.329,2146.05
639.819,2149.7
640.31,2167.35
640.8,2145.65
641.291,2143.05
641.781,2145.05
642.271,2160.7
642.761,2162.65
643.251,2162.2
643.741,2156.85
644.231,2155.65
644.721,2151.5
645.211,2154.55
645.7,2169.55
646.19,2150.6
646.679,2154.35
647.169,2146.65
647.658,2135.95
648.147,2135.4
648.636,2136.25
649.125,2125.85
649.614,2135.9
650.103,2129.75
650.592,2125.85
651.08,2133.9
651.569,2112.9
652.058,2111.95
652.546,2118.3
653.034,2107.0
653.523,2096.95
654.011,2108.55
654.499,2092.4
654.987,2084.85
655.475,2084.0
655.963,2084.9
656.45,2073.95
656.938,2076.65
657.425,2068.95
657.913,2055.25
658.4,2046.8
658.888,2041.45
659.375,2038.4
659.862,2036.85
660.349,2047.4
660.836,2037.75
661.079,2016.05