File: spectra/VLFR_08-PLA_nobio_Raman_15b22a4c.csv
nm,Intensity
526.532,830.133
527.079,830.0
527.625,830.233
528.172,830.233
528.718,830.333
529.265,830.433
529.811,829.233
530.357,829.6
530.903,830.067
531.449,830.367
531.994,835.967
532.54,830.2
533.085,830.1
533.63,832.367
534.176,1012.97
534.721,970.3
535.266,940.933
535.81,927.967
536.355,918.333
536.9,919.367
537.444,905.233
537.988,910.467
538.533,898.233
539.077,896.333
539.621,891.533
540.165,889.567
540.708,906.3
541.252,907.433
541.795,894.1
542.339,891.433
542.882,895.033
543.425,916.033
543.968,929.367
544.511,900.467
545.054,891.7
545.597,890.0
546.139,888.333
546.682,887.033
547.224,890.8
547.766,890.4
548.308,890.233
548.85,890.867
549.392,892.7
549.934,892.367
550.475,894.7
551.017,894.667
551.558,900.633
552.1,900.833
552.641,902.7
553.182,902.867
553.723,903.633
554.264,905.467
554.804,898.533
555.345,895.567
555.885,891.767
556.426,892.867
556.966,896.867
557.506,911.467
558.046,1022.17
558.586,918.5
559.126,908.833
559.665,906.567
560.205,903.067
560.745,901.4
561.284,897.733
561.823,898.033
562.362,899.433
562.901,907.6
563.44,938.6
563.979,916.933
564.518,911.033
565.056,931.067
565.595,923.9
566.133,956.1
566.671,919.8
567.21,906.167
567.748,910.9
568.285,911.367
568.823,909.667
569.361,911.767
569.899,910.067
570.436,908.933
570.974,913.367
571.511,931.433
572.048,926.433
572.585,922.5
573.122,925.867
573.659,926.167
574.196,921.9
574.733,931.767
575.269,914.233
575.806,914.3
576.342,936.233
576.878,980.633
577.414,932.1
577.951,917.167
578.486,912.8
579.022,914.433
579.558,913.9
580.094,915.467
580.629,913.467
581.165,914.6
581.7,912.167
582.236,914.733
582.771,916.333
583.306,918.267
583.841,916.1
584.376,916.633
584.911,917.433
585.445,918.4
585.98,919.033
586.514,931.133
587.049,960.633
587.583,984.033
588.117,936.4
588.651,918.3
589.186,916.333
589.72,916.1
590.253,916.567
590.787,916.933
591.321,916.4
591.854,915.667
592.388,915.7
592.921,917.033
593.455,911.967
593.988,913.667
594.521,914.467
595.054,914.6
595.587,917.767
596.12,914.967
596.653,917.033
597.186,917.567
597.718,913.833
598.251,916.433
598.783,918.933
599.316,916.5
599.848,916.567
600.38,917.233
600.912,916.3
601.444,913.933
601.976,914.667
602.508,914.1
603.04,916.333
603.572,915.367
604.103,915.0
604.635,916.433
605.167,914.267
605.698,913.667
606.229,910.767
606.761,912.1
607.292,911.767
607.823,912.033
608.354,912.533
608.885,914.0
609.416,912.633
609.947,914.033
610.477,911.9
611.008,912.233
611.539,910.5
612.069,913.2
612.6,914.0
613.13,914.533
613.66,914.5
614.19,914.367
614.721,913.533
615.251,915.067
615.781,914.767
616.311,914.0
616.841,913.333
617.37,915.067
617.9,912.9
618.43,914.0
618.96,912.567
619.489,914.567
620.019,911.933
620.548,911.333
621.077,911.667
621.607,912.167
622.136,913.167
622.665,922.8
623.194,927.633
623.723,920.067
624.252,916.2
624.781,914.2
625.31,912.7
625.839,910.967
626.368,912.733
626.896,914.067
627.425,917.4
627.953,926.433
628.482,986.067
629.01,971.933
629.539,969.1
630.067,974.267
630.596,1038.3
631.124,1387.53
631.652,1136.27
632.18,1029.2
632.708,1009.73
633.236,1096.47
633.764,1057.1
634.292,970.3
634.82,926.667
635.348,916.667
635.876,913.1
636.403,907.3
636.931,905.067
637.459,902.867
637.986,904.3
638.514,905.233
639.041,903.767
639.568,903.167
640.096,903.367
640.623,902.033
641.15,903.867
641.678,902.733
642.205,902.867
642.732,903.8
643.259,898.467
643.786,899.467
644.313,897.8
644.84,895.033
645.367,895.967
645.894,895.967
646.421,893.833
646.948,893.567
647.474,895.9
648.001,895.3
648.528,894.2
649.054,894.6
649.581,894.267
650.108,892.067
650.634,889.0
651.161,891.867
651.687,891.533
652.214,891.267
652.74,888.167
653.266,889.1
653.793,889.533
654.319,889.5
654.845,889.867
655.371,888.433
655.897,888.633
656.424,889.3
656.95,888.833
657.476,890.6
658.002,889.967
658.528,887.533
659.054,886.767
659.58,888.767
660.106,886.733
660.631,887.367
661.157,885.7
661.683,885.333
662.209,883.633
662.735,884.667
663.129,883.867