File: spectra/VLFR_01-LDPE_bio_Raman_944624b0.csv
nm,Intensity
528.626,1866.0
529.132,1866.9
529.637,1865.1
530.143,1865.0
530.648,1866.8
531.153,1870.2
531.658,1910.2
532.164,4315.4
532.669,1867.0
533.174,1866.8
533.679,1990.7
534.184,2404.2
534.689,2387.5
535.194,2389.0
535.699,2356.0
536.203,2295.5
536.708,2270.3
537.213,2288.9
537.717,2300.0
538.222,2256.3
538.726,2266.9
539.231,2238.7
539.735,2216.0
540.239,2230.9
540.744,2236.7
541.248,2228.7
541.752,2244.5
542.256,2249.7
542.76,2256.4
543.264,2240.2
543.768,2247.4
544.272,2245.2
544.776,2260.4
545.28,2258.0
545.784,2253.0
546.287,2239.7
546.791,2257.0
547.294,2245.9
547.798,2252.6
548.301,2285.1
548.805,2243.2
549.308,2268.6
549.811,2253.4
550.315,2245.2
550.818,2253.8
551.321,2260.4
551.824,2286.7
552.327,2272.5
552.83,2243.3
553.333,2292.1
553.835,2302.8
554.338,2318.7
554.841,2323.7
555.343,2318.4
555.846,2329.9
556.349,2348.4
556.851,2333.4
557.353,2358.9
557.856,2388.7
558.358,2406.0
558.86,2394.6
559.362,2374.5
559.864,2377.1
560.366,2370.8
560.868,2419.3
561.37,2385.6
561.872,2407.0
562.374,2428.4
562.876,2477.0
563.377,2508.6
563.879,2847.7
564.38,2666.0
564.882,2603.7
565.383,2584.0
565.885,2767.6
566.386,2806.3
566.887,2590.1
567.388,2634.5
567.889,2611.9
568.391,2615.8
568.892,2653.2
569.392,2718.5
569.893,2748.1
570.394,2800.5
570.895,2870.9
571.395,3509.7
571.896,3258.5
572.397,3130.1
572.897,3118.6
573.397,3212.0
573.898,3352.9
574.398,3383.7
574.898,3507.0
575.398,3858.0
575.898,4215.8
576.398,4812.1
576.898,4760.8
577.398,4733.8
577.898,4745.6
578.398,4939.2
578.897,5250.1
579.397,5553.4
579.896,5844.9
580.396,5975.8
580.895,6329.2
581.395,6521.1
581.894,6673.2
582.393,6867.1
582.892,7188.6
583.391,7298.2
583.89,7451.6
584.389,7602.6
584.888,7426.0
585.387,7667.3
585.886,7864.1
586.384,7762.2
586.883,8051.6
587.381,8245.9
587.88,8467.6
588.378,8599.5
588.876,8749.4
589.375,8751.4
589.873,9255.2
590.371,9382.7
590.869,9804.1
591.367,9944.8
591.865,10217.2
592.363,10109.0
592.86,10432.6
593.358,10302.3
593.856,10318.0
594.353,10620.1
594.851,10715.8
595.348,11071.4
595.845,11443.5
596.342,11523.5
596.84,11793.8
597.337,12072.0
597.834,12099.6
598.331,12362.1
598.828,12878.2
599.324,13111.0
599.821,13148.3
600.318,13406.9
600.814,13288.0
601.311,13123.5
601.807,13121.4
602.304,12904.4
602.8,12786.7
603.296,12374.0
603.792,12143.2
604.288,11736.8
604.784,11461.5
605.28,11122.4
605.776,10793.3
606.272,10391.7
606.767,10146.0
607.263,9747.0
607.759,9618.6
608.254,9250.0
608.749,8926.8
609.245,8600.8
609.74,8521.2
610.235,8382.8
610.73,8057.7
611.225,8058.1
611.72,7853.9
612.215,7843.9
612.71,7507.8
613.204,7367.1
613.699,7310.8
614.194,7157.2
614.688,7002.8
615.182,7022.8
615.677,6925.7
616.171,6713.9
616.665,6703.9
617.159,6500.2
617.653,6318.9
618.147,6501.8
618.641,6401.4
619.135,6313.4
619.628,6314.8
620.122,6251.6
620.615,6240.8
621.109,6101.8
621.602,6250.6
622.095,6323.3
622.589,6199.7
623.082,6046.8
623.575,6070.4
624.068,5955.5
624.561,6022.9
625.053,5972.1
625.546,5990.2
626.039,6055.6
626.531,6554.8
627.024,9087.2
627.516,9184.0
628.008,8389.2
628.501,10415.8
628.993,8879.4
629.485,8242.0
629.977,7857.4
630.469,7632.1
630.96,6718.7
631.452,6457.6
631.944,6278.0
632.435,6276.1
632.927,6298.9
633.418,6323.5
633.91,6157.8
634.401,6262.9
634.892,6283.4
635.383,6216.7
635.874,5987.7
636.365,6373.8
636.856,6173.6
637.346,6196.4
637.837,6177.9
638.327,6151.8
638.818,6095.6
639.308,6097.8
639.799,6307.2
640.289,6295.4
640.779,6158.4
641.269,6338.9
641.759,6116.3
642.249,6215.4
642.738,6261.9
643.228,6261.7
643.718,6314.8
644.207,6471.7
644.697,6248.8
645.186,6246.3
645.675,6323.8
646.164,6283.1
646.653,6373.3
647.142,6257.7
647.631,6344.9
648.12,6312.1
648.609,6161.1
649.098,6165.5
649.586,6183.4
650.075,6170.7
650.563,6178.5
651.051,6275.8
651.539,6148.3
652.027,6212.4
652.515,6116.4
653.003,6032.0
653.491,6012.8
653.979,6003.7
654.467,5945.0
654.954,5869.0
655.442,5900.6
655.929,5755.6
656.416,5719.7
656.904,5515.1
657.391,5626.0
657.878,5359.9
658.365,5431.0
658.851,5132.0
659.338,4938.8
659.825,4977.5
660.311,4925.8
660.798,4733.7
661.041,4688.1