File: spectra/VLFR_02-HDPE_nobio_Raman_17c008d5.csv
nm,Intensity
526.532,830.433
527.079,830.1
527.625,830.033
528.172,830.0
528.718,829.2
529.265,830.3
529.811,830.433
530.357,830.367
530.903,830.367
531.449,829.833
531.994,833.4
532.54,830.633
533.085,830.433
533.63,831.2
534.176,901.267
534.721,902.033
535.266,897.733
535.81,869.267
536.355,860.533
536.9,857.033
537.444,857.333
537.988,856.3
538.533,855.2
539.077,852.6
539.621,849.733
540.165,849.6
540.708,849.767
541.252,849.167
541.795,848.3
542.339,848.1
542.882,848.433
543.425,848.267
543.968,848.767
544.511,847.533
545.054,848.5
545.597,847.767
546.139,847.967
546.682,847.867
547.224,848.467
547.766,848.933
548.308,849.233
548.85,847.033
549.392,847.833
549.934,849.667
550.475,848.8
551.017,848.133
551.558,850.333
552.1,848.9
552.641,848.667
553.182,850.7
553.723,851.933
554.264,850.6
554.804,852.7
555.345,851.767
555.885,853.5
556.426,853.233
556.966,854.533
557.506,856.233
558.046,857.0
558.586,856.9
559.126,856.4
559.665,855.3
560.205,853.967
560.745,855.867
561.284,853.533
561.823,854.867
562.362,856.867
562.901,857.933
563.44,862.4
563.979,961.933
564.518,876.267
565.056,870.467
565.595,866.1
566.133,935.633
566.671,863.267
567.21,863.633
567.748,866.167
568.285,856.967
568.823,857.767
569.361,858.967
569.899,859.933
570.436,862.7
570.974,868.533
571.511,1039.17
572.048,883.767
572.585,866.3
573.122,859.3
573.659,861.0
574.196,866.733
574.733,857.733
575.269,864.567
575.806,895.333
576.342,1032.73
576.878,945.5
577.414,914.367
577.951,870.467
578.486,862.567
579.022,861.6
579.558,861.733
580.094,860.8
580.629,860.6
581.165,859.9
581.7,860.667
582.236,859.6
582.771,861.033
583.306,860.367
583.841,859.533
584.376,861.2
584.911,860.233
585.445,861.833
585.98,860.4
586.514,860.567
587.049,863.033
587.583,863.833
588.117,861.267
588.651,863.133
589.186,863.667
589.72,864.567
590.253,865.867
590.787,865.933
591.321,867.667
591.854,868.8
592.388,869.533
592.921,869.233
593.455,870.667
593.988,869.6
594.521,872.167
595.054,871.667
595.587,874.0
596.12,874.767
596.653,875.333
597.186,879.6
597.718,877.533
598.251,880.9
598.783,882.233
599.316,883.167
599.848,883.133
600.38,884.367
600.912,886.767
601.444,886.0
601.976,891.4
602.508,887.933
603.04,884.467
603.572,887.167
604.103,885.733
604.635,883.867
605.167,883.8
605.698,879.7
606.229,879.533
606.761,879.033
607.292,879.267
607.823,877.133
608.354,877.7
608.885,878.1
609.416,876.6
609.947,875.433
610.477,875.733
611.008,875.767
611.539,876.533
612.069,875.9
612.6,876.5
613.13,875.533
613.66,875.2
614.19,875.5
614.721,875.6
615.251,876.533
615.781,876.967
616.311,878.4
616.841,881.767
617.37,887.8
617.9,888.433
618.43,888.333
618.96,886.367
619.489,890.533
620.019,892.0
620.548,892.333
621.077,898.967
621.607,922.133
622.136,965.4
622.665,952.733
623.194,904.033
623.723,894.567
624.252,891.033
624.781,893.2
625.31,898.2
625.839,909.167
626.368,963.9
626.896,1440.03
627.425,1988.97
627.953,1527.9
628.482,2042.43
629.01,1467.17
629.539,1334.37
630.067,1185.2
630.596,1151.73
631.124,992.933
631.652,912.0
632.18,895.967
632.708,888.567
633.236,885.233
633.764,879.667
634.292,877.3
634.82,874.533
635.348,871.233
635.876,870.667
636.403,870.633
636.931,870.133
637.459,865.033
637.986,863.6
638.514,862.967
639.041,862.2
639.568,862.6
640.096,859.967
640.623,861.067
641.15,862.333
641.678,861.933
642.205,860.4
642.732,861.167
643.259,860.967
643.786,860.933
644.313,861.667
644.84,860.867
645.367,862.5
645.894,859.2
646.421,860.6
646.948,860.667
647.474,860.567
648.001,861.6
648.528,859.667
649.054,861.733
649.581,860.033
650.108,860.2
650.634,861.833
651.161,861.933
651.687,858.8
652.214,862.267
652.74,860.6
653.266,862.8
653.793,862.833
654.319,861.167
654.845,861.733
655.371,861.6
655.897,859.6
656.424,860.0
656.95,860.767
657.476,859.867
658.002,860.6
658.528,861.633
659.054,860.8
659.58,861.4
660.106,862.367
660.631,861.867
661.157,860.967
661.683,858.1
662.209,858.9
662.735,858.533
663.129,857.0