File: spectra/VLFR_01-LDPE_nobio_Raman_4295a8be.csv
nm,Intensity
526.5,830.4
527.047,830.1
527.594,828.3
528.14,828.7
528.687,828.1
529.233,828.2
529.779,828.6
530.325,828.5
530.871,828.5
531.417,829.5
531.962,838.5
532.508,831.0
533.053,829.8
533.599,829.0
534.144,902.5
534.689,883.7
535.234,876.1
535.778,863.8
536.323,859.7
536.867,859.0
537.412,856.3
537.956,853.9
538.5,854.6
539.044,849.2
539.588,849.5
540.132,848.2
540.675,847.4
541.219,846.1
541.762,847.1
542.305,846.0
542.848,846.5
543.391,845.6
543.934,845.1
544.477,846.6
545.02,843.7
545.562,843.4
546.105,842.6
546.647,844.2
547.189,843.6
547.731,844.4
548.273,844.1
548.815,844.3
549.356,841.6
549.898,844.1
550.439,843.5
550.981,841.6
551.522,844.0
552.063,842.9
552.604,844.0
553.145,846.0
553.686,847.0
554.226,846.7
554.767,847.9
555.307,846.3
555.848,849.1
556.388,851.8
556.928,853.5
557.468,855.1
558.008,857.5
558.547,857.3
559.087,856.6
559.626,855.1
560.166,856.8
560.705,856.8
561.244,855.3
561.783,857.8
562.322,859.3
562.861,861.8
563.4,868.0
563.939,917.8
564.477,888.7
565.015,880.7
565.554,874.8
566.092,943.8
566.63,881.5
567.168,872.5
567.706,875.3
568.244,873.6
568.781,875.3
569.319,880.0
569.857,880.3
570.394,883.4
570.931,896.6
571.468,989.5
572.005,930.6
572.542,907.9
573.079,909.3
573.616,910.9
574.153,925.4
574.689,926.1
575.226,939.9
575.762,984.1
576.298,1079.5
576.834,1041.7
577.371,1024.9
577.907,1005.1
578.442,1020.1
578.978,1039.2
579.514,1057.4
580.049,1079.5
580.585,1096.0
581.12,1114.0
581.656,1129.4
582.191,1150.7
582.726,1167.4
583.261,1167.8
583.796,1181.9
584.331,1194.5
584.865,1201.6
585.4,1221.0
585.935,1231.2
586.469,1240.9
587.004,1269.1
587.538,1271.3
588.072,1287.5
588.606,1290.4
589.14,1318.3
589.674,1330.3
590.208,1357.2
590.742,1372.2
591.275,1386.4
591.809,1403.2
592.342,1413.9
592.876,1419.2
593.409,1428.6
593.942,1427.1
594.476,1449.1
595.009,1453.9
595.542,1468.9
596.075,1469.8
596.607,1482.0
597.14,1489.3
597.673,1500.0
598.205,1512.7
598.738,1532.4
599.27,1542.5
599.803,1541.3
600.335,1540.4
600.867,1532.8
601.399,1542.9
601.931,1529.4
602.463,1524.8
602.995,1499.3
603.527,1503.6
604.058,1461.7
604.59,1446.1
605.122,1417.1
605.653,1382.5
606.184,1356.8
606.716,1340.6
607.247,1318.1
607.778,1305.0
608.309,1294.8
608.84,1275.1
609.371,1278.3
609.902,1257.2
610.433,1237.6
610.964,1228.5
611.494,1232.0
612.025,1210.7
612.556,1210.5
613.086,1206.3
613.616,1202.9
614.147,1192.3
614.677,1184.5
615.207,1173.0
615.737,1169.0
616.267,1164.3
616.797,1159.2
617.327,1154.1
617.857,1145.2
618.387,1145.2
618.917,1140.8
619.446,1133.4
619.976,1130.3
620.505,1127.5
621.035,1130.2
621.564,1137.5
622.093,1155.1
622.623,1154.0
623.152,1135.7
623.681,1126.5
624.21,1120.6
624.739,1119.9
625.268,1124.3
625.797,1129.0
626.326,1151.6
626.855,1344.8
627.383,1746.7
627.912,1509.9
628.441,1697.1
628.969,1612.6
629.498,1509.7
630.026,1410.1
630.554,1388.5
631.083,1267.1
631.611,1192.0
632.139,1176.9
632.667,1166.5
633.195,1163.2
633.724,1155.0
634.252,1161.5
634.779,1155.3
635.307,1164.9
635.835,1161.7
636.363,1161.0
636.891,1164.9
637.418,1167.7
637.946,1165.1
638.474,1167.0
639.001,1170.7
639.529,1169.7
640.056,1178.0
640.583,1175.3
641.111,1184.2
641.638,1183.2
642.165,1189.8
642.692,1189.0
643.22,1198.2
643.747,1194.0
644.274,1190.4
644.801,1189.6
645.328,1196.5
645.854,1200.6
646.381,1201.6
646.908,1195.5
647.435,1201.7
647.962,1202.9
648.488,1189.6
649.015,1193.1
649.542,1199.5
650.068,1194.8
650.595,1196.5
651.121,1188.5
651.648,1189.3
652.174,1189.4
652.7,1188.3
653.227,1186.7
653.753,1186.8
654.279,1177.4
654.805,1186.8
655.331,1179.4
655.858,1166.1
656.384,1170.8
656.91,1169.0
657.436,1155.9
657.962,1151.0
658.488,1148.1
659.013,1135.5
659.539,1125.2
660.065,1121.0
660.591,1102.0
661.117,1093.6
661.642,1085.4
662.168,1081.9
662.694,1068.8
663.088,1061.8