File: spectra/VLFR_07-PET_bio_Raman_1a8f7258.csv
nm,Intensity
791.377,13581.5
792.477,12027.0
793.576,11101.2
794.676,10696.7
795.775,10360.2
796.874,10363.0
797.973,10270.5
799.072,10207.6
800.171,10146.0
801.27,10225.5
802.368,10292.4
803.467,10108.7
804.565,9929.4
805.664,9755.04
806.762,9806.02
807.86,9681.58
808.958,9561.56
810.056,9469.68
811.153,9407.7
812.251,9284.76
813.349,9331.36
814.446,9184.88
815.543,9018.94
816.64,8902.92
817.737,8925.58
818.834,8842.98
819.931,8798.54
821.028,8631.16
822.125,8598.36
823.221,8443.52
824.317,8394.04
825.414,8453.9
826.51,8474.16
827.606,8243.6
828.702,8153.46
829.797,8149.04
830.893,8278.3
831.988,7960.88
833.084,7956.54
834.179,7900.42
835.274,7810.78
836.369,7716.2
837.464,7920.4
838.559,7907.34
839.654,7852.76
840.748,7941.22
841.843,8247.12
842.937,7812.5
844.031,7792.64
845.125,7504.18
846.219,7287.12
847.313,7273.24
848.407,7177.14
849.5,7160.84
850.593,7089.32
851.687,7155.94
852.78,7133.56
853.873,7101.86
854.966,7019.14
856.059,6955.96
857.151,6857.38
858.244,6916.64
859.336,7081.8
860.428,7194.86
861.52,6923.06
862.612,6712.7
863.704,6643.54
864.796,6715.76
865.888,6625.98
866.979,6518.38
868.07,6525.98
869.162,6500.22
870.253,6519.56
871.344,6629.1
872.434,6900.86
873.525,6965.62
874.615,6709.42
875.706,6494.5
876.796,6311.74
877.886,6280.46
878.976,6206.76
880.066,6196.06
881.156,6117.9
882.245,6166.04
883.335,6171.1
884.424,6105.6
885.513,6093.66
886.602,6019.74
887.691,5937.04
888.78,5916.28
889.868,5865.44
890.957,5857.36
892.045,5848.94
893.133,5821.28
894.221,5727.52
895.309,5705.76
896.397,5731.68
897.484,5874.98
898.571,6833.1
899.659,6278.46
900.746,5592.46
901.833,5543.96
902.92,5466.46
904.006,5456.06
905.093,5484.68
906.179,5589.86
907.266,6048.5
908.352,6222.12
909.438,5760.24
910.523,5367.44
911.609,5251.3
912.695,5177.38
913.78,5176.42
914.865,5120.12
915.95,5061.02
917.035,5074.12
918.12,5035.58
919.204,5022.2
920.289,4944.36
921.373,4886.88
922.457,4927.96
923.541,4849.28
924.625,4860.46
925.709,4831.02
926.792,4764.74
927.876,4759.24
928.959,4725.38
930.042,4687.76
931.125,4646.02
932.208,4662.02
933.29,4627.1
934.373,4594.48
935.455,4554.86
936.537,4526.4
937.619,4513.22
938.701,4497.86
939.782,4467.28
940.864,4458.06
941.945,4442.76
943.026,4404.08
944.107,4380.96
945.188,4362.0
946.269,4371.4
947.349,4327.58
948.43,4330.98
949.51,4295.8
950.59,4294.98
951.67,4279.5
952.75,4240.06
953.829,4227.98
954.909,4225.4
955.988,4218.36
957.067,4205.88
958.146,4178.4
959.224,4176.54
960.303,4166.12
961.381,4148.82
962.459,4135.72
963.537,4129.92
964.615,4113.42
965.693,4102.88
966.771,4076.46
967.848,4086.08
968.925,4072.7
970.002,4065.08
971.079,4050.72
972.156,4050.94
973.232,4039.26
974.309,4034.76
975.385,4017.34
976.461,4012.44
977.537,4006.48
978.612,3998.66
979.688,3989.2
980.763,3986.72
981.838,3981.36
982.913,3971.1
983.988,3967.32
985.063,3958.26
986.137,3950.74
987.211,3953.02
988.285,3941.64
989.359,3943.58
990.433,3932.44
991.506,3924.42
992.58,3921.22
993.653,3913.46
994.726,3904.68
995.799,3905.26
996.872,3899.8
997.944,3894.94
999.016,3895.3
1000.09,3886.28
1001.16,3882.62
1002.23,3884.2
1003.3,3872.62
1004.38,3869.32
1005.45,3868.04
1006.52,3865.06
1007.59,3860.62
1008.66,3857.68
1009.73,3851.2
1010.8,3852.28
1011.87,3846.62
1012.94,3846.88
1014.01,3846.7
1015.08,3842.2
1016.15,3843.62
1017.22,3841.26
1018.29,3835.8
1019.36,3834.44
1020.42,3835.48
1021.49,3840.52
1022.56,3848.3
1023.63,3844.14
1024.7,3838.12
1025.76,3831.44
1026.83,3828.04
1027.9,3820.78
1028.97,3813.08
1030.03,3813.64
1031.1,3809.9
1032.17,3808.94
1033.23,3809.28
1034.3,3815.98
1035.36,3817.58
1036.43,3814.8
1037.5,3809.1
1038.56,3802.48
1039.63,3800.92
1040.69,3797.58
1041.76,3796.46
1042.82,3795.14
1043.89,3792.92
1044.95,3791.58
1046.01,3791.3
1047.08,3792.96
1048.14,3789.28
1049.2,3791.04
1050.27,3790.16
1051.33,3789.04
1052.39,3788.52
1053.46,3788.48
1054.52,3788.08
1055.58,3788.04
1056.64,3788.2
1057.7,3786.78
1058.77,3786.3
1059.83,3786.54
1060.89,3786.58
1061.95,3784.72
1063.01,3786.22
1064.07,3785.9
1065.13,3786.22
1066.19,3785.0
1067.25,3784.44
1068.05,3784.62