File: spectra/VLFR_06-PET_nobio_Raman_acc5168f.csv
cm-1,Intensity
-123.878,1855.55
-105.821,1856.6
-87.8007,1856.9
-69.8161,1856.25
-51.8675,1857.55
-33.9547,1862.55
-16.0776,1918.55
1.76388,3802.9
19.5698,1861.25
37.3403,1869.7
55.0755,3519.65
72.7754,7081.85
90.4402,5752.8
108.07,4465.0
125.665,3553.3
143.225,3017.5
160.75,2812.8
178.241,2716.85
195.697,2682.15
213.119,2699.05
230.506,2705.8
247.859,2756.3
265.178,2879.8
282.463,2771.4
299.713,2623.55
316.93,2586.85
334.113,2589.6
351.263,2589.2
368.379,2606.95
385.461,2593.25
402.51,2648.9
419.526,2621.95
436.508,2648.85
453.458,2664.55
470.374,2669.25
487.257,2651.0
504.107,2690.25
520.925,2692.35
537.71,2717.1
554.462,2755.1
571.182,2734.7
587.87,2741.55
604.525,2764.65
621.148,2917.75
637.739,3241.45
654.297,2848.85
670.824,2850.3
687.319,2885.45
703.782,3181.6
720.213,2908.4
736.613,2938.05
752.981,2951.05
769.317,3015.7
785.623,3173.45
801.897,3402.75
818.139,3470.1
834.351,3530.65
850.532,4355.0
866.681,3845.0
882.8,3714.2
898.888,3461.05
914.945,3228.95
930.972,3212.55
946.968,3230.9
962.934,3275.75
978.869,3345.35
994.774,3392.05
1010.65,3446.85
1026.49,3560.95
1042.31,3518.5
1058.09,3453.2
1073.85,3506.15
1089.57,3859.4
1105.27,4278.9
1120.93,4457.3
1136.57,3802.9
1152.18,3589.9
1167.75,3865.7
1183.3,3963.6
1198.82,3637.15
1214.31,3615.4
1229.77,3704.45
1245.2,3917.4
1260.6,4317.25
1275.97,5154.75
1291.32,5797.35
1306.63,4798.15
1321.92,4121.8
1337.18,3911.0
1352.41,3881.6
1367.61,4050.8
1382.78,3959.7
1397.93,4065.9
1413.05,4301.55
1428.14,4056.2
1443.2,4292.1
1458.23,4321.7
1473.23,4124.45
1488.21,4052.55
1503.16,4054.8
1518.08,4083.8
1532.97,4112.3
1547.84,4164.1
1562.68,4228.4
1577.49,4374.55
1592.27,4561.95
1607.03,8319.3
1621.76,7519.9
1636.46,4444.05
1651.14,4353.5
1665.78,4394.65
1680.41,4390.7
1695.0,4587.1
1709.57,5587.45
1724.11,8455.2
1738.62,7004.75
1753.11,4907.0
1767.57,4560.1
1782.01,4526.65
1796.41,4510.25
1810.8,4550.8
1825.15,4505.95
1839.48,4494.6
1853.79,4458.9
1868.06,4525.45
1882.31,4497.9
1896.54,4591.15
1910.74,4599.25
1924.91,4573.35
1939.06,4610.55
1953.19,4556.7
1967.28,4686.4
1981.35,4656.25
1995.4,4628.45
2009.42,4651.5
2023.42,4671.35
2037.39,4757.8
2051.33,4673.95
2065.25,4641.7
2079.15,4708.45
2093.01,4741.75
2106.86,4709.9
2120.68,4792.2
2134.47,4747.9
2148.24,4679.55
2161.99,4768.15
2175.71,4735.55
2189.41,4835.6
2203.08,4798.4
2216.73,4726.9
2230.35,4721.7
2243.95,4799.85
2257.52,4763.65
2271.07,4677.6
2284.6,4822.25
2298.1,4703.85
2311.58,4785.3
2325.03,4736.35
2338.46,4806.4
2351.87,4800.85
2365.25,4810.55
2378.61,4778.35
2391.94,4722.15
2405.26,4808.2
2418.54,4783.9
2431.81,4761.6
2445.05,4798.35
2458.27,4745.25
2471.46,4747.4
2484.63,4785.3
2497.78,4811.6
2510.9,4797.65
2524.0,4870.15
2537.08,4752.2
2550.14,4842.5
2563.17,4892.85
2576.18,4923.75
2589.17,4910.95
2602.13,4832.85
2615.07,4912.3
2627.99,4846.5
2640.89,4862.9
2653.76,4881.1
2666.61,4906.8
2679.44,4880.45
2692.25,4893.2
2705.03,4900.8
2717.79,4870.5
2730.53,4930.25
2743.25,4929.9
2755.94,4955.65
2768.61,5000.95
2781.27,5062.35
2793.89,5063.6
2806.5,4957.05
2819.09,5055.1
2831.65,5054.55
2844.19,5077.25
2856.71,5049.5
2869.21,5262.4
2881.69,5287.25
2894.14,5408.0
2906.58,5515.05
2918.99,5420.6
2931.38,5399.7
2943.75,5912.3
2956.1,6550.3
2968.42,6677.9
2980.73,6200.1
2993.01,6067.0
3005.28,5952.45
3017.52,5759.6
3029.74,5746.95
3041.94,5621.0
3054.12,5742.0
3066.28,6237.0
3078.42,6999.15
3090.54,6711.65
3102.63,5977.5
3114.71,5853.45
3126.77,5729.05
3138.8,5791.9
3150.82,5781.75
3162.81,5675.2
3174.78,5756.95
3186.74,5717.9
3198.67,5758.5
3210.58,5752.65
3222.47,5876.45
3234.35,5905.15
3246.2,5851.9
3258.03,5914.15
3269.84,5812.45
3281.64,5774.2
3293.41,6000.65
3305.16,5838.3
3316.89,5858.8
3328.61,5831.55
3340.3,5874.15
3351.97,5828.3
3363.63,5814.4
3375.26,5856.95
3386.88,5749.6
3398.47,5769.2
3410.05,5824.95
3421.6,5796.9
3433.14,5700.25
3444.66,5720.5
3456.15,5835.05
3467.63,5635.45
3479.09,5815.5
3490.53,5700.1
3501.96,5620.95
3513.36,5690.1
3524.74,5666.05
3536.11,5624.2
3547.45,5494.8
3558.78,5500.4
3570.09,5486.5
3581.37,5426.15
3592.64,5426.1
3603.9,5377.9
3615.13,5543.4
3626.34,5233.15
3637.54,5342.95
3648.72,5156.65
3659.87,5256.95
3665.45,5286.55