File: spectra/VLFR_07-PET_bio_Raman_f748df70.csv
nm,Intensity
791.377,7782.6
792.477,7387.5
793.576,7142.05
794.676,7032.95
795.775,7039.35
796.874,7003.75
797.973,6967.35
799.072,6928.9
800.171,6942.5
801.27,6897.45
802.368,6859.9
803.467,6830.5
804.565,6697.6
805.664,6691.65
806.762,6687.95
807.86,6587.3
808.958,6569.15
810.056,6545.45
811.153,6565.35
812.251,6540.45
813.349,6450.05
814.446,6504.25
815.543,6470.4
816.64,6446.5
817.737,6268.35
818.834,6315.0
819.931,6228.05
821.028,6289.45
822.125,6157.35
823.221,6185.55
824.317,6146.65
825.414,6130.8
826.51,6161.9
827.606,6014.85
828.702,6003.2
829.797,5924.65
830.893,6049.55
831.988,5885.8
833.084,5863.75
834.179,5836.15
835.274,5834.7
836.369,5738.7
837.464,5818.8
838.559,5781.95
839.654,5720.7
840.748,5796.95
841.843,5716.7
842.937,5660.8
844.031,5660.65
845.125,5589.35
846.219,5513.65
847.313,5508.05
848.407,5480.65
849.5,5497.4
850.593,5449.45
851.687,5445.35
852.78,5446.85
853.873,5417.15
854.966,5445.55
856.059,5349.0
857.151,5366.25
858.244,5353.0
859.336,5387.75
860.428,5350.85
861.52,5329.05
862.612,5239.05
863.704,5277.25
864.796,5281.35
865.888,5257.25
866.979,5214.75
868.07,5156.05
869.162,5151.95
870.253,5181.15
871.344,5243.45
872.434,5255.45
873.525,5215.75
874.615,5171.3
875.706,5118.8
876.796,5115.95
877.886,5026.5
878.976,5035.5
880.066,4998.15
881.156,5028.4
882.245,4942.2
883.335,4980.7
884.424,4946.5
885.513,4920.05
886.602,4962.95
887.691,4885.55
888.78,4834.85
889.868,4820.0
890.957,4862.75
892.045,4824.2
893.133,4783.0
894.221,4780.7
895.309,4734.6
896.397,4739.65
897.484,4801.9
898.571,4941.1
899.659,4803.4
900.746,4692.65
901.833,4629.4
902.92,4616.3
904.006,4644.85
905.093,4588.15
906.179,4593.25
907.266,4699.1
908.352,4697.0
909.438,4622.4
910.523,4502.6
911.609,4474.55
912.695,4443.3
913.78,4448.95
914.865,4428.4
915.95,4427.1
917.035,4408.45
918.12,4373.45
919.204,4353.1
920.289,4350.7
921.373,4329.55
922.457,4333.7
923.541,4307.9
924.625,4303.25
925.709,4268.05
926.792,4265.85
927.876,4254.65
928.959,4235.25
930.042,4203.45
931.125,4199.5
932.208,4194.95
933.29,4202.2
934.373,4161.25
935.455,4165.75
936.537,4142.9
937.619,4140.05
938.701,4117.2
939.782,4116.05
940.864,4112.75
941.945,4110.75
943.026,4082.9
944.107,4076.35
945.188,4070.35
946.269,4063.0
947.349,4044.7
948.43,4039.65
949.51,4041.6
950.59,4027.05
951.67,4011.8
952.75,4012.9
953.829,4005.15
954.909,3987.35
955.988,3993.15
957.067,3988.05
958.146,3975.2
959.224,3977.85
960.303,3965.5
961.381,3955.95
962.459,3962.1
963.537,3950.85
964.615,3946.55
965.693,3932.65
966.771,3933.45
967.848,3920.7
968.925,3926.7
970.002,3922.85
971.079,3905.8
972.156,3907.05
973.232,3911.7
974.309,3896.85
975.385,3900.8
976.461,3892.85
977.537,3886.3
978.612,3885.1
979.688,3882.9
980.763,3881.85
981.838,3870.15
982.913,3869.65
983.988,3867.2
985.063,3865.65
986.137,3858.05
987.211,3859.85
988.285,3857.95
989.359,3852.35
990.433,3847.8
991.506,3847.95
992.58,3844.5
993.653,3844.5
994.726,3837.85
995.799,3834.45
996.872,3837.1
997.944,3834.4
999.016,3828.6
1000.09,3829.7
1001.16,3827.75
1002.23,3827.4
1003.3,3821.2
1004.38,3821.5
1005.45,3821.5
1006.52,3818.0
1007.59,3815.75
1008.66,3815.35
1009.73,3813.8
1010.8,3809.9
1011.87,3810.5
1012.94,3807.95
1014.01,3808.2
1015.08,3805.9
1016.15,3806.6
1017.22,3802.9
1018.29,3802.95
1019.36,3800.7
1020.42,3803.25
1021.49,3803.8
1022.56,3801.4
1023.63,3800.3
1024.7,3798.05
1025.76,3797.65
1026.83,3795.9
1027.9,3795.3
1028.97,3792.95
1030.03,3789.9
1031.1,3788.8
1032.17,3791.4
1033.23,3791.6
1034.3,3792.35
1035.36,3791.45
1036.43,3791.4
1037.5,3790.55
1038.56,3786.45
1039.63,3788.5
1040.69,3786.2
1041.76,3787.6
1042.82,3787.0
1043.89,3786.85
1044.95,3785.4
1046.01,3785.9
1047.08,3785.45
1048.14,3783.55
1049.2,3784.75
1050.27,3783.3
1051.33,3782.65
1052.39,3785.45
1053.46,3782.65
1054.52,3783.05
1055.58,3783.25
1056.64,3781.4
1057.7,3782.1
1058.77,3782.3
1059.83,3780.9
1060.89,3782.95
1061.95,3781.8
1063.01,3782.2
1064.07,3782.35
1065.13,3779.45
1066.19,3781.25
1067.25,3780.45
1068.05,3780.25