File: spectra/VLFR_02-HDPE_bio_Raman_4036845a.csv
nm,Intensity
528.629,1851.6
529.134,1851.4
529.639,1852.05
530.145,1851.95
530.65,1853.2
531.155,1852.45
531.66,1875.55
532.165,2590.55
532.67,1852.7
533.175,1853.25
533.68,1857.0
534.185,1868.4
534.69,1868.8
535.195,1868.45
535.699,1868.35
536.204,1870.05
536.709,1868.5
537.213,1869.0
537.718,1868.05
538.222,1869.3
538.727,1870.8
539.231,1870.45
539.735,1870.15
540.239,1872.1
540.744,1870.35
541.248,1872.65
541.752,1871.5
542.256,1873.25
542.76,1871.8
543.264,1871.1
543.768,1873.1
544.271,1872.15
544.775,1871.9
545.279,1873.75
545.783,1871.6
546.286,1871.3
546.79,1873.25
547.293,1873.8
547.797,1875.7
548.3,1873.4
548.803,1877.05
549.306,1873.25
549.81,1874.85
550.313,1876.95
550.816,1874.3
551.319,1875.45
551.822,1876.2
552.325,1879.95
552.828,1872.85
553.33,1879.6
553.833,1878.05
554.336,1877.0
554.838,1880.5
555.341,1877.7
555.843,1880.9
556.346,1880.65
556.848,1882.15
557.35,1878.75
557.853,1879.85
558.355,1881.9
558.857,1880.95
559.359,1879.55
559.861,1879.4
560.363,1882.35
560.865,1882.75
561.367,1884.35
561.869,1882.0
562.37,1885.15
562.872,1880.95
563.374,1882.55
563.875,1890.95
564.376,1885.35
564.878,1885.4
565.379,1884.9
565.881,1893.1
566.382,1892.1
566.883,1885.6
567.384,1889.15
567.885,1888.7
568.386,1884.55
568.887,1885.5
569.388,1886.85
569.888,1890.4
570.389,1889.25
570.89,1889.0
571.39,1900.75
571.891,1891.65
572.391,1890.0
572.892,1892.45
573.392,1892.55
573.892,1892.85
574.393,1890.7
574.893,1893.45
575.393,1896.95
575.893,1895.05
576.393,1898.5
576.893,1899.2
577.392,1895.35
577.892,1892.05
578.392,1889.05
578.891,1890.95
579.391,1894.15
579.89,1893.4
580.39,1895.05
580.889,1896.7
581.388,1891.5
581.888,1892.9
582.387,1891.85
582.886,1897.1
583.385,1894.8
583.884,1893.65
584.383,1893.85
584.881,1891.3
585.38,1896.1
585.879,1894.6
586.377,1896.95
586.876,1893.45
587.374,1896.5
587.873,1892.6
588.371,1892.0
588.869,1896.8
589.368,1893.9
589.866,1895.0
590.364,1891.7
590.862,1893.7
591.36,1895.45
591.857,1894.6
592.355,1895.25
592.853,1891.5
593.35,1899.45
593.848,1894.7
594.345,1897.5
594.843,1895.4
595.34,1894.95
595.837,1897.8
596.335,1899.05
596.832,1896.15
597.329,1897.45
597.826,1899.55
598.323,1897.95
598.819,1899.3
599.316,1891.85
599.813,1898.15
600.309,1901.0
600.806,1902.3
601.302,1896.35
601.799,1899.35
602.295,1898.95
602.791,1896.75
603.288,1898.7
603.784,1899.55
604.28,1893.75
604.776,1898.55
605.272,1897.0
605.767,1899.5
606.263,1894.3
606.759,1893.35
607.254,1898.3
607.75,1894.0
608.245,1894.25
608.74,1896.0
609.236,1897.85
609.731,1890.85
610.226,1894.0
610.721,1893.65
611.216,1894.7
611.711,1900.6
612.206,1893.55
612.7,1896.45
613.195,1893.2
613.69,1895.7
614.184,1891.45
614.679,1893.1
615.173,1890.85
615.667,1896.1
616.161,1891.8
616.656,1893.1
617.15,1893.5
617.644,1894.6
618.137,1894.3
618.631,1894.55
619.125,1894.15
619.619,1896.3
620.112,1893.25
620.606,1894.2
621.099,1894.45
621.592,1895.65
622.086,1895.9
622.579,1897.2
623.072,1894.25
623.565,1891.2
624.058,1889.4
624.551,1890.65
625.043,1890.35
625.536,1889.8
626.029,1891.25
626.521,1905.0
627.014,1934.75
627.506,1931.2
627.998,1919.5
628.49,1946.45
628.983,1913.35
629.475,1913.9
629.966,1902.2
630.458,1908.4
630.95,1893.5
631.442,1891.95
631.933,1889.9
632.425,1887.4
632.916,1887.45
633.408,1886.3
633.899,1887.1
634.39,1890.4
634.881,1887.0
635.372,1890.0
635.863,1883.65
636.354,1887.8
636.845,1887.25
637.336,1883.55
637.826,1885.75
638.317,1886.1
638.807,1882.6
639.298,1883.0
639.788,1884.5
640.278,1882.85
640.768,1884.25
641.258,1880.55
641.748,1885.2
642.238,1882.15
642.728,1884.45
643.217,1881.5
643.707,1880.8
644.197,1881.85
644.686,1886.3
645.175,1878.2
645.664,1878.5
646.154,1880.45
646.643,1879.8
647.132,1878.2
647.621,1879.25
648.109,1879.4
648.598,1880.15
649.087,1877.35
649.575,1880.8
650.064,1877.3
650.552,1878.7
651.04,1876.8
651.528,1877.15
652.017,1878.85
652.505,1878.35
652.992,1877.2
653.48,1877.85
653.968,1875.5
654.456,1874.5
654.943,1875.7
655.431,1875.55
655.918,1876.5
656.405,1874.8
656.893,1872.4
657.38,1874.8
657.867,1874.45
658.354,1870.1
658.84,1869.75
659.327,1870.5
659.814,1872.9
660.3,1871.25
660.787,1870.05
661.03,1871.1