File: spectra/VLFR_07-PET_nobio_Raman_7d60e8a5.csv
nm,Intensity
791.75,7329.4
792.846,7231.0
793.942,7093.1
795.037,7034.0
796.133,7077.8
797.228,6939.15
798.324,6941.4
799.419,6937.8
800.514,6951.55
801.61,6962.1
802.705,6879.25
803.8,6778.55
804.894,6744.2
805.989,6760.6
807.084,6675.9
808.178,6653.8
809.273,6603.05
810.367,6551.05
811.461,6522.8
812.556,6504.35
813.65,6475.1
814.744,6432.8
815.837,6368.2
816.931,6338.55
818.025,6295.3
819.118,6291.25
820.212,6216.15
821.305,6181.85
822.398,6117.7
823.491,6080.9
824.585,6019.0
825.677,6180.85
826.77,5969.9
827.863,5959.95
828.956,5955.35
830.048,5881.3
831.14,5882.7
832.233,5844.25
833.325,5760.9
834.417,5743.15
835.509,5681.9
836.601,5716.0
837.692,5737.95
838.784,5727.25
839.876,5685.25
840.967,5713.35
842.058,5656.0
843.149,5618.05
844.24,5541.8
845.331,5458.65
846.422,5450.25
847.513,5435.55
848.604,5437.65
849.694,5387.05
850.784,5392.7
851.875,5391.65
852.965,5350.45
854.055,5334.0
855.145,5308.3
856.235,5314.15
857.324,5292.0
858.414,5305.85
859.503,5321.85
860.593,5333.15
861.682,5258.65
862.771,5245.45
863.86,5207.75
864.949,5195.35
866.038,5175.95
867.126,5144.25
868.215,5146.65
869.303,5131.35
870.391,5156.7
871.479,5233.15
872.567,5244.8
873.655,5222.25
874.743,5098.35
875.831,5074.4
876.918,5045.3
878.006,5034.7
879.093,5057.75
880.18,4955.35
881.267,4988.8
882.354,4972.9
883.441,4950.8
884.527,4934.95
885.614,4939.75
886.7,4896.95
887.786,4880.6
888.872,4864.45
889.958,4835.4
891.044,4833.9
892.13,4830.2
893.216,4758.8
894.301,4752.2
895.386,4738.1
896.472,4766.25
897.557,4956.55
898.642,4921.8
899.726,4728.25
900.811,4645.05
901.896,4635.15
902.98,4619.3
904.064,4580.85
905.148,4620.65
906.232,4686.1
907.316,4794.7
908.4,4682.25
909.484,4569.5
910.567,4518.9
911.65,4484.85
912.734,4437.25
913.817,4437.8
914.9,4420.5
915.982,4412.35
917.065,4383.45
918.147,4393.35
919.23,4357.0
920.312,4340.4
921.394,4316.25
922.476,4316.45
923.558,4272.7
924.639,4279.45
925.721,4261.95
926.802,4246.35
927.884,4238.75
928.965,4219.05
930.046,4181.15
931.126,4181.7
932.207,4159.35
933.288,4155.35
934.368,4126.25
935.448,4132.1
936.528,4120.35
937.608,4108.25
938.688,4084.5
939.767,4072.05
940.847,4074.25
941.926,4053.7
943.005,4050.25
944.084,4021.2
945.163,4029.85
946.242,4022.1
947.321,4002.5
948.399,3998.3
949.477,3999.55
950.556,3981.7
951.634,3968.45
952.711,3958.1
953.789,3956.6
954.867,3948.35
955.944,3945.55
957.021,3929.55
958.098,3922.75
959.175,3919.8
960.252,3908.7
961.328,3903.95
962.405,3897.8
963.481,3893.7
964.557,3889.4
965.633,3879.15
966.709,3867.65
967.785,3864.75
968.86,3868.6
969.936,3857.85
971.011,3858.15
972.086,3850.2
973.161,3844.05
974.235,3835.2
975.31,3832.5
976.384,3832.9
977.459,3830.7
978.533,3822.95
979.607,3817.95
980.68,3811.75
981.754,3809.45
982.827,3807.75
983.901,3798.95
984.974,3798.7
986.047,3798.25
987.119,3791.15
988.192,3791.4
989.264,3789.15
990.337,3782.75
991.409,3779.75
992.481,3776.5
993.553,3776.35
994.624,3770.85
995.696,3766.85
996.767,3767.65
997.838,3763.95
998.909,3757.7
999.98,3756.35
1001.05,3758.2
1002.12,3754.65
1003.19,3752.45
1004.26,3749.0
1005.33,3746.35
1006.4,3747.1
1007.47,3744.05
1008.54,3742.0
1009.61,3739.55
1010.68,3737.85
1011.75,3736.05
1012.82,3736.05
1013.88,3735.7
1014.95,3732.15
1016.02,3731.7
1017.09,3731.15
1018.16,3730.35
1019.22,3729.25
1020.29,3727.55
1021.36,3731.0
1022.43,3730.55
1023.49,3725.9
1024.56,3726.0
1025.63,3721.95
1026.69,3719.6
1027.76,3718.2
1028.83,3717.95
1029.89,3716.75
1030.96,3715.85
1032.02,3714.55
1033.09,3714.8
1034.15,3715.3
1035.22,3714.45
1036.28,3712.9
1037.35,3713.35
1038.41,3707.85
1039.48,3709.35
1040.54,3707.3
1041.6,3707.55
1042.67,3705.95
1043.73,3706.15
1044.79,3703.85
1045.86,3704.75
1046.92,3703.15
1047.98,3703.25
1049.05,3704.05
1050.11,3703.35
1051.17,3701.95
1052.23,3704.2
1053.29,3703.4
1054.36,3702.4
1055.42,3703.15
1056.48,3701.3
1057.54,3700.2
1058.6,3700.6
1059.66,3701.4
1060.72,3700.4
1061.78,3701.95
1062.84,3700.15
1063.9,3700.9
1064.96,3699.95
1066.02,3700.75
1067.08,3700.75
1067.88,3698.1