File: spectra/VLFR_08-PLA_bio_Raman_c94bc4d9.csv
nm,Intensity
526.547,830.45
527.095,830.0
527.642,830.45
528.189,830.4
528.736,831.55
529.283,830.35
529.829,831.7
530.376,831.35
530.922,830.95
531.468,831.05
532.014,844.45
532.56,831.6
533.106,830.55
533.651,831.15
534.196,912.8
534.742,895.5
535.287,882.35
535.832,876.7
536.376,872.3
536.921,873.75
537.465,871.0
538.01,869.65
538.554,865.45
539.098,867.45
539.642,864.8
540.186,861.25
540.729,867.45
541.273,870.3
541.816,865.15
542.36,864.0
542.903,866.45
543.446,872.3
543.988,876.3
544.531,868.15
545.074,862.15
545.616,862.75
546.158,862.75
546.701,864.4
547.243,863.95
547.785,864.05
548.326,864.25
548.868,866.85
549.41,867.15
549.951,866.75
550.492,866.25
551.034,868.3
551.575,870.15
552.116,868.75
552.656,869.6
553.197,870.35
553.738,869.6
554.278,872.15
554.819,869.05
555.359,869.35
555.899,866.3
556.439,866.55
556.979,866.8
557.519,874.85
558.058,918.8
558.598,877.5
559.137,874.15
559.677,871.7
560.216,872.0
560.755,872.1
561.294,871.55
561.833,868.95
562.371,870.0
562.91,874.75
563.449,884.0
563.987,877.9
564.525,875.55
565.064,883.5
565.602,881.7
566.14,892.55
566.678,877.9
567.216,874.05
567.753,875.3
568.291,876.45
568.828,875.6
569.366,877.85
569.903,878.6
570.44,877.8
570.977,876.3
571.514,883.95
572.051,884.05
572.588,880.5
573.125,883.65
573.661,883.7
574.198,882.9
574.734,886.4
575.271,879.35
575.807,878.6
576.343,885.5
576.879,906.5
577.415,886.4
577.951,882.0
578.486,880.1
579.022,881.05
579.557,878.2
580.093,877.5
580.628,880.75
581.164,882.15
581.699,880.05
582.234,881.6
582.769,881.3
583.304,881.8
583.838,880.6
584.373,879.75
584.908,878.75
585.442,883.0
585.977,882.0
586.511,887.75
587.045,899.85
587.58,909.4
588.114,888.9
588.648,882.15
589.182,883.7
589.715,880.5
590.249,880.8
590.783,881.75
591.316,882.05
591.85,882.5
592.383,881.85
592.917,880.95
593.45,882.1
593.983,881.85
594.516,880.75
595.049,882.1
595.582,880.7
596.115,881.6
596.648,883.9
597.18,881.7
597.713,883.65
598.245,883.05
598.778,881.95
599.31,881.55
599.842,883.45
600.375,881.1
600.907,883.25
601.439,881.25
601.971,881.3
602.503,881.85
603.034,882.8
603.566,882.4
604.098,882.85
604.629,880.05
605.161,880.4
605.692,881.0
606.224,881.1
606.755,881.1
607.286,881.05
607.817,881.8
608.348,879.8
608.879,882.65
609.41,879.75
609.941,881.65
610.472,880.1
611.002,881.0
611.533,881.0
612.063,879.85
612.594,880.65
613.124,880.6
613.655,883.25
614.185,882.7
614.715,884.2
615.245,882.7
615.775,883.05
616.305,881.5
616.835,883.25
617.365,883.35
617.895,882.2
618.425,884.1
618.954,883.25
619.484,881.5
620.013,882.1
620.543,882.1
621.072,884.15
621.602,883.15
622.131,883.55
622.66,886.1
623.189,887.6
623.718,888.15
624.247,885.45
624.776,885.8
625.305,881.0
625.834,884.5
626.363,883.6
626.891,882.95
627.42,886.5
627.949,888.5
628.477,914.7
629.006,909.6
629.534,907.1
630.062,910.6
630.591,935.6
631.119,1094.3
631.647,982.5
632.175,932.3
632.703,926.75
633.231,961.95
633.759,947.15
634.287,910.25
634.815,889.9
635.343,885.9
635.871,883.15
636.398,884.0
636.926,880.75
637.454,879.95
637.981,877.5
638.509,879.8
639.036,878.65
639.564,878.15
640.091,879.25
640.618,880.75
641.146,879.5
641.673,880.1
642.2,879.5
642.727,877.2
643.254,878.3
643.781,876.0
644.308,879.1
644.835,873.8
645.362,876.55
645.889,874.15
646.416,875.05
646.942,875.95
647.469,875.85
647.996,877.4
648.522,873.35
649.049,874.2
649.576,874.3
650.102,875.0
650.629,873.35
651.155,873.8
651.682,873.2
652.208,875.3
652.734,872.9
653.261,872.85
653.787,872.75
654.313,872.05
654.839,869.9
655.365,871.75
655.892,870.7
656.418,873.0
656.944,872.7
657.47,872.75
657.996,871.35
658.522,871.55
659.048,870.75
659.574,870.3
660.099,868.4
660.625,869.3
661.151,868.8
661.677,869.5
662.203,868.7
662.728,869.1
663.123,869.0