File: spectra/VLFR_01-LDPE_nobio_Raman_1ccb3335.csv
nm,Intensity
526.486,831.1
527.033,830.4
527.579,830.1
528.126,829.4
528.672,830.2
529.219,830.3
529.765,831.1
530.311,829.5
530.857,829.7
531.403,829.1
531.948,833.2
532.494,832.2
533.039,830.1
533.585,829.8
534.13,896.9
534.675,885.9
535.22,874.1
535.764,862.1
536.309,856.4
536.854,854.7
537.398,852.8
537.942,854.4
538.486,847.9
539.03,846.1
539.574,845.0
540.118,844.7
540.662,844.3
541.205,841.5
541.749,844.4
542.292,844.8
542.835,842.1
543.378,841.5
543.921,842.7
544.464,843.0
545.006,842.8
545.549,843.3
546.091,843.9
546.634,842.8
547.176,842.1
547.718,840.6
548.26,841.6
548.802,843.9
549.343,841.6
549.885,841.0
550.426,843.4
550.968,841.4
551.509,842.1
552.05,843.0
552.591,841.6
553.132,846.2
553.673,845.5
554.214,847.4
554.754,846.9
555.295,847.2
555.835,850.4
556.375,849.8
556.915,850.9
557.455,851.7
557.995,856.2
558.535,857.9
559.075,854.1
559.614,856.1
560.154,854.7
560.693,850.9
561.232,852.4
561.772,852.7
562.311,858.0
562.85,858.5
563.388,860.6
563.927,941.9
564.466,885.1
565.004,874.2
565.543,874.6
566.081,1032.5
566.619,886.1
567.157,864.2
567.695,866.0
568.233,865.7
568.771,864.8
569.309,869.5
569.846,868.2
570.384,874.6
570.921,881.9
571.458,1013.8
571.995,907.9
572.532,882.0
573.069,882.7
573.606,883.2
574.143,902.5
574.68,894.0
575.216,908.5
575.753,1022.2
576.289,1027.4
576.825,990.9
577.361,975.6
577.897,947.5
578.433,952.6
578.969,962.0
579.505,969.2
580.041,978.8
580.576,989.6
581.112,995.8
581.647,1004.8
582.183,1008.9
582.718,1024.8
583.253,1027.1
583.788,1029.4
584.323,1040.3
584.858,1042.6
585.392,1044.9
585.927,1048.5
586.462,1055.8
586.996,1052.3
587.53,1057.0
588.065,1063.4
588.599,1062.2
589.133,1064.3
589.667,1064.9
590.201,1071.4
590.735,1076.2
591.268,1075.8
591.802,1079.8
592.335,1071.4
592.869,1069.9
593.402,1063.8
593.936,1064.1
594.469,1064.3
595.002,1069.3
595.535,1061.8
596.068,1067.9
596.601,1062.1
597.133,1061.3
597.666,1060.2
598.199,1069.3
598.731,1071.0
599.264,1071.7
599.796,1075.4
600.328,1073.1
600.86,1065.0
601.393,1064.8
601.925,1070.0
602.457,1065.3
602.988,1063.5
603.52,1058.4
604.052,1056.7
604.583,1048.7
605.115,1045.5
605.646,1038.3
606.178,1037.6
606.709,1027.8
607.24,1024.4
607.771,1023.0
608.302,1023.0
608.833,1021.1
609.364,1016.6
609.895,1013.5
610.426,1016.5
610.957,1011.4
611.487,1010.4
612.018,1003.2
612.548,1007.7
613.078,1007.3
613.609,1006.9
614.139,1001.7
614.669,1003.4
615.199,995.2
615.729,994.8
616.259,991.4
616.789,992.3
617.319,993.7
617.849,994.8
618.378,993.4
618.908,991.8
619.437,993.1
619.967,990.7
620.496,985.5
621.025,993.0
621.555,1000.1
622.084,1018.5
622.613,1014.1
623.142,988.3
623.671,990.5
624.2,987.5
624.729,988.6
625.258,992.1
625.786,999.9
626.315,1020.3
626.844,1204.1
627.372,1660.7
627.901,1378.7
628.429,1481.0
628.957,1452.2
629.486,1356.1
630.014,1244.3
630.542,1231.6
631.07,1104.9
631.598,1039.5
632.126,1021.5
632.654,1014.9
633.182,1009.8
633.71,1007.2
634.237,1003.5
634.765,1006.2
635.293,1000.9
635.82,1005.3
636.348,998.2
636.875,999.3
637.403,996.9
637.93,987.2
638.458,988.9
638.985,985.6
639.512,988.8
640.039,992.0
640.566,987.3
641.093,989.1
641.62,983.1
642.147,985.8
642.674,979.6
643.201,977.9
643.728,979.6
644.255,975.4
644.781,970.9
645.308,964.6
645.835,969.7
646.361,963.8
646.888,967.5
647.414,965.5
647.941,962.2
648.467,958.1
648.993,960.0
649.52,959.2
650.046,958.0
650.572,951.3
651.098,953.5
651.625,952.2
652.151,954.5
652.677,949.8
653.203,948.8
653.729,950.3
654.255,948.0
654.78,947.6
655.306,942.5
655.832,944.5
656.358,939.2
656.884,943.2
657.409,943.5
657.935,941.4
658.461,937.6
658.986,935.1
659.512,933.1
660.037,933.7
660.563,932.5
661.088,925.7
661.614,924.8
662.139,917.6
662.664,921.3
663.058,918.0