File: spectra/VLFR_01-LDPE_bio_Raman_78b9e601.csv
nm,Intensity
528.65,1838.2
529.155,1837.5
529.66,1838.45
530.165,1838.2
530.67,1838.75
531.175,1839.45
531.68,1847.9
532.185,2532.45
532.69,1839.05
533.194,1838.8
533.699,1896.8
534.204,1988.1
534.708,1978.6
535.213,1955.2
535.717,1936.45
536.222,1926.3
536.726,1917.0
537.231,1914.65
537.735,1918.3
538.239,1917.0
538.743,1906.0
539.247,1899.35
539.751,1895.9
540.255,1900.15
540.759,1897.0
541.263,1895.15
541.767,1895.2
542.271,1892.4
542.775,1897.75
543.279,1889.9
543.782,1893.75
544.286,1897.7
544.789,1893.4
545.293,1887.35
545.796,1892.7
546.3,1890.85
546.803,1887.65
547.306,1893.75
547.81,1888.6
548.313,1891.25
548.816,1887.95
549.319,1888.2
549.822,1887.2
550.325,1885.75
550.828,1886.8
551.331,1889.15
551.834,1889.3
552.337,1893.15
552.839,1892.55
553.342,1896.8
553.844,1898.25
554.347,1898.3
554.849,1905.75
555.352,1901.9
555.854,1912.05
556.357,1914.15
556.859,1916.55
557.361,1921.25
557.863,1933.4
558.365,1937.15
558.867,1930.65
559.369,1926.45
559.871,1921.15
560.373,1923.95
560.875,1929.35
561.377,1919.9
561.878,1925.5
562.38,1939.35
562.881,1948.8
563.383,1961.4
563.884,2148.2
564.386,2019.75
564.887,1996.25
565.388,1973.55
565.89,2081.65
566.391,2059.0
566.892,1975.8
567.393,1983.3
567.894,1959.15
568.395,1954.8
568.896,1962.45
569.396,1970.9
569.897,1969.1
570.398,1993.6
570.898,2016.35
571.399,2330.3
571.9,2112.3
572.4,2043.6
572.9,2023.8
573.401,2035.3
573.901,2066.25
574.401,2058.9
574.901,2073.65
575.401,2202.85
575.901,2315.25
576.401,2481.05
576.901,2442.35
577.401,2302.4
577.901,2281.25
578.4,2293.35
578.9,2374.15
579.399,2404.3
579.899,2484.5
580.398,2485.35
580.898,2570.55
581.397,2585.3
581.896,2656.25
582.395,2677.3
582.895,2711.8
583.394,2690.75
583.893,2758.7
584.391,2752.25
584.89,2714.0
585.389,2724.85
585.888,2745.5
586.386,2719.95
586.885,2700.65
587.384,2696.4
587.882,2694.75
588.38,2696.7
588.879,2704.25
589.377,2722.3
589.875,2666.6
590.373,2681.35
590.871,2676.55
591.369,2718.1
591.867,2703.9
592.365,2693.35
592.863,2687.0
593.361,2697.65
593.858,2716.7
594.356,2712.15
594.853,2737.4
595.351,2755.4
595.848,2775.4
596.345,2822.55
596.843,2825.2
597.34,2879.9
597.837,2922.55
598.334,2923.25
598.831,2945.8
599.328,3001.15
599.824,2983.75
600.321,3047.5
600.818,3029.4
601.314,3043.65
601.811,3001.7
602.307,3004.95
602.804,2985.1
603.3,2966.0
603.796,2958.25
604.293,2910.85
604.789,2869.75
605.285,2838.95
605.781,2776.4
606.277,2737.15
606.772,2709.7
607.268,2664.15
607.764,2633.75
608.259,2613.0
608.755,2561.8
609.25,2558.55
609.746,2512.65
610.241,2514.45
610.736,2489.9
611.231,2476.1
611.727,2465.95
612.222,2440.0
612.716,2420.9
613.211,2404.0
613.706,2403.95
614.201,2402.75
614.695,2378.95
615.19,2370.35
615.684,2354.85
616.179,2335.45
616.673,2341.3
617.168,2349.6
617.662,2352.05
618.156,2361.3
618.65,2339.9
619.144,2332.85
619.638,2361.85
620.131,2366.05
620.625,2359.75
621.119,2393.25
621.612,2427.5
622.106,2519.5
622.599,2479.35
623.093,2416.05
623.586,2367.35
624.079,2395.2
624.572,2387.6
625.065,2411.25
625.558,2444.35
626.051,2492.65
626.544,2852.7
627.037,4771.15
627.529,4407.15
628.022,4057.05
628.514,5043.7
629.007,4118.05
629.499,3758.45
629.991,3494.65
630.483,3379.45
630.976,2948.3
631.468,2700.3
631.959,2651.55
632.451,2583.75
632.943,2560.05
633.435,2567.05
633.926,2508.85
634.418,2528.7
634.909,2514.8
635.401,2525.3
635.892,2505.1
636.383,2535.75
636.874,2475.1
637.365,2490.9
637.856,2468.1
638.347,2459.2
638.838,2446.7
639.329,2457.7
639.819,2430.65
640.31,2422.9
640.8,2407.2
641.291,2413.9
641.781,2389.05
642.271,2385.3
642.761,2370.75
643.251,2385.65
643.741,2362.6
644.231,2363.8
644.721,2362.45
645.211,2351.9
645.7,2345.9
646.19,2337.35
646.679,2336.35
647.169,2332.15
647.658,2336.1
648.147,2319.85
648.636,2332.8
649.125,2306.5
649.614,2319.75
650.103,2312.55
650.592,2287.35
651.08,2302.0
651.569,2308.1
652.058,2339.0
652.546,2298.8
653.034,2281.8
653.523,2302.05
654.011,2289.8
654.499,2265.85
654.987,2306.05
655.475,2299.3
655.963,2276.8
656.45,2251.65
656.938,2254.9
657.425,2239.65
657.913,2237.6
658.4,2215.45
658.888,2197.45
659.375,2176.65
659.862,2186.65
660.349,2161.75
660.836,2148.1
661.079,2140.2