File: spectra/VLFR_08-PLA_bio_Raman_0bf82c81.csv
nm,Intensity
526.495,829.5
527.042,829.733
527.589,829.7
528.136,829.1
528.682,829.2
529.229,829.6
529.775,828.767
530.321,828.667
530.867,829.5
531.413,828.767
531.959,831.767
532.505,830.2
533.051,828.833
533.596,829.433
534.141,856.0
534.687,857.567
535.232,854.833
535.777,854.033
536.321,853.7
536.866,854.7
537.41,854.1
537.955,854.133
538.499,856.067
539.043,856.067
539.587,855.233
540.131,854.367
540.675,856.067
541.219,857.467
541.762,856.767
542.305,857.667
542.849,857.433
543.392,859.567
543.935,859.733
544.478,859.167
545.02,860.9
545.563,861.533
546.106,859.6
546.648,859.867
547.19,859.4
547.732,861.6
548.274,861.967
548.816,862.1
549.358,864.2
549.9,863.967
550.441,862.233
550.983,863.967
551.524,863.267
552.065,862.767
552.606,863.467
553.147,865.367
553.688,863.9
554.229,865.667
554.769,866.3
555.31,864.767
555.85,865.2
556.391,863.933
556.931,865.567
557.471,867.133
558.011,874.4
558.551,866.9
559.09,865.867
559.63,866.267
560.169,868.9
560.709,868.367
561.248,868.367
561.787,869.167
562.326,898.467
562.865,871.267
563.404,871.067
563.943,870.9
564.481,871.367
565.02,875.033
565.558,873.167
566.096,873.767
566.634,874.767
567.172,871.533
567.71,873.1
568.248,872.133
568.786,871.533
569.324,872.567
569.861,875.067
570.399,872.567
570.936,874.267
571.473,872.833
572.01,874.767
572.547,874.967
573.084,876.2
573.621,877.133
574.158,876.667
574.694,876.667
575.231,877.3
575.767,877.333
576.303,878.1
576.84,880.633
577.376,878.967
577.912,876.0
578.448,878.433
578.984,878.2
579.519,876.3
580.055,876.6
580.59,877.233
581.126,876.433
581.661,877.7
582.196,878.4
582.731,878.1
583.267,879.3
583.801,877.533
584.336,878.9
584.871,877.1
585.406,879.667
585.94,879.7
586.475,880.167
587.009,881.333
587.543,883.167
588.078,881.5
588.612,880.433
589.146,879.267
589.68,879.267
590.214,878.533
590.747,881.433
591.281,879.3
591.815,879.5
592.348,879.767
592.881,878.7
593.415,878.4
593.948,880.1
594.481,879.0
595.014,879.967
595.547,879.633
596.08,880.433
596.613,880.133
597.146,879.633
597.678,880.233
598.211,878.9
598.743,881.133
599.276,878.8
599.808,879.1
600.34,879.767
600.872,878.333
601.404,879.267
601.936,878.667
602.468,879.7
603.0,879.467
603.532,877.867
604.064,878.567
604.595,879.3
605.127,878.2
605.658,877.2
606.189,877.967
606.721,877.733
607.252,876.067
607.783,878.0
608.314,874.733
608.845,877.3
609.376,877.0
609.907,877.233
610.438,877.4
610.968,875.7
611.499,875.9
612.029,877.967
612.56,877.467
613.09,877.333
613.621,877.367
614.151,876.4
614.681,876.933
615.211,877.3
615.741,875.667
616.271,874.6
616.801,876.767
617.331,876.767
617.861,875.733
618.39,877.933
618.92,877.267
619.45,876.9
619.979,877.767
620.509,874.833
621.038,874.3
621.567,874.167
622.096,875.133
622.626,876.6
623.155,875.333
623.684,875.467
624.213,876.233
624.742,876.267
625.271,875.733
625.799,873.867
626.328,875.7
626.857,876.0
627.386,873.467
627.914,874.6
628.443,877.3
628.971,877.233
629.5,877.4
630.028,875.9
630.556,880.6
631.084,902.1
631.613,887.5
632.141,880.333
632.669,878.367
633.197,883.1
633.725,881.4
634.253,875.633
634.781,874.0
635.308,873.967
635.836,872.8
636.364,872.2
636.891,871.0
637.419,870.4
637.947,871.267
638.474,871.633
639.002,871.367
639.529,871.567
640.056,871.167
640.584,870.933
641.111,871.6
641.638,871.233
642.165,871.5
642.692,870.4
643.219,871.7
643.746,872.167
644.273,875.567
644.8,874.633
645.327,873.933
645.854,871.7
646.381,875.133
646.908,872.033
647.434,872.333
647.961,871.9
648.488,873.267
649.014,872.633
649.541,872.5
650.067,871.7
650.594,870.0
651.12,869.333
651.646,868.633
652.173,867.367
652.699,867.9
653.225,868.1
653.752,869.333
654.278,867.867
654.804,866.733
655.33,865.8
655.856,866.133
656.382,865.967
656.908,864.2
657.434,863.4
657.96,864.433
658.486,862.5
659.012,864.067
659.538,863.367
660.064,862.333
660.589,862.067
661.115,861.2
661.641,860.667
662.166,861.433
662.692,859.767
663.086,860.9