File: spectra/VLFR_06-PET_nobio_Raman_10fc0e97.csv
nm,Intensity
526.486,829.1
527.033,831.8
527.579,831.1
528.126,830.3
528.672,829.8
529.219,831.6
529.765,830.2
530.311,830.9
530.857,829.4
531.403,829.6
531.948,833.2
532.494,831.1
533.039,830.3
533.585,839.0
534.13,2158.0
534.675,1834.1
535.22,1473.4
535.764,1264.2
536.309,1129.1
536.854,1073.8
537.398,1058.3
537.942,1057.1
538.486,1065.5
539.03,1056.9
539.574,1075.4
540.118,1087.4
540.662,1048.6
541.205,1033.9
541.749,1035.0
542.292,1028.7
542.835,1039.3
543.378,1037.2
543.921,1049.5
544.464,1043.3
545.006,1050.9
545.549,1052.8
546.091,1050.8
546.634,1053.8
547.176,1054.2
547.718,1057.7
548.26,1053.8
548.802,1065.9
549.343,1061.9
549.885,1063.1
550.426,1085.4
550.968,1105.4
551.509,1077.0
552.05,1082.3
552.591,1091.0
553.132,1113.6
553.673,1101.1
554.214,1098.0
554.754,1101.8
555.295,1108.4
555.835,1161.7
556.375,1169.9
556.915,1179.3
557.455,1318.7
557.995,1213.5
558.535,1205.6
559.075,1165.6
559.614,1136.4
560.154,1145.1
560.693,1140.2
561.232,1147.2
561.772,1145.4
562.311,1172.4
562.85,1191.3
563.388,1200.0
563.927,1184.9
564.466,1201.9
565.004,1247.1
565.543,1320.0
566.081,1334.9
566.619,1235.3
567.157,1217.8
567.695,1298.6
568.233,1232.3
568.771,1225.8
569.309,1242.6
569.846,1271.3
570.384,1327.4
570.921,1460.4
571.458,1598.3
571.995,1428.9
572.532,1317.6
573.069,1291.0
573.606,1297.8
574.143,1338.2
574.68,1312.9
575.216,1346.3
575.753,1327.0
576.289,1362.9
576.825,1390.3
577.361,1361.1
577.897,1341.1
578.433,1349.5
578.969,1357.4
579.505,1365.6
580.041,1372.3
580.576,1380.5
581.112,1417.0
581.647,1493.1
582.183,2708.8
582.718,1491.6
583.253,1424.0
583.788,1419.0
584.323,1431.6
584.858,1453.1
585.392,1541.8
585.927,2126.3
586.462,1872.4
586.996,1522.8
587.53,1471.5
588.065,1466.3
588.599,1464.5
589.133,1456.7
589.667,1451.3
590.201,1468.2
590.735,1468.1
591.268,1479.3
591.802,1485.0
592.335,1476.5
592.869,1479.3
593.402,1475.4
593.936,1490.6
594.469,1497.2
595.002,1495.7
595.535,1496.4
596.068,1507.5
596.601,1512.0
597.133,1510.1
597.666,1507.0
598.199,1521.5
598.731,1518.9
599.264,1525.3
599.796,1535.5
600.328,1519.8
600.86,1533.6
601.393,1528.6
601.925,1524.3
602.457,1522.4
602.988,1535.1
603.52,1536.5
604.052,1539.1
604.583,1541.6
605.115,1532.2
605.646,1519.5
606.178,1526.3
606.709,1521.6
607.24,1522.8
607.771,1534.4
608.302,1536.6
608.833,1542.7
609.364,1552.9
609.895,1539.5
610.426,1538.7
610.957,1546.2
611.487,1550.5
612.018,1551.1
612.548,1567.9
613.078,1578.8
613.609,1585.8
614.139,1585.2
614.669,1591.7
615.199,1598.7
615.729,1588.5
616.259,1587.6
616.789,1596.0
617.319,1605.2
617.849,1614.6
618.378,1623.3
618.908,1618.0
619.437,1612.4
619.967,1611.3
620.496,1610.9
621.025,1617.6
621.555,1624.2
622.084,1628.8
622.613,1647.0
623.142,1653.1
623.671,1655.7
624.2,1674.7
624.729,1676.6
625.258,1681.1
625.786,1676.8
626.315,1681.4
626.844,1691.8
627.372,1691.6
627.901,1708.8
628.429,1731.4
628.957,1773.5
629.486,1766.0
630.014,1763.6
630.542,1774.7
631.07,1844.3
631.598,2000.7
632.126,1997.3
632.654,1915.7
633.182,1892.3
633.71,1884.1
634.237,1853.9
634.765,1841.0
635.293,1863.7
635.82,1930.0
636.348,2080.7
636.875,2101.4
637.403,1940.9
637.93,1895.2
638.458,1895.3
638.985,1909.3
639.512,1918.8
640.039,1924.5
640.566,1935.5
641.093,1941.7
641.62,1940.1
642.147,1963.4
642.674,1952.3
643.201,1956.7
643.728,1951.0
644.255,1954.6
644.781,1966.9
645.308,1964.4
645.835,1984.0
646.361,1985.4
646.888,1999.0
647.414,1992.5
647.941,2003.2
648.467,2008.5
648.993,2005.7
649.52,1998.9
650.046,2008.1
650.572,2006.4
651.098,2004.8
651.625,2006.6
652.151,2026.8
652.677,2014.8
653.203,2034.4
653.729,2034.2
654.255,2043.3
654.78,2033.7
655.306,2040.5
655.832,2040.6
656.358,2038.9
656.884,2034.0
657.409,2035.3
657.935,2035.7
658.461,2032.5
658.986,2044.0
659.512,2052.9
660.037,2050.3
660.563,2041.4
661.088,2032.9
661.614,2010.1
662.139,2010.4
662.664,2024.5
663.058,2016.7