File: spectra/VLFR_09-PET_bio_Raman_184e1003.csv
nm,Intensity
526.508,831.7
527.055,830.1
527.602,831.4
528.149,829.8
528.695,831.9
529.241,830.7
529.787,831.4
530.334,831.2
530.879,830.7
531.425,830.9
531.971,840.8
532.516,832.7
533.062,829.7
533.607,843.9
534.152,2312.6
534.697,2101.2
535.242,1848.0
535.786,1747.1
536.331,1656.3
536.876,1622.5
537.42,1619.8
537.964,1615.6
538.508,1630.1
539.052,1633.7
539.596,1665.9
540.14,1689.5
540.683,1676.1
541.227,1668.9
541.77,1674.6
542.313,1688.1
542.856,1710.3
543.399,1710.7
543.942,1737.8
544.485,1733.9
545.027,1766.1
545.57,1787.4
546.112,1790.2
546.654,1782.0
547.196,1795.4
547.738,1808.3
548.28,1820.1
548.822,1841.2
549.363,1866.8
549.905,1853.2
550.446,1896.0
550.988,1892.4
551.529,1889.5
552.07,1904.5
552.611,1920.8
553.152,1946.2
553.692,1948.6
554.233,1962.7
554.773,1973.6
555.314,1983.8
555.854,2028.4
556.394,2048.6
556.934,2074.7
557.474,2252.2
558.014,2121.2
558.553,2082.5
559.093,2065.7
559.632,2074.3
560.172,2078.3
560.711,2093.2
561.25,2112.4
561.789,2149.3
562.328,2160.3
562.867,2163.1
563.406,2180.5
563.944,2192.0
564.483,2235.4
565.021,2362.5
565.559,2348.4
566.098,2362.4
566.636,2276.9
567.174,2244.4
567.711,2350.2
568.249,2301.3
568.787,2301.4
569.324,2336.3
569.862,2374.7
570.399,2420.9
570.936,2581.8
571.474,2795.1
572.011,2547.5
572.548,2437.7
573.084,2438.5
573.621,2424.4
574.158,2469.9
574.694,2473.8
575.231,2520.2
575.767,2518.3
576.303,2517.1
576.84,2564.1
577.376,2558.9
577.912,2530.3
578.447,2549.3
578.983,2550.3
579.519,2560.1
580.054,2579.9
580.59,2579.9
581.125,2613.1
581.661,2752.1
582.196,4387.5
582.731,2725.1
583.266,2653.7
583.801,2674.7
584.336,2692.6
584.87,2704.8
585.405,2823.7
585.94,3499.0
586.474,3227.1
587.008,2806.9
587.543,2780.8
588.077,2751.9
588.611,2744.6
589.145,2743.0
589.679,2734.8
590.213,2750.9
590.747,2756.5
591.28,2785.2
591.814,2783.7
592.347,2777.5
592.881,2780.2
593.414,2779.6
593.947,2777.0
594.48,2792.7
595.014,2811.6
595.547,2833.4
596.079,2836.5
596.612,2856.0
597.145,2874.8
597.678,2869.5
598.21,2892.3
598.743,2911.5
599.275,2915.0
599.807,2916.1
600.34,2926.9
600.872,2914.1
601.404,2903.1
601.936,2934.0
602.468,2954.1
603.0,2949.9
603.532,2974.7
604.063,2992.7
604.595,2981.2
605.126,2958.1
605.658,2951.2
606.189,2941.6
606.721,2970.9
607.252,2977.7
607.783,3035.6
608.314,3059.8
608.845,3057.7
609.376,3071.4
609.907,3097.1
610.438,3108.9
610.968,3108.2
611.499,3122.2
612.03,3170.5
612.56,3218.9
613.091,3259.0
613.621,3283.1
614.151,3328.1
614.681,3367.5
615.212,3349.9
615.742,3379.2
616.272,3398.4
616.802,3431.5
617.332,3479.7
617.861,3515.5
618.391,3543.3
618.921,3577.2
619.45,3573.1
619.98,3583.2
620.509,3617.9
621.039,3643.1
621.568,3668.2
622.097,3719.7
622.627,3754.0
623.156,3799.0
623.685,3843.7
624.214,3868.4
624.743,3918.6
625.272,3926.7
625.801,3962.6
626.33,3975.7
626.858,4004.7
627.387,4058.6
627.916,4071.5
628.444,4134.1
628.973,4172.3
629.501,4233.8
630.029,4259.9
630.558,4305.6
631.086,4357.8
631.614,4528.4
632.142,4563.6
632.67,4479.7
633.198,4476.3
633.726,4510.4
634.254,4477.5
634.782,4502.1
635.31,4556.3
635.838,4655.2
636.365,4845.4
636.893,4866.2
637.421,4684.0
637.948,4703.5
638.476,4722.6
639.003,4729.7
639.531,4747.5
640.058,4818.2
640.585,4801.8
641.113,4839.7
641.64,4873.0
642.167,4867.3
642.694,4891.1
643.221,4890.9
643.748,4866.8
644.275,4851.8
644.802,4899.4
645.329,4882.2
645.856,4934.4
646.382,4909.2
646.909,4961.4
647.436,5012.5
647.962,5004.2
648.489,4994.5
649.016,5015.0
649.542,4985.1
650.069,5013.2
650.595,5006.5
651.121,5020.4
651.648,5042.1
652.174,5059.4
652.7,5092.3
653.227,5102.3
653.753,5102.4
654.279,5119.8
654.805,5078.8
655.331,5104.8
655.857,5123.0
656.383,5146.0
656.909,5153.5
657.435,5160.9
657.961,5161.6
658.487,5197.7
659.013,5203.0
659.538,5200.3
660.064,5205.1
660.59,5198.4
661.116,5145.7
661.641,5134.7
662.167,5140.6
662.692,5153.3
663.087,5144.1