File: spectra/VLFR_06-PET_bio_Raman_e7e86831.csv
nm,Intensity
526.508,829.9
527.055,830.1
527.602,831.4
528.149,830.4
528.695,830.6
529.241,831.1
529.787,830.8
530.334,830.9
530.879,830.7
531.425,831.3
531.971,832.1
532.516,828.9
533.062,830.9
533.607,837.9
534.152,1908.7
534.697,1591.3
535.242,1303.4
535.786,1134.3
536.331,1026.0
536.876,989.1
537.42,967.4
537.964,962.4
538.508,972.6
539.052,966.2
539.596,980.6
540.14,987.5
540.683,952.0
541.227,942.6
541.77,942.0
542.313,943.4
542.856,944.5
543.399,941.9
543.942,954.8
544.485,948.5
545.027,950.3
545.57,958.4
546.112,955.2
546.654,956.4
547.196,962.7
547.738,960.0
548.28,963.0
548.822,964.3
549.363,961.9
549.905,971.1
550.446,983.4
550.988,992.2
551.529,980.6
552.07,982.6
552.611,989.5
553.152,1011.3
553.692,990.3
554.233,995.0
554.773,999.3
555.314,1006.7
555.854,1049.4
556.394,1057.4
556.934,1070.7
557.474,1189.9
558.014,1093.0
558.553,1089.9
559.093,1051.3
559.632,1027.1
560.172,1028.7
560.711,1028.8
561.25,1045.8
561.789,1045.0
562.328,1060.5
562.867,1069.7
563.406,1080.4
563.944,1063.1
564.483,1075.4
565.021,1124.0
565.559,1171.5
566.098,1186.3
566.636,1099.0
567.174,1084.6
567.711,1156.7
568.249,1094.1
568.787,1092.9
569.324,1097.9
569.862,1123.1
570.399,1167.5
570.936,1271.0
571.474,1374.4
572.011,1233.9
572.548,1153.8
573.084,1135.0
573.621,1134.6
574.158,1156.7
574.694,1143.0
575.231,1171.7
575.767,1148.7
576.303,1175.9
576.84,1196.7
577.376,1161.9
577.912,1151.0
578.447,1158.6
578.983,1163.2
579.519,1165.5
580.054,1167.4
580.59,1178.3
581.125,1192.2
581.661,1273.1
582.196,2304.7
582.731,1238.2
583.266,1196.9
583.801,1197.3
584.336,1209.1
584.87,1217.5
585.405,1314.1
585.94,1775.3
586.474,1530.1
587.008,1260.2
587.543,1223.6
588.077,1215.1
588.611,1210.0
589.145,1209.6
589.679,1218.0
590.213,1213.6
590.747,1212.1
591.28,1217.8
591.814,1217.8
592.347,1219.1
592.881,1219.6
593.414,1218.3
593.947,1215.2
594.48,1223.5
595.014,1220.6
595.547,1222.3
596.079,1231.7
596.612,1231.3
597.145,1236.0
597.678,1234.5
598.21,1237.6
598.743,1234.6
599.275,1236.8
599.807,1238.6
600.34,1232.1
600.872,1237.2
601.404,1243.0
601.936,1233.2
602.468,1230.4
603.0,1236.3
603.532,1235.7
604.063,1240.6
604.595,1237.3
605.126,1231.1
605.658,1220.1
606.189,1224.1
606.721,1225.5
607.252,1229.0
607.783,1226.1
608.314,1234.0
608.845,1238.8
609.376,1231.3
609.907,1233.7
610.438,1229.5
610.968,1232.0
611.499,1236.8
612.03,1242.3
612.56,1241.0
613.091,1252.6
613.621,1249.6
614.151,1237.2
614.681,1245.9
615.212,1253.9
615.742,1243.9
616.272,1248.9
616.802,1251.9
617.332,1253.5
617.861,1260.2
618.391,1260.4
618.921,1258.9
619.45,1250.2
619.98,1255.4
620.509,1246.8
621.039,1255.1
621.568,1258.1
622.097,1258.5
622.627,1259.7
623.156,1270.3
623.685,1271.2
624.214,1267.3
624.743,1275.9
625.272,1281.9
625.801,1274.2
626.33,1276.9
626.858,1273.7
627.387,1271.6
627.916,1280.0
628.444,1307.3
628.973,1325.5
629.501,1325.6
630.029,1321.6
630.558,1326.3
631.086,1380.3
631.614,1503.9
632.142,1490.0
632.67,1407.1
633.198,1398.8
633.726,1379.0
634.254,1350.5
634.782,1339.0
635.31,1353.2
635.838,1405.1
636.365,1501.8
636.893,1512.7
637.421,1387.2
637.948,1363.9
638.476,1347.9
639.003,1357.8
639.531,1349.7
640.058,1350.1
640.585,1345.3
641.113,1356.9
641.64,1363.7
642.167,1368.8
642.694,1361.5
643.221,1358.3
643.748,1358.5
644.275,1360.8
644.802,1353.1
645.329,1352.0
645.856,1361.8
646.382,1364.8
646.909,1364.0
647.436,1362.9
647.962,1368.7
648.489,1358.5
649.016,1359.1
649.542,1360.0
650.069,1366.8
650.595,1367.7
651.121,1367.2
651.648,1358.8
652.174,1367.0
652.7,1357.8
653.227,1356.2
653.753,1365.6
654.279,1356.6
654.805,1355.0
655.331,1364.7
655.857,1359.2
656.383,1353.5
656.909,1353.6
657.435,1368.2
657.961,1359.7
658.487,1364.6
659.013,1355.6
659.538,1358.1
660.064,1350.5
660.59,1350.9
661.116,1349.1
661.641,1328.4
662.167,1335.4
662.692,1335.9
663.087,1337.3