File: spectra/VLFR_07-PET_nobio_Raman_a067cac7.csv
nm,Intensity
791.588,10886.8
792.685,10425.9
793.781,10156.8
794.878,9981.9
795.975,9910.5
797.071,9906.0
798.168,9857.1
799.264,9929.9
800.36,9824.7
801.456,9869.7
802.552,9822.5
803.648,9759.0
804.744,9587.0
805.84,9601.2
806.936,9538.2
808.031,9334.1
809.127,9313.4
810.222,9232.6
811.317,9150.5
812.412,9109.6
813.507,8978.8
814.602,8980.0
815.697,8841.1
816.792,8718.4
817.887,8785.9
818.981,8656.2
820.076,8638.5
821.17,8681.7
822.265,8560.0
823.359,8379.7
824.453,8400.7
825.547,8507.4
826.641,8301.0
827.735,8274.5
828.828,8186.2
829.922,8158.3
831.016,8221.0
832.109,8038.8
833.202,7919.1
834.295,7864.9
835.388,7808.4
836.481,7876.4
837.574,7838.4
838.667,7830.7
839.76,7717.6
840.852,7868.1
841.945,7847.3
843.037,7690.1
844.129,7511.5
845.221,7386.6
846.314,7327.7
847.405,7313.9
848.497,7228.3
849.589,7185.7
850.681,7187.2
851.772,7127.7
852.863,7151.2
853.955,7039.3
855.046,6994.8
856.137,6970.4
857.228,6915.7
858.318,7019.6
859.409,7053.8
860.5,6896.7
861.59,6853.2
862.681,6815.1
863.771,6767.3
864.861,6816.4
865.951,6746.5
867.041,6703.0
868.131,6586.8
869.22,6689.6
870.31,6676.5
871.399,6793.0
872.488,6821.3
873.578,6923.4
874.667,6658.3
875.756,6457.5
876.845,6515.2
877.933,6410.2
879.022,6438.3
880.11,6376.5
881.199,6338.6
882.287,6272.8
883.375,6311.4
884.463,6325.8
885.551,6313.1
886.639,6184.8
887.726,6149.5
888.814,6120.2
889.901,6091.3
890.988,6078.3
892.075,5988.3
893.162,5941.6
894.249,5929.7
895.336,5874.3
896.423,5898.5
897.509,6040.0
898.595,6349.9
899.682,6076.1
900.768,5688.4
901.854,5661.6
902.94,5612.0
904.025,5624.1
905.111,5532.0
906.196,5692.7
907.282,5924.6
908.367,5801.3
909.452,5626.3
910.537,5432.4
911.622,5322.4
912.706,5273.4
913.791,5275.6
914.875,5172.0
915.959,5153.6
917.044,5120.2
918.128,5076.4
919.211,5074.6
920.295,5046.6
921.379,4987.2
922.462,4950.6
923.546,4937.7
924.629,4899.3
925.712,4867.9
926.795,4838.4
927.877,4771.0
928.96,4768.5
930.043,4696.0
931.125,4695.9
932.207,4656.2
933.289,4639.7
934.371,4637.7
935.453,4591.8
936.535,4560.9
937.616,4554.9
938.697,4513.5
939.779,4493.2
940.86,4476.6
941.941,4458.1
943.022,4423.8
944.102,4406.5
945.183,4409.8
946.263,4359.6
947.343,4358.2
948.423,4321.5
949.503,4336.0
950.583,4303.9
951.663,4282.4
952.742,4260.9
953.822,4254.3
954.901,4236.2
955.98,4218.2
957.059,4209.9
958.137,4193.9
959.216,4193.5
960.294,4171.9
961.373,4147.1
962.451,4133.0
963.529,4142.2
964.607,4114.9
965.684,4102.8
966.762,4091.4
967.839,4093.8
968.917,4072.5
969.994,4069.3
971.071,4057.4
972.147,4060.8
973.224,4034.8
974.3,4027.4
975.377,4017.6
976.453,4013.6
977.529,4009.3
978.605,4000.9
979.68,3986.4
980.756,3970.2
981.831,3977.3
982.907,3969.4
983.982,3959.0
985.057,3957.3
986.131,3946.1
987.206,3932.8
988.28,3937.3
989.355,3936.5
990.429,3931.8
991.503,3916.0
992.576,3913.0
993.65,3904.1
994.723,3901.2
995.797,3894.6
996.87,3893.1
997.943,3888.7
999.016,3879.3
1000.09,3872.7
1001.16,3872.8
1002.23,3866.6
1003.31,3857.9
1004.38,3856.9
1005.45,3856.5
1006.52,3847.7
1007.59,3843.6
1008.66,3843.0
1009.73,3840.1
1010.81,3830.4
1011.88,3833.0
1012.95,3827.6
1014.02,3825.8
1015.09,3825.2
1016.16,3820.6
1017.23,3821.0
1018.3,3819.0
1019.37,3814.0
1020.44,3813.3
1021.51,3815.4
1022.58,3818.8
1023.64,3818.0
1024.71,3814.1
1025.78,3806.5
1026.85,3801.5
1027.92,3796.5
1028.99,3794.9
1030.05,3791.0
1031.12,3787.9
1032.19,3790.0
1033.26,3789.3
1034.32,3789.7
1035.39,3791.4
1036.46,3787.6
1037.52,3785.8
1038.59,3782.4
1039.66,3779.1
1040.72,3778.1
1041.79,3774.5
1042.86,3774.9
1043.92,3772.8
1044.99,3775.3
1046.05,3771.7
1047.12,3769.8
1048.18,3768.6
1049.25,3768.5
1050.31,3768.6
1051.37,3767.0
1052.44,3768.1
1053.5,3766.3
1054.57,3765.7
1055.63,3767.7
1056.69,3766.8
1057.76,3765.7
1058.82,3766.8
1059.88,3766.1
1060.95,3764.9
1062.01,3764.5
1063.07,3763.1
1064.13,3762.4
1065.19,3764.0
1066.26,3763.2
1067.32,3761.5
1068.11,3762.9