File: spectra/VLFR_02-HDPE_bio_Raman_dfe079b5.csv
nm,Intensity
528.65,1856.1
529.155,1854.95
529.66,1856.4
530.165,1857.45
530.67,1856.65
531.175,1857.7
531.68,1872.85
532.185,2507.4
532.69,1858.65
533.194,1858.15
533.699,1979.05
534.204,2345.6
534.708,2343.3
535.213,2340.2
535.717,2335.15
536.222,2298.8
536.726,2307.9
537.231,2303.0
537.735,2326.1
538.239,2318.55
538.743,2313.15
539.247,2331.35
539.751,2304.85
540.255,2323.25
540.759,2320.0
541.263,2338.65
541.767,2346.75
542.271,2346.95
542.775,2357.8
543.279,2354.8
543.782,2368.9
544.286,2367.9
544.789,2365.4
545.293,2370.55
545.796,2393.95
546.3,2381.85
546.803,2392.8
547.306,2409.95
547.81,2419.05
548.313,2440.15
548.816,2421.8
549.319,2433.5
549.822,2431.65
550.325,2456.9
550.828,2469.7
551.331,2467.45
551.834,2493.9
552.337,2505.15
552.839,2487.05
553.342,2524.2
553.844,2507.45
554.347,2528.8
554.849,2543.0
555.352,2548.0
555.854,2544.4
556.357,2563.7
556.859,2581.45
557.361,2581.65
557.863,2575.5
558.365,2602.55
558.867,2627.5
559.369,2618.05
559.871,2626.35
560.373,2625.1
560.875,2666.35
561.377,2689.95
561.878,2687.4
562.38,2710.3
562.881,2702.95
563.383,2728.2
563.884,3000.5
564.386,2815.65
564.887,2811.95
565.388,2820.0
565.89,3028.55
566.391,3041.5
566.892,2833.05
567.393,2901.7
567.894,2872.0
568.395,2904.65
568.896,2899.6
569.396,2932.35
569.897,2962.85
570.398,3002.65
570.898,3045.1
571.399,3503.1
571.9,3222.55
572.4,3122.85
572.9,3127.15
573.401,3159.7
573.901,3208.8
574.401,3262.3
574.901,3251.6
575.401,3510.4
575.901,3536.9
576.401,3890.75
576.901,3784.9
577.401,3663.25
577.901,3621.1
578.4,3649.75
578.9,3746.35
579.399,3799.3
579.899,3850.35
580.398,3955.65
580.898,4034.5
581.397,4032.0
581.896,4133.15
582.395,4123.35
582.895,4191.75
583.394,4190.8
583.893,4171.8
584.391,4228.1
584.89,4271.6
585.389,4275.2
585.888,4204.85
586.386,4253.8
586.885,4288.85
587.384,4305.05
587.882,4354.0
588.38,4300.15
588.879,4346.0
589.377,4383.9
589.875,4335.0
590.373,4459.0
590.871,4411.85
591.369,4417.85
591.867,4542.3
592.365,4441.0
592.863,4466.2
593.361,4490.2
593.858,4503.85
594.356,4464.9
594.853,4559.6
595.351,4593.1
595.848,4674.75
596.345,4659.55
596.843,4715.8
597.34,4733.95
597.837,4734.2
598.334,4687.35
598.831,4751.65
599.328,4751.85
599.824,4729.65
600.321,4742.7
600.818,4763.45
601.314,4681.5
601.811,4749.55
602.307,4740.3
602.804,4739.5
603.3,4695.85
603.796,4593.85
604.293,4641.05
604.789,4578.75
605.285,4541.95
605.781,4532.5
606.277,4547.9
606.772,4463.8
607.268,4380.35
607.764,4401.0
608.259,4375.45
608.755,4381.7
609.25,4322.8
609.746,4248.8
610.241,4302.15
610.736,4224.0
611.231,4257.65
611.727,4231.35
612.222,4208.3
612.716,4170.1
613.211,4076.8
613.706,4102.8
614.201,4130.8
614.695,4055.25
615.19,4043.45
615.684,4040.3
616.179,4047.2
616.673,4016.75
617.168,4061.2
617.662,4009.3
618.156,3987.6
618.65,4019.9
619.144,4019.05
619.638,4019.9
620.131,3993.35
620.625,3962.1
621.119,3963.75
621.612,4039.65
622.106,4066.3
622.599,4133.0
623.093,4003.45
623.586,3954.9
624.079,3901.05
624.572,3998.5
625.065,3926.8
625.558,3940.95
626.051,4022.45
626.544,4371.25
627.037,6090.4
627.529,5934.6
628.022,5318.55
628.514,6717.15
629.007,5412.1
629.499,4951.45
629.991,4720.05
630.483,4582.55
630.976,4269.2
631.468,4068.85
631.959,3975.4
632.451,3964.8
632.943,3920.95
633.435,3908.9
633.926,3859.35
634.418,3859.1
634.909,3861.5
635.401,3851.7
635.892,3845.25
636.383,3830.8
636.874,3776.45
637.365,3812.7
637.856,3787.5
638.347,3823.2
638.838,3774.45
639.329,3754.15
639.819,3739.35
640.31,3782.05
640.8,3698.0
641.291,3747.8
641.781,3684.05
642.271,3700.95
642.761,3705.75
643.251,3625.0
643.741,3674.2
644.231,3650.0
644.721,3567.5
645.211,3604.2
645.7,3532.7
646.19,3512.5
646.679,3537.15
647.169,3522.7
647.658,3465.9
648.147,3489.7
648.636,3435.4
649.125,3446.9
649.614,3447.55
650.103,3395.0
650.592,3399.15
651.08,3373.75
651.569,3337.95
652.058,3373.65
652.546,3346.95
653.034,3334.5
653.523,3323.0
654.011,3259.25
654.499,3277.9
654.987,3211.0
655.475,3218.45
655.963,3193.25
656.45,3197.85
656.938,3165.5
657.425,3136.25
657.913,3110.85
658.4,3036.95
658.888,3046.75
659.375,2987.65
659.862,3002.6
660.349,2958.25
660.836,3010.6
661.079,2927.15