File: spectra/VLFR_08-PLA_nobio_Raman_73e0efda.csv
cm-1,Intensity
-123.878,1855.45
-105.821,1855.55
-87.8007,1856.35
-69.8161,1857.0
-51.8675,1855.9
-33.9547,1857.0
-16.0776,1895.95
1.76388,3212.35
19.5698,1858.25
37.3403,1858.9
55.0755,2048.65
72.7754,2517.7
90.4402,2388.9
108.07,2351.0
125.665,2292.25
143.225,2273.05
160.75,2290.8
178.241,2245.5
195.697,2267.25
213.119,2233.3
230.506,2242.35
247.859,2268.45
265.178,2211.45
282.463,2248.75
299.713,2290.15
316.93,2283.8
334.113,2249.85
351.263,2259.9
368.379,2277.1
385.461,2323.15
402.51,2371.3
419.526,2315.95
436.508,2272.4
453.458,2257.15
470.374,2264.8
487.257,2252.35
504.107,2271.8
520.925,2277.55
537.71,2274.55
554.462,2282.15
571.182,2300.4
587.87,2301.75
604.525,2303.1
621.148,2309.25
637.739,2320.45
654.297,2338.4
670.824,2369.55
687.319,2360.15
703.782,2364.6
720.213,2341.45
736.613,2373.8
752.981,2360.65
769.317,2363.05
785.623,2341.8
801.897,2336.5
818.139,2343.45
834.351,2360.05
850.532,2433.2
866.681,2775.65
882.8,2629.35
898.888,2423.75
914.945,2428.8
930.972,2403.95
946.968,2403.7
962.934,2386.6
978.869,2399.45
994.774,2411.05
1010.65,2411.2
1026.49,2459.7
1042.31,2547.2
1058.09,2489.6
1073.85,2453.1
1089.57,2501.7
1105.27,2524.25
1120.93,2579.75
1136.57,2544.95
1152.18,2441.05
1167.75,2454.7
1183.3,2472.3
1198.82,2458.45
1214.31,2458.5
1229.77,2448.1
1245.2,2461.4
1260.6,2458.8
1275.97,2471.75
1291.32,2571.3
1306.63,2578.65
1321.92,2519.6
1337.18,2533.4
1352.41,2554.5
1367.61,2550.7
1382.78,2554.05
1397.93,2484.8
1413.05,2474.75
1428.14,2518.35
1443.2,2648.25
1458.23,2721.95
1473.23,2556.15
1488.21,2504.0
1503.16,2479.15
1518.08,2477.2
1532.97,2485.85
1547.84,2499.95
1562.68,2500.2
1577.49,2520.95
1592.27,2509.4
1607.03,2494.25
1621.76,2509.55
1636.46,2502.2
1651.14,2521.65
1665.78,2503.05
1680.41,2508.1
1695.0,2503.15
1709.57,2509.75
1724.11,2519.5
1738.62,2574.8
1753.11,2688.5
1767.57,2781.6
1782.01,2690.75
1796.41,2545.65
1810.8,2531.45
1825.15,2508.25
1839.48,2511.85
1853.79,2491.25
1868.06,2505.95
1882.31,2496.15
1896.54,2510.65
1910.74,2521.6
1924.91,2525.05
1939.06,2508.8
1953.19,2519.05
1967.28,2512.6
1981.35,2507.2
1995.4,2522.8
2009.42,2520.4
2023.42,2522.35
2037.39,2501.65
2051.33,2533.65
2065.25,2514.35
2079.15,2517.5
2093.01,2515.5
2106.86,2511.35
2120.68,2504.9
2134.47,2506.25
2148.24,2505.65
2161.99,2503.95
2175.71,2508.85
2189.41,2509.05
2203.08,2501.2
2216.73,2496.9
2230.35,2485.95
2243.95,2506.5
2257.52,2499.7
2271.07,2483.55
2284.6,2486.1
2298.1,2471.05
2311.58,2481.55
2325.03,2474.3
2338.46,2490.15
2351.87,2495.5
2365.25,2464.65
2378.61,2483.15
2391.94,2465.45
2405.26,2480.45
2418.54,2465.65
2431.81,2465.35
2445.05,2466.3
2458.27,2460.25
2471.46,2456.2
2484.63,2457.75
2497.78,2463.1
2510.9,2451.8
2524.0,2454.7
2537.08,2433.7
2550.14,2460.2
2563.17,2454.65
2576.18,2468.65
2589.17,2442.85
2602.13,2445.2
2615.07,2449.15
2627.99,2452.1
2640.89,2441.75
2653.76,2441.3
2666.61,2450.55
2679.44,2447.0
2692.25,2423.45
2705.03,2435.55
2717.79,2440.5
2730.53,2467.5
2743.25,2485.3
2755.94,2462.35
2768.61,2449.85
2781.27,2443.75
2793.89,2416.85
2806.5,2429.95
2819.09,2414.55
2831.65,2422.6
2844.19,2422.95
2856.71,2444.7
2869.21,2534.85
2881.69,2714.9
2894.14,2679.4
2906.58,2669.4
2918.99,2690.65
2931.38,2974.0
2943.75,4301.9
2956.1,3657.45
2968.42,2980.1
2980.73,2883.1
2993.01,3098.45
3005.28,3207.85
3017.52,2863.1
3029.74,2579.95
3041.94,2451.4
3054.12,2392.2
3066.28,2395.6
3078.42,2374.7
3090.54,2380.6
3102.63,2374.75
3114.71,2366.3
3126.77,2345.95
3138.8,2340.75
3150.82,2338.65
3162.81,2343.05
3174.78,2351.9
3186.74,2341.1
3198.67,2348.85
3210.58,2330.2
3222.47,2319.75
3234.35,2327.05
3246.2,2336.1
3258.03,2315.95
3269.84,2314.95
3281.64,2305.75
3293.41,2307.35
3305.16,2295.4
3316.89,2281.15
3328.61,2280.4
3340.3,2282.65
3351.97,2274.8
3363.63,2278.25
3375.26,2263.85
3386.88,2265.8
3398.47,2247.8
3410.05,2253.2
3421.6,2245.35
3433.14,2253.6
3444.66,2239.45
3456.15,2223.5
3467.63,2243.8
3479.09,2231.3
3490.53,2221.2
3501.96,2217.85
3513.36,2207.65
3524.74,2205.6
3536.11,2190.0
3547.45,2196.2
3558.78,2189.6
3570.09,2189.1
3581.37,2195.7
3592.64,2175.45
3603.9,2174.5
3615.13,2179.35
3626.34,2166.95
3637.54,2166.65
3648.72,2159.15
3659.87,2161.55
3665.45,2154.3