File: spectra/VLFR_02-HDPE_nobio_Raman_c4353920.csv
cm-1,Intensity
-123.878,1851.85
-105.821,1852.95
-87.8007,1853.35
-69.8161,1852.95
-51.8675,1852.55
-33.9547,1854.15
-16.0776,1880.55
1.76388,3389.1
19.5698,1853.7
37.3403,1853.55
55.0755,1891.65
72.7754,1985.8
90.4402,1992.0
108.07,1991.05
125.665,1990.35
143.225,1979.2
160.75,1980.2
178.241,1975.45
195.697,1984.15
213.119,1979.35
230.506,1970.4
247.859,1979.6
265.178,1974.25
282.463,1973.05
299.713,1978.95
316.93,1977.6
334.113,1975.2
351.263,1984.55
368.379,1985.1
385.461,1981.7
402.51,1988.1
419.526,1983.5
436.508,1987.8
453.458,1988.4
470.374,1991.65
487.257,1991.1
504.107,1989.55
520.925,1994.4
537.71,1994.8
554.462,1997.55
571.182,1995.2
587.87,1993.35
604.525,1995.7
621.148,2000.9
637.739,1997.7
654.297,1993.85
670.824,1999.4
687.319,2002.5
703.782,2004.4
720.213,2007.6
736.613,2002.75
752.981,2002.5
769.317,2018.0
785.623,2002.2
801.897,2014.55
818.139,2013.55
834.351,2023.0
850.532,2007.65
866.681,2019.25
882.8,2027.2
898.888,2023.55
914.945,2023.65
930.972,2026.25
946.968,2026.9
962.934,2025.4
978.869,2026.9
994.774,2039.35
1010.65,2042.1
1026.49,2044.25
1042.31,2052.7
1058.09,2133.55
1073.85,2071.35
1089.57,2084.4
1105.27,2070.85
1120.93,2138.1
1136.57,2135.8
1152.18,2073.25
1167.75,2076.5
1183.3,2063.55
1198.82,2071.6
1214.31,2072.75
1229.77,2079.4
1245.2,2083.85
1260.6,2087.4
1275.97,2101.35
1291.32,2242.2
1306.63,2129.9
1321.92,2123.0
1337.18,2107.7
1352.41,2115.1
1367.61,2120.9
1382.78,2116.6
1397.93,2126.95
1413.05,2198.4
1428.14,2213.65
1443.2,2278.2
1458.23,2235.8
1473.23,2222.3
1488.21,2200.6
1503.16,2189.65
1518.08,2208.85
1532.97,2234.8
1547.84,2234.4
1562.68,2259.45
1577.49,2280.8
1592.27,2276.15
1607.03,2293.75
1621.76,2324.3
1636.46,2314.65
1651.14,2360.4
1665.78,2382.7
1680.41,2381.2
1695.0,2406.8
1709.57,2433.65
1724.11,2469.0
1738.62,2478.75
1753.11,2504.05
1767.57,2539.6
1782.01,2561.35
1796.41,2605.2
1810.8,2611.6
1825.15,2619.05
1839.48,2670.4
1853.79,2695.5
1868.06,2740.8
1882.31,2766.25
1896.54,2794.7
1910.74,2787.75
1924.91,2859.45
1939.06,2897.0
1953.19,2936.65
1967.28,2933.75
1981.35,2974.8
1995.4,3034.1
2009.42,3056.25
2023.42,3168.75
2037.39,3131.0
2051.33,3228.2
2065.25,3214.85
2079.15,3286.25
2093.01,3313.85
2106.86,3367.05
2120.68,3389.2
2134.47,3406.6
2148.24,3408.0
2161.99,3437.6
2175.71,3433.7
2189.41,3448.25
2203.08,3470.8
2216.73,3420.3
2230.35,3430.05
2243.95,3382.65
2257.52,3404.1
2271.07,3330.95
2284.6,3329.1
2298.1,3301.25
2311.58,3246.75
2325.03,3251.45
2338.46,3198.5
2351.87,3161.8
2365.25,3159.3
2378.61,3123.25
2391.94,3091.75
2405.26,3091.55
2418.54,3048.0
2431.81,3047.3
2445.05,3028.85
2458.27,2991.45
2471.46,2942.4
2484.63,2962.65
2497.78,2913.1
2510.9,2946.9
2524.0,2898.0
2537.08,2866.6
2550.14,2863.8
2563.17,2847.1
2576.18,2819.95
2589.17,2804.2
2602.13,2787.2
2615.07,2789.05
2627.99,2760.3
2640.89,2751.95
2653.76,2760.1
2666.61,2730.5
2679.44,2714.2
2692.25,2733.6
2705.03,2728.5
2717.79,2740.75
2730.53,2710.75
2743.25,2681.1
2755.94,2683.05
2768.61,2647.9
2781.27,2623.1
2793.89,2640.25
2806.5,2653.7
2819.09,2637.7
2831.65,2772.35
2844.19,3419.4
2856.71,3393.95
2869.21,3138.25
2881.69,3533.3
2894.14,3176.2
2906.58,3012.75
2918.99,2889.35
2931.38,2871.1
2943.75,2705.9
2956.1,2632.65
2968.42,2588.8
2980.73,2602.75
2993.01,2578.9
3005.28,2596.05
3017.52,2572.5
3029.74,2561.25
3041.94,2580.95
3054.12,2575.3
3066.28,2530.9
3078.42,2596.55
3090.54,2557.8
3102.63,2605.6
3114.71,2558.0
3126.77,2591.05
3138.8,2576.6
3150.82,2611.7
3162.81,2635.35
3174.78,2581.6
3186.74,2601.15
3198.67,2596.9
3210.58,2617.1
3222.47,2646.45
3234.35,2632.55
3246.2,2642.1
3258.03,2673.65
3269.84,2632.95
3281.64,2629.0
3293.41,2660.75
3305.16,2674.65
3316.89,2696.7
3328.61,2669.5
3340.3,2655.0
3351.97,2686.55
3363.63,2669.05
3375.26,2673.3
3386.88,2652.45
3398.47,2651.75
3410.05,2628.15
3421.6,2685.45
3433.14,2685.1
3444.66,2662.15
3456.15,2691.25
3467.63,2657.8
3479.09,2681.45
3490.53,2611.35
3501.96,2692.85
3513.36,2639.85
3524.74,2624.35
3536.11,2634.55
3547.45,2607.55
3558.78,2591.3
3570.09,2589.4
3581.37,2575.9
3592.64,2576.5
3603.9,2556.5
3615.13,2530.05
3626.34,2506.6
3637.54,2491.95
3648.72,2514.05
3659.87,2465.4
3665.45,2461.95