File: spectra/VLFR_07-PET_bio_Raman_f64d4272.csv
nm,Intensity
791.75,13113.0
792.846,12295.9
793.942,11801.8
795.037,11629.8
796.133,11560.5
797.228,11435.5
798.324,11652.2
799.419,11424.3
800.514,11436.6
801.61,11360.8
802.705,11135.3
803.8,10913.5
804.894,10809.8
805.989,10646.0
807.084,10655.0
808.178,10506.8
809.273,10407.3
810.367,10355.8
811.461,10246.7
812.556,10139.3
813.65,9998.6
814.744,9928.4
815.837,9851.5
816.931,9828.35
818.025,9635.75
819.118,9588.15
820.212,9516.75
821.305,9411.7
822.398,9304.4
823.491,9183.25
824.585,9149.85
825.677,9398.4
826.77,8833.7
827.863,8849.8
828.956,8760.75
830.048,8804.25
831.14,8621.4
832.233,8554.3
833.325,8372.2
834.417,8287.25
835.509,8255.25
836.601,8375.85
837.692,8337.25
838.784,8225.7
839.876,8136.4
840.967,8530.5
842.058,8156.6
843.149,8117.1
844.24,7805.25
845.331,7739.35
846.422,7657.9
847.513,7488.3
848.604,7580.4
849.694,7455.95
850.784,7415.25
851.875,7447.55
852.965,7481.95
854.055,7295.6
855.145,7351.6
856.235,7239.85
857.324,7270.15
858.414,7368.05
859.503,7360.0
860.593,7234.85
861.682,7085.1
862.771,7065.4
863.86,6960.75
864.949,7101.2
866.038,6879.15
867.126,6768.15
868.215,6855.85
869.303,6866.95
870.391,6971.4
871.479,7112.75
872.567,7359.1
873.655,7137.8
874.743,6881.55
875.831,6762.35
876.918,6567.0
878.006,6649.5
879.093,6550.25
880.18,6451.85
881.267,6467.6
882.354,6473.7
883.441,6374.6
884.527,6448.75
885.614,6436.9
886.7,6257.0
887.786,6216.85
888.872,6153.25
889.958,6094.3
891.044,6174.35
892.13,6081.5
893.216,5965.65
894.301,5938.1
895.386,5908.05
896.472,5921.7
897.557,6616.15
898.642,6543.0
899.726,5899.65
900.811,5681.0
901.896,5643.8
902.98,5638.9
904.064,5586.4
905.148,5557.15
906.232,5856.25
907.316,6125.0
908.4,5886.25
909.484,5528.65
910.567,5415.65
911.65,5274.3
912.734,5232.95
913.817,5169.4
914.9,5136.0
915.982,5127.15
917.065,5075.9
918.147,5044.9
919.23,5032.8
920.312,5008.9
921.394,4954.0
922.476,4908.6
923.558,4888.9
924.639,4857.1
925.721,4807.6
926.802,4809.25
927.884,4725.0
928.965,4728.0
930.046,4667.85
931.126,4644.4
932.207,4603.65
933.288,4600.8
934.368,4598.2
935.448,4536.85
936.528,4494.2
937.608,4502.95
938.688,4451.5
939.767,4442.25
940.847,4419.1
941.926,4419.25
943.005,4386.9
944.084,4392.05
945.163,4325.95
946.242,4324.35
947.321,4294.15
948.399,4276.5
949.477,4273.4
950.556,4242.75
951.634,4250.45
952.711,4233.2
953.789,4181.0
954.867,4196.05
955.944,4170.1
957.021,4148.4
958.098,4146.0
959.175,4129.0
960.252,4113.55
961.328,4098.9
962.405,4092.4
963.481,4081.0
964.557,4057.7
965.633,4054.0
966.709,4044.35
967.785,4034.55
968.86,4028.0
969.936,4017.65
971.011,3994.15
972.086,3998.4
973.161,3988.15
974.235,3982.65
975.31,3965.95
976.384,3948.4
977.459,3941.05
978.533,3946.6
979.607,3937.55
980.68,3933.1
981.754,3925.0
982.827,3903.4
983.901,3900.45
984.974,3903.5
986.047,3893.0
987.119,3882.45
988.192,3887.65
989.264,3880.55
990.337,3864.8
991.409,3865.4
992.481,3849.8
993.553,3850.6
994.624,3844.95
995.696,3842.1
996.767,3832.35
997.838,3826.3
998.909,3826.15
999.98,3817.9
1001.05,3814.2
1002.12,3810.3
1003.19,3804.6
1004.26,3802.9
1005.33,3796.45
1006.4,3795.2
1007.47,3786.55
1008.54,3784.65
1009.61,3781.6
1010.68,3780.15
1011.75,3772.25
1012.82,3774.2
1013.88,3774.55
1014.95,3773.1
1016.02,3767.05
1017.09,3763.1
1018.16,3758.85
1019.22,3760.5
1020.29,3762.15
1021.36,3765.7
1022.43,3766.65
1023.49,3763.0
1024.56,3758.95
1025.63,3752.2
1026.69,3744.35
1027.76,3745.25
1028.83,3738.75
1029.89,3736.65
1030.96,3733.55
1032.02,3732.7
1033.09,3735.7
1034.15,3738.5
1035.22,3738.4
1036.28,3733.65
1037.35,3727.9
1038.41,3724.0
1039.48,3722.75
1040.54,3721.3
1041.6,3720.85
1042.67,3719.55
1043.73,3717.25
1044.79,3716.15
1045.86,3713.8
1046.92,3715.45
1047.98,3715.15
1049.05,3713.55
1050.11,3714.55
1051.17,3715.4
1052.23,3713.3
1053.29,3713.7
1054.36,3711.45
1055.42,3710.2
1056.48,3711.25
1057.54,3711.05
1058.6,3710.85
1059.66,3709.7
1060.72,3710.5
1061.78,3709.1
1062.84,3708.95
1063.9,3710.4
1064.96,3709.4
1066.02,3709.2
1067.08,3708.65
1067.88,3707.85