File: spectra/VLFR_08-PLA_bio_Raman_a860dec2.csv
nm,Intensity
528.65,1843.75
529.155,1844.65
529.66,1843.9
530.165,1844.65
530.67,1843.55
531.175,1845.85
531.68,1860.15
532.185,2431.8
532.69,1844.4
533.194,1844.7
533.699,1967.55
534.204,2248.0
534.708,2185.1
535.213,2175.8
535.717,2132.35
536.222,2126.5
536.726,2141.05
537.231,2110.85
537.735,2118.15
538.239,2111.05
538.743,2114.75
539.247,2116.2
539.751,2079.3
540.255,2093.95
540.759,2153.4
541.263,2129.2
541.767,2097.5
542.271,2096.55
542.775,2106.0
543.279,2151.4
543.782,2211.85
544.286,2152.6
544.789,2095.7
545.293,2097.35
545.796,2097.7
546.3,2104.0
546.803,2116.35
547.306,2121.25
547.81,2107.8
548.313,2127.85
548.816,2133.95
549.319,2135.05
549.822,2135.25
550.325,2151.3
550.828,2163.55
551.331,2150.6
551.834,2179.25
552.337,2172.9
552.839,2177.05
553.342,2158.1
553.844,2188.55
554.347,2178.7
554.849,2158.25
555.352,2159.55
555.854,2151.65
556.357,2153.7
556.859,2166.65
557.361,2194.1
557.863,2461.0
558.365,2354.85
558.867,2197.05
559.369,2196.35
559.871,2195.65
560.373,2191.45
560.875,2175.35
561.377,2184.25
561.878,2209.1
562.38,2335.9
562.881,2234.75
563.383,2310.4
563.884,2240.6
564.386,2224.55
564.887,2282.65
565.388,2269.8
565.89,2322.65
566.391,2343.55
566.892,2222.75
567.393,2232.5
567.894,2256.95
568.395,2240.7
568.896,2244.45
569.396,2247.0
569.897,2239.1
570.398,2248.45
570.898,2261.8
571.399,2334.2
571.9,2317.3
572.4,2288.5
572.9,2294.75
573.401,2284.0
573.901,2315.8
574.401,2325.95
574.901,2286.2
575.401,2274.15
575.901,2276.2
576.401,2386.55
576.901,2474.8
577.401,2316.65
577.901,2276.55
578.4,2263.35
578.9,2255.55
579.399,2263.85
579.899,2268.3
580.398,2263.15
580.898,2255.45
581.397,2255.35
581.896,2261.6
582.395,2268.15
582.895,2256.45
583.394,2264.3
583.893,2268.05
584.391,2264.7
584.89,2259.25
585.389,2265.1
585.888,2272.55
586.386,2298.1
586.885,2377.85
587.384,2444.6
587.882,2352.2
588.38,2276.2
588.879,2263.65
589.377,2259.45
589.875,2256.1
590.373,2243.9
590.871,2250.15
591.369,2250.2
591.867,2250.2
592.365,2254.0
592.863,2244.2
593.361,2249.7
593.858,2257.45
594.356,2250.15
594.853,2248.9
595.351,2270.55
595.848,2245.65
596.345,2258.25
596.843,2267.6
597.34,2255.8
597.837,2258.95
598.334,2259.85
598.831,2248.4
599.328,2264.55
599.824,2265.5
600.321,2253.45
600.818,2253.3
601.314,2246.8
601.811,2256.05
602.307,2244.45
602.804,2262.05
603.3,2255.35
603.796,2248.6
604.293,2251.45
604.789,2244.55
605.285,2250.8
605.781,2253.05
606.277,2246.65
606.772,2241.0
607.268,2251.85
607.764,2256.15
608.259,2257.05
608.755,2249.85
609.25,2241.6
609.746,2238.15
610.241,2247.5
610.736,2246.45
611.231,2240.95
611.727,2253.2
612.222,2251.6
612.716,2236.5
613.211,2239.8
613.706,2232.6
614.201,2240.85
614.695,2239.65
615.19,2240.3
615.684,2240.05
616.179,2224.5
616.673,2240.85
617.168,2243.3
617.662,2237.7
618.156,2233.5
618.65,2231.85
619.144,2225.65
619.638,2238.5
620.131,2241.55
620.625,2233.95
621.119,2237.5
621.612,2245.15
622.106,2250.75
622.599,2270.7
623.093,2266.5
623.586,2262.65
624.079,2253.35
624.572,2244.15
625.065,2223.85
625.558,2218.6
626.051,2235.5
626.544,2220.55
627.037,2241.9
627.529,2238.25
628.022,2288.7
628.514,2429.0
629.007,2386.75
629.499,2397.6
629.991,2400.65
630.483,2568.05
630.976,3492.95
631.468,3067.6
631.959,2624.95
632.451,2482.65
632.943,2631.8
633.435,2735.95
633.926,2517.65
634.418,2317.1
634.909,2238.5
635.401,2209.25
635.892,2199.5
636.383,2175.1
636.874,2174.55
637.365,2176.5
637.856,2167.4
638.347,2175.0
638.838,2154.0
639.329,2169.4
639.819,2157.8
640.31,2154.6
640.8,2150.0
641.291,2142.95
641.781,2153.6
642.271,2156.95
642.761,2145.7
643.251,2135.2
643.741,2143.15
644.231,2141.3
644.721,2120.9
645.211,2126.8
645.7,2115.25
646.19,2114.95
646.679,2110.1
647.169,2109.2
647.658,2107.25
648.147,2117.65
648.636,2104.1
649.125,2100.05
649.614,2103.65
650.103,2109.8
650.592,2097.4
651.08,2083.1
651.569,2085.1
652.058,2087.2
652.546,2088.6
653.034,2078.35
653.523,2073.75
654.011,2078.05
654.499,2055.7
654.987,2066.1
655.475,2056.65
655.963,2060.25
656.45,2056.65
656.938,2057.05
657.425,2044.6
657.913,2051.7
658.4,2045.35
658.888,2043.8
659.375,2043.65
659.862,2036.6
660.349,2028.3
660.836,2033.45
661.079,2022.5