File: spectra/VLFR_08-PLA_bio_Raman_0935abfd.csv
nm,Intensity
526.495,827.7
527.042,827.8
527.589,828.6
528.136,826.2
528.682,827.8
529.229,828.6
529.775,828.3
530.321,825.6
530.867,825.9
531.413,827.1
531.959,836.4
532.505,828.6
533.051,825.9
533.596,829.1
534.141,983.4
534.687,953.0
535.232,925.4
535.777,920.9
536.321,906.0
536.866,912.7
537.41,903.4
537.955,905.5
538.499,891.1
539.043,893.9
539.587,890.0
540.131,891.6
540.675,901.9
541.219,901.9
541.762,893.7
542.305,894.1
542.849,893.8
543.392,911.1
543.935,917.0
544.478,901.3
545.02,889.3
545.563,890.7
546.106,889.9
546.648,890.7
547.19,893.5
547.732,896.7
548.274,897.2
548.816,893.1
549.358,898.1
549.9,894.0
550.441,897.6
550.983,900.5
551.524,902.4
552.065,903.1
552.606,903.7
553.147,905.2
553.688,904.5
554.229,912.7
554.769,902.7
555.31,899.1
555.85,900.0
556.391,898.5
556.931,901.4
557.471,914.1
558.011,997.0
558.551,926.5
559.09,911.5
559.63,910.5
560.169,907.5
560.709,904.1
561.248,905.7
561.787,905.6
562.326,904.0
562.865,912.7
563.404,935.1
563.943,921.4
564.481,914.0
565.02,930.4
565.558,929.2
566.096,950.5
566.634,930.0
567.172,913.1
567.71,912.2
568.248,916.4
568.786,917.6
569.324,916.8
569.861,913.3
570.399,913.7
570.936,919.8
571.473,930.8
572.01,928.9
572.547,925.6
573.084,928.3
573.621,928.1
574.158,925.9
574.694,939.1
575.231,920.7
575.767,920.9
576.303,935.7
576.84,971.6
577.376,938.1
577.912,924.2
578.448,918.8
578.984,920.3
579.519,920.2
580.055,920.4
580.59,919.8
581.126,918.6
581.661,915.1
582.196,919.6
582.731,920.9
583.267,922.4
583.801,919.3
584.336,919.8
584.871,927.1
585.406,921.0
585.94,925.6
586.475,931.9
587.009,960.9
587.543,974.8
588.078,942.1
588.612,927.8
589.146,922.4
589.68,922.4
590.214,922.8
590.747,924.5
591.281,922.2
591.815,924.0
592.348,923.7
592.881,919.8
593.415,920.8
593.948,922.8
594.481,919.9
595.014,921.2
595.547,917.6
596.08,923.0
596.613,921.9
597.146,920.9
597.678,921.4
598.211,922.3
598.743,927.2
599.276,919.2
599.808,920.7
600.34,925.2
600.872,921.5
601.404,921.2
601.936,919.9
602.468,920.5
603.0,918.7
603.532,922.2
604.064,921.2
604.595,917.8
605.127,918.2
605.658,914.7
606.189,919.1
606.721,916.7
607.252,917.0
607.783,915.4
608.314,918.4
608.845,918.4
609.376,918.1
609.907,913.8
610.438,916.4
610.968,917.9
611.499,914.9
612.029,916.4
612.56,918.3
613.09,919.1
613.621,916.1
614.151,918.5
614.681,917.7
615.211,918.9
615.741,913.3
616.271,917.0
616.801,919.8
617.331,918.8
617.861,916.8
618.39,916.7
618.92,914.0
619.45,914.7
619.979,916.4
620.509,917.4
621.038,911.6
621.567,911.4
622.096,914.7
622.626,920.1
623.155,927.8
623.684,921.2
624.213,917.1
624.742,918.3
625.271,913.3
625.799,913.7
626.328,915.5
626.857,916.3
627.386,920.5
627.914,922.0
628.443,973.5
628.971,963.7
629.5,967.8
630.028,971.7
630.556,1018.0
631.084,1333.4
631.613,1122.2
632.141,1020.1
632.669,1002.4
633.197,1075.8
633.725,1048.0
634.253,970.2
634.781,930.0
635.308,917.0
635.836,917.2
636.364,913.0
636.891,910.6
637.419,908.2
637.947,907.9
638.474,907.4
639.002,906.8
639.529,906.4
640.056,907.1
640.584,907.6
641.111,906.9
641.638,909.9
642.165,901.9
642.692,902.4
643.219,904.0
643.746,904.4
644.273,896.8
644.8,895.7
645.327,900.3
645.854,898.7
646.381,899.2
646.908,896.3
647.434,898.7
647.961,897.1
648.488,893.8
649.014,896.2
649.541,896.2
650.067,895.8
650.594,895.0
651.12,895.2
651.646,892.0
652.173,893.2
652.699,890.8
653.225,892.3
653.752,893.6
654.278,893.0
654.804,888.3
655.33,894.4
655.856,890.6
656.382,891.3
656.908,893.4
657.434,890.6
657.96,891.1
658.486,889.0
659.012,887.9
659.538,887.0
660.064,887.5
660.589,888.2
661.115,889.7
661.641,887.7
662.166,885.9
662.692,887.7
663.086,886.4