File: spectra/VLFR_07-PET_bio_Raman_8c2c42c3.csv
nm,Intensity
791.377,40174.6
792.477,40630.4
793.576,41135.4
794.676,41467.1
795.775,43080.9
796.874,41905.4
797.973,41722.4
799.072,42542.4
800.171,42634.9
801.27,42516.1
802.368,42354.4
803.467,42637.1
804.565,43195.5
805.664,43226.8
806.762,41609.9
807.86,42261.6
808.958,42169.9
810.056,41410.9
811.153,42155.1
812.251,42644.9
813.349,41431.1
814.446,41453.9
815.543,42233.1
816.64,41340.9
817.737,41526.3
818.834,42200.5
819.931,41578.3
821.028,41139.3
822.125,42749.9
823.221,42440.8
824.317,41669.5
825.414,40965.4
826.51,41075.5
827.606,40259.1
828.702,40249.1
829.797,40084.9
830.893,40261.4
831.988,40632.6
833.084,39043.2
834.179,40254.1
835.274,39436.1
836.369,39666.4
837.464,39093.3
838.559,39699.1
839.654,39352.1
840.748,39099.4
841.843,38724.6
842.937,39848.3
844.031,40079.8
845.125,36593.3
846.219,38114.5
847.313,37189.7
848.407,37566.1
849.5,36521.8
850.593,37634.1
851.687,38675.6
852.78,38068.1
853.873,35681.1
854.966,36590.9
856.059,36544.9
857.151,35946.3
858.244,36930.8
859.336,35760.4
860.428,36350.6
861.52,35049.8
862.612,34286.1
863.704,34625.6
864.796,34836.4
865.888,34352.6
866.979,34151.8
868.07,34419.9
869.162,34291.8
870.253,33565.9
871.344,33676.7
872.434,32472.9
873.525,33581.1
874.615,32523.7
875.706,32487.2
876.796,31455.9
877.886,31837.6
878.976,31454.9
880.066,32413.8
881.156,30964.7
882.245,31603.8
883.335,31128.1
884.424,30884.7
885.513,30099.8
886.602,30073.1
887.691,30410.8
888.78,29406.6
889.868,29712.0
890.957,29386.2
892.045,28401.9
893.133,28496.1
894.221,27951.8
895.309,28213.8
896.397,27370.0
897.484,27551.4
898.571,27244.9
899.659,27263.1
900.746,26888.2
901.833,26530.0
902.92,25857.8
904.006,26068.1
905.093,25390.3
906.179,25183.7
907.266,25724.8
908.352,25230.8
909.438,24873.8
910.523,24304.0
911.609,24140.9
912.695,23440.9
913.78,23650.8
914.865,23592.3
915.95,23041.8
917.035,22954.4
918.12,22416.5
919.204,22671.1
920.289,21152.3
921.373,22505.0
922.457,21603.9
923.541,20945.9
924.625,21475.8
925.709,20394.8
926.792,20467.2
927.876,19994.9
928.959,20040.5
930.042,19501.2
931.125,19200.9
932.208,18680.7
933.29,19150.1
934.373,19122.9
935.455,18270.3
936.537,18236.8
937.619,17834.8
938.701,17235.9
939.782,17049.8
940.864,17229.8
941.945,16941.8
943.026,16519.4
944.107,16669.3
945.188,15766.8
946.269,15872.2
947.349,15796.5
948.43,15635.1
949.51,15451.7
950.59,15309.2
951.67,14920.8
952.75,14211.8
953.829,14424.9
954.909,14524.4
955.988,14167.8
957.067,13761.0
958.146,13775.8
959.224,13093.3
960.303,13509.8
961.381,12942.3
962.459,12857.7
963.537,12740.5
964.615,12418.5
965.693,12440.4
966.771,12100.3
967.848,11631.3
968.925,12154.8
970.002,11451.5
971.079,11724.5
972.156,11173.5
973.232,10992.5
974.309,10819.1
975.385,10801.0
976.461,10902.2
977.537,10591.0
978.612,10317.8
979.688,10289.9
980.763,10021.3
981.838,10131.4
982.913,9759.9
983.988,9487.55
985.063,9615.05
986.137,9512.0
987.211,9279.95
988.285,9108.55
989.359,8712.25
990.433,8992.8
991.506,8920.2
992.58,8533.15
993.653,8479.55
994.726,8464.85
995.799,8203.8
996.872,8171.6
997.944,8097.55
999.016,7952.8
1000.09,7806.5
1001.16,7755.9
1002.23,7494.7
1003.3,7555.5
1004.38,7526.3
1005.45,7307.3
1006.52,7107.4
1007.59,7094.65
1008.66,6951.65
1009.73,6989.35
1010.8,6765.45
1011.87,6640.3
1012.94,6493.75
1014.01,6503.7
1015.08,6479.5
1016.15,6428.65
1017.22,6105.65
1018.29,6099.55
1019.36,6231.95
1020.42,5966.7
1021.49,5925.9
1022.56,5813.2
1023.63,5751.8
1024.7,5752.1
1025.76,5515.5
1026.83,5524.25
1027.9,5470.9
1028.97,5457.1
1030.03,5374.0
1031.1,5236.6
1032.17,5212.35
1033.23,5168.65
1034.3,5132.25
1035.36,5049.0
1036.43,5028.7
1037.5,4976.1
1038.56,4853.55
1039.63,4881.45
1040.69,4845.65
1041.76,4791.35
1042.82,4727.05
1043.89,4680.65
1044.95,4616.65
1046.01,4609.1
1047.08,4542.75
1048.14,4549.55
1049.2,4496.15
1050.27,4475.65
1051.33,4451.4
1052.39,4475.2
1053.46,4439.1
1054.52,4384.2
1055.58,4431.3
1056.64,4340.2
1057.7,4376.95
1058.77,4314.4
1059.83,4312.0
1060.89,4303.2
1061.95,4293.55
1063.01,4263.45
1064.07,4257.35
1065.13,4230.25
1066.19,4213.9
1067.25,4205.75
1068.05,4179.8