File: spectra/VLFR_07-PET_nobio_Raman_b7ec95bb.csv
nm,Intensity
791.588,13032.1
792.685,11924.4
793.781,11139.5
794.878,10751.4
795.975,10676.4
797.071,10537.4
798.168,10593.3
799.264,10589.4
800.36,10489.3
801.456,10368.2
802.552,10457.3
803.648,10109.3
804.744,9982.2
805.84,9981.1
806.936,9920.3
808.031,9800.4
809.127,9706.5
810.222,9565.3
811.317,9531.8
812.412,9666.0
813.507,9504.3
814.602,9248.0
815.697,9276.7
816.792,9162.3
817.887,9064.4
818.981,9006.7
820.076,9001.8
821.17,8878.3
822.265,8733.0
823.359,8682.3
824.453,8547.0
825.547,8764.5
826.641,8654.9
827.735,8378.8
828.828,8286.9
829.922,8245.2
831.016,8342.1
832.109,8095.3
833.202,8089.4
834.295,7995.2
835.388,7959.1
836.481,8002.1
837.574,8032.1
838.667,8017.2
839.76,7917.0
840.852,8131.1
841.945,8224.8
843.037,7883.9
844.129,7808.9
845.221,7554.5
846.314,7445.6
847.405,7398.5
848.497,7360.9
849.589,7327.5
850.681,7217.9
851.772,7268.8
852.863,7326.5
853.955,7171.3
855.046,7079.6
856.137,7015.6
857.228,6999.4
858.318,7085.7
859.409,7200.7
860.5,7147.0
861.59,6918.7
862.681,6834.6
863.771,6808.5
864.861,6846.6
865.951,6680.1
867.041,6619.7
868.131,6526.7
869.22,6598.6
870.31,6643.7
871.399,6771.1
872.488,6913.8
873.578,6837.1
874.667,6674.2
875.756,6480.5
876.845,6359.9
877.933,6248.9
879.022,6272.5
880.11,6178.6
881.199,6160.7
882.287,6175.2
883.375,6160.4
884.463,6111.2
885.551,6114.7
886.639,6011.9
887.726,5956.7
888.814,5914.7
889.901,5867.0
890.988,5863.3
892.075,5845.5
893.162,5753.8
894.249,5725.4
895.336,5687.3
896.423,5664.3
897.509,5984.1
898.595,6406.5
899.682,6023.6
900.768,5591.0
901.854,5448.6
902.94,5400.7
904.025,5405.8
905.111,5352.5
906.196,5550.4
907.282,5873.6
908.367,5868.4
909.452,5549.7
910.537,5264.4
911.622,5144.3
912.706,5107.2
913.791,5134.6
914.875,5028.6
915.959,5014.2
917.044,4960.7
918.128,4941.1
919.211,4906.6
920.295,4897.7
921.379,4894.9
922.462,4821.8
923.546,4783.5
924.629,4740.6
925.712,4734.4
926.795,4715.9
927.877,4675.1
928.96,4653.0
930.043,4603.2
931.125,4599.5
932.207,4574.0
933.289,4526.2
934.371,4523.4
935.453,4496.2
936.535,4453.6
937.616,4449.3
938.697,4423.3
939.779,4415.4
940.86,4396.2
941.941,4364.5
943.022,4336.5
944.102,4326.8
945.183,4306.4
946.263,4310.9
947.343,4249.5
948.423,4254.4
949.503,4251.6
950.583,4217.2
951.663,4203.6
952.742,4198.8
953.822,4187.4
954.901,4161.9
955.98,4149.8
957.059,4144.1
958.137,4123.2
959.216,4103.5
960.294,4101.4
961.373,4085.6
962.451,4075.1
963.529,4065.1
964.607,4053.2
965.684,4040.9
966.762,4040.4
967.839,4023.2
968.917,4003.3
969.994,4011.4
971.071,4009.4
972.147,3996.3
973.224,3984.0
974.3,3979.8
975.377,3964.8
976.453,3959.4
977.529,3957.3
978.605,3948.4
979.68,3948.9
980.756,3935.6
981.831,3925.3
982.907,3924.7
983.982,3920.7
985.057,3909.6
986.131,3906.0
987.206,3901.0
988.28,3892.0
989.355,3894.9
990.429,3893.6
991.503,3879.4
992.576,3874.6
993.65,3869.5
994.723,3861.9
995.797,3861.5
996.87,3854.9
997.943,3848.7
999.016,3846.7
1000.09,3844.0
1001.16,3848.5
1002.23,3837.0
1003.31,3836.7
1004.38,3826.6
1005.45,3831.0
1006.52,3824.8
1007.59,3822.0
1008.66,3817.7
1009.73,3814.8
1010.81,3811.1
1011.88,3809.5
1012.95,3810.1
1014.02,3812.7
1015.09,3806.9
1016.16,3805.1
1017.23,3802.2
1018.3,3800.9
1019.37,3802.7
1020.44,3799.9
1021.51,3805.8
1022.58,3808.0
1023.64,3805.1
1024.71,3797.0
1025.78,3797.4
1026.85,3791.8
1027.92,3786.1
1028.99,3782.3
1030.05,3779.1
1031.12,3780.8
1032.19,3782.9
1033.26,3780.2
1034.32,3781.9
1035.39,3781.5
1036.46,3781.4
1037.52,3774.1
1038.59,3770.6
1039.66,3771.5
1040.72,3766.4
1041.79,3764.7
1042.86,3766.3
1043.92,3763.9
1044.99,3764.1
1046.05,3763.4
1047.12,3764.1
1048.18,3762.5
1049.25,3760.0
1050.31,3762.1
1051.37,3760.7
1052.44,3760.9
1053.5,3759.3
1054.57,3760.9
1055.63,3757.9
1056.69,3758.8
1057.76,3758.9
1058.82,3758.2
1059.88,3759.4
1060.95,3757.7
1062.01,3759.2
1063.07,3759.0
1064.13,3757.6
1065.19,3758.0
1066.26,3758.6
1067.32,3758.7
1068.11,3757.2