File: spectra/VLFR_08-PLA_bio_Raman_b2b7e8c6.csv
nm,Intensity
528.626,1862.93
529.132,1863.77
529.637,1863.8
530.143,1864.3
530.648,1864.47
531.153,1867.07
531.658,1899.57
532.164,4383.67
532.669,1865.77
533.174,1866.53
533.679,1916.03
534.184,2103.97
534.689,2096.9
535.194,2106.0
535.699,2109.47
536.203,2103.57
536.708,2098.5
537.213,2107.53
537.717,2118.6
538.222,2113.33
538.726,2115.47
539.231,2112.73
539.735,2118.67
540.239,2120.67
540.744,2137.3
541.248,2140.8
541.752,2148.9
542.256,2136.6
542.76,2148.37
543.264,2150.13
543.768,2160.9
544.272,2171.03
544.776,2157.03
545.28,2159.47
545.784,2174.0
546.287,2170.87
546.791,2176.5
547.294,2175.3
547.798,2178.23
548.301,2185.87
548.805,2191.33
549.308,2196.7
549.811,2189.37
550.315,2203.13
550.818,2216.63
551.321,2218.5
551.824,2224.27
552.327,2230.93
552.83,2223.43
553.333,2225.83
553.835,2230.27
554.338,2240.37
554.841,2243.87
555.343,2248.07
555.846,2247.27
556.349,2247.6
556.851,2234.67
557.353,2248.03
557.856,2288.83
558.358,2281.13
558.86,2254.3
559.362,2256.47
559.864,2268.27
560.366,2274.63
560.868,2273.17
561.37,2269.7
561.872,2280.5
562.374,2274.77
562.876,2293.37
563.377,2300.2
563.879,2298.67
564.38,2282.23
564.882,2307.1
565.383,2309.1
565.885,2308.63
566.386,2309.7
566.887,2303.5
567.388,2309.87
567.889,2303.4
568.391,2316.43
568.892,2319.8
569.392,2324.9
569.893,2322.77
570.394,2327.97
570.895,2315.27
571.395,2341.07
571.896,2339.83
572.397,2356.97
572.897,2348.43
573.397,2363.53
573.898,2355.37
574.398,2364.67
574.898,2340.43
575.398,2341.23
575.898,2348.63
576.398,2352.3
576.898,2392.67
577.398,2357.13
577.898,2350.8
578.398,2348.33
578.897,2345.4
579.397,2359.13
579.896,2370.67
580.396,2365.47
580.895,2375.33
581.395,2351.5
581.894,2361.07
582.393,2361.03
582.892,2351.67
583.391,2366.27
583.89,2361.77
584.389,2367.2
584.888,2354.23
585.387,2353.7
585.886,2353.57
586.384,2357.6
586.883,2376.93
587.381,2380.67
587.88,2381.23
588.378,2362.37
588.876,2340.93
589.375,2362.37
589.873,2345.4
590.371,2356.13
590.869,2363.23
591.367,2369.17
591.865,2367.87
592.363,2371.67
592.86,2356.83
593.358,2363.13
593.856,2355.13
594.353,2360.5
594.851,2364.6
595.348,2371.2
595.845,2381.3
596.342,2366.17
596.84,2368.03
597.337,2359.93
597.834,2367.03
598.331,2357.6
598.828,2365.67
599.324,2375.33
599.821,2369.77
600.318,2368.23
600.814,2362.33
601.311,2377.67
601.807,2372.2
602.304,2374.03
602.8,2375.2
603.296,2380.9
603.792,2377.57
604.288,2376.1
604.784,2378.93
605.28,2368.5
605.776,2382.5
606.272,2375.53
606.767,2379.17
607.263,2388.37
607.759,2392.47
608.254,2379.7
608.749,2368.5
609.245,2378.53
609.74,2380.27
610.235,2383.2
610.73,2381.47
611.225,2380.57
611.72,2380.47
612.215,2376.17
612.71,2388.6
613.204,2381.57
613.699,2376.77
614.194,2373.07
614.688,2385.4
615.182,2367.1
615.677,2382.0
616.171,2369.53
616.665,2385.6
617.159,2367.8
617.653,2362.87
618.147,2368.07
618.641,2370.9
619.135,2375.1
619.628,2383.53
620.122,2394.2
620.615,2370.23
621.109,2374.4
621.602,2367.8
622.095,2356.43
622.589,2377.37
623.082,2355.7
623.575,2357.1
624.068,2364.73
624.561,2354.33
625.053,2353.77
625.546,2346.13
626.039,2343.87
626.531,2345.53
627.024,2342.23
627.516,2340.5
628.008,2347.53
628.501,2368.4
628.993,2371.03
629.485,2368.43
629.977,2357.7
630.469,2395.63
630.96,2524.9
631.452,2466.87
631.944,2362.57
632.435,2376.03
632.927,2401.37
633.418,2399.63
633.91,2371.6
634.401,2338.2
634.892,2321.97
635.383,2306.6
635.874,2291.63
636.365,2302.4
636.856,2293.2
637.346,2288.03
637.837,2292.1
638.327,2280.8
638.818,2288.77
639.308,2286.7
639.799,2266.97
640.289,2277.83
640.779,2263.5
641.269,2272.6
641.759,2254.33
642.249,2261.27
642.738,2248.4
643.228,2247.5
643.718,2243.8
644.207,2246.9
644.697,2229.93
645.186,2232.07
645.675,2225.67
646.164,2230.43
646.653,2228.3
647.142,2230.37
647.631,2209.27
648.12,2207.57
648.609,2214.33
649.098,2197.17
649.586,2192.6
650.075,2194.33
650.563,2193.8
651.051,2191.2
651.539,2184.43
652.027,2184.27
652.515,2181.57
653.003,2179.67
653.491,2163.4
653.979,2171.5
654.467,2153.67
654.954,2163.7
655.442,2153.27
655.929,2141.93
656.416,2129.63
656.904,2131.77
657.391,2127.47
657.878,2144.47
658.365,2132.37
658.851,2122.9
659.338,2121.03
659.825,2114.13
660.311,2128.27
660.798,2114.87
661.041,2119.73