File: spectra/VLFR_08-PLA_bio_Raman_fd8f24e6.csv
nm,Intensity
528.626,1864.6
529.132,1864.6
529.637,1865.45
530.143,1864.55
530.648,1865.7
531.153,1867.5
531.658,1887.1
532.164,3651.35
532.669,1868.05
533.174,1868.4
533.679,2060.35
534.184,3024.4
534.689,3043.95
535.194,3026.7
535.699,2960.5
536.203,2881.15
536.708,2859.65
537.213,2831.35
537.717,2869.65
538.222,2890.0
538.726,2880.7
539.231,2910.05
539.735,2921.45
540.239,2922.95
540.744,2965.3
541.248,2993.4
541.752,2993.2
542.256,3009.6
542.76,3034.85
543.264,3057.75
543.768,3087.8
544.272,3118.2
544.776,3114.4
545.28,3145.55
545.784,3152.35
546.287,3202.2
546.791,3206.65
547.294,3221.4
547.798,3260.6
548.301,3301.9
548.805,3307.6
549.308,3293.35
549.811,3283.7
550.315,3295.6
550.818,3344.3
551.321,3365.7
551.824,3403.65
552.327,3384.5
552.83,3382.85
553.333,3421.1
553.835,3445.4
554.338,3437.9
554.841,3443.3
555.343,3428.35
555.846,3431.45
556.349,3483.4
556.851,3429.55
557.353,3530.6
557.856,3579.65
558.358,3550.8
558.86,3505.05
559.362,3502.65
559.864,3524.7
560.366,3532.25
560.868,3531.05
561.37,3508.5
561.872,3511.75
562.374,3557.5
562.876,3573.65
563.377,3548.35
563.879,3547.8
564.38,3532.9
564.882,3546.6
565.383,3562.8
565.885,3581.0
566.386,3550.65
566.887,3501.3
567.388,3539.5
567.889,3512.95
568.391,3542.45
568.892,3534.1
569.392,3563.1
569.893,3562.6
570.394,3537.45
570.895,3525.55
571.395,3600.85
571.896,3594.3
572.397,3597.3
572.897,3588.2
573.397,3544.55
573.898,3542.75
574.398,3514.75
574.898,3501.75
575.398,3521.4
575.898,3587.95
576.398,3697.6
576.898,3688.85
577.398,3562.0
577.898,3481.0
578.398,3452.7
578.897,3454.95
579.397,3456.7
579.896,3457.5
580.396,3463.65
580.895,3477.3
581.395,3462.9
581.894,3467.9
582.393,3472.8
582.892,3463.8
583.391,3528.6
583.89,3493.2
584.389,3481.0
584.888,3481.55
585.387,3445.45
585.886,3418.7
586.384,3399.9
586.883,3395.35
587.381,3464.7
587.88,3462.65
588.378,3407.4
588.876,3408.5
589.375,3374.05
589.873,3365.4
590.371,3370.8
590.869,3381.65
591.367,3375.0
591.865,3398.7
592.363,3408.85
592.86,3411.45
593.358,3390.4
593.856,3412.2
594.353,3389.8
594.851,3442.75
595.348,3412.3
595.845,3432.25
596.342,3442.15
596.84,3477.7
597.337,3454.75
597.834,3473.55
598.331,3483.45
598.828,3462.3
599.324,3500.1
599.821,3522.35
600.318,3531.65
600.814,3550.35
601.311,3570.2
601.807,3564.3
602.304,3540.15
602.8,3575.9
603.296,3603.85
603.792,3614.6
604.288,3616.75
604.784,3650.75
605.28,3639.7
605.776,3649.0
606.272,3664.3
606.767,3661.55
607.263,3684.75
607.759,3683.25
608.254,3709.8
608.749,3716.9
609.245,3690.55
609.74,3644.9
610.235,3664.9
610.73,3690.8
611.225,3704.2
611.72,3671.25
612.215,3651.0
612.71,3652.45
613.204,3655.2
613.699,3646.95
614.194,3648.65
614.688,3639.55
615.182,3641.2
615.677,3591.1
616.171,3612.8
616.665,3614.75
617.159,3562.35
617.653,3585.25
618.147,3547.45
618.641,3585.15
619.135,3527.7
619.628,3549.35
620.122,3560.05
620.615,3504.95
621.109,3471.75
621.602,3494.8
622.095,3502.0
622.589,3468.1
623.082,3449.2
623.575,3465.5
624.068,3456.5
624.561,3423.75
625.053,3431.9
625.546,3355.15
626.039,3405.2
626.531,3432.85
627.024,3689.35
627.516,3783.0
628.008,3770.05
628.501,4139.55
628.993,3832.5
629.485,3765.0
629.977,3743.55
630.469,3840.5
630.96,3899.9
631.452,3725.1
631.944,3512.4
632.435,3454.75
632.927,3409.0
633.418,3349.45
633.91,3314.85
634.401,3223.15
634.892,3189.65
635.383,3175.8
635.874,3163.2
636.365,3122.4
636.856,3107.7
637.346,3112.45
637.837,3110.55
638.327,3102.85
638.818,3061.0
639.308,3061.1
639.799,3035.55
640.289,3068.15
640.779,3009.3
641.269,2993.95
641.759,3017.9
642.249,2999.45
642.738,2991.15
643.228,2980.25
643.718,2996.1
644.207,2989.05
644.697,2983.25
645.186,2959.5
645.675,2970.85
646.164,2935.5
646.653,2942.5
647.142,2920.85
647.631,2888.75
648.12,2891.65
648.609,2875.2
649.098,2843.75
649.586,2832.3
650.075,2842.15
650.563,2855.95
651.051,2838.55
651.539,2829.3
652.027,2811.3
652.515,2781.0
653.003,2782.65
653.491,2783.6
653.979,2766.55
654.467,2768.05
654.954,2734.8
655.442,2736.0
655.929,2719.2
656.416,2708.25
656.904,2705.3
657.391,2688.7
657.878,2681.05
658.365,2674.3
658.851,2691.2
659.338,2634.1
659.825,2617.75
660.311,2642.35
660.798,2639.5
661.041,2628.25