File: spectra/VLFR_07-PET_nobio_Raman_6456be52.csv
nm,Intensity
791.75,12301.4
792.846,11518.5
793.942,10956.5
795.037,10678.0
796.133,10633.6
797.228,10583.3
798.324,10475.8
799.419,10413.5
800.514,10348.7
801.61,10358.1
802.705,10255.3
803.8,10089.3
804.894,10061.1
805.989,9769.9
807.084,9810.4
808.178,9651.85
809.273,9627.25
810.367,9550.2
811.461,9422.45
812.556,9335.8
813.65,9159.95
814.744,9120.3
815.837,9131.7
816.931,8912.85
818.025,8881.55
819.118,8697.2
820.212,8591.35
821.305,8615.5
822.398,8518.5
823.491,8401.35
824.585,8318.15
825.677,8548.55
826.77,8284.35
827.863,8086.75
828.956,8116.5
830.048,8129.55
831.14,8055.4
832.233,7930.15
833.325,7852.15
834.417,7762.35
835.509,7709.9
836.601,7810.0
837.692,7804.7
838.784,7652.1
839.876,7832.15
840.967,8043.45
842.058,7758.45
843.149,7576.65
844.24,7398.15
845.331,7243.4
846.422,7113.9
847.513,7211.25
848.604,7148.05
849.694,7026.0
850.784,7053.0
851.875,7061.65
852.965,6977.05
854.055,6939.35
855.145,6808.1
856.235,6741.45
857.324,6766.05
858.414,6888.0
859.503,6911.2
860.593,6852.6
861.682,6686.35
862.771,6631.55
863.86,6641.35
864.949,6578.2
866.038,6471.25
867.126,6368.5
868.215,6400.4
869.303,6436.65
870.391,6519.4
871.479,6564.15
872.567,6773.75
873.655,6636.15
874.743,6339.05
875.831,6225.0
876.918,6245.95
878.006,6129.35
879.093,6090.85
880.18,6085.6
881.267,6091.45
882.354,6068.75
883.441,6009.6
884.527,6049.2
885.614,5963.75
886.7,5936.35
887.786,5829.2
888.872,5845.85
889.958,5739.8
891.044,5851.1
892.13,5764.5
893.216,5656.8
894.301,5647.4
895.386,5623.45
896.472,5652.45
897.557,6314.6
898.642,6243.6
899.726,5649.15
900.811,5477.85
901.896,5427.25
902.98,5429.55
904.064,5342.95
905.148,5415.3
906.232,5699.4
907.316,5907.35
908.4,5702.35
909.484,5341.0
910.567,5162.8
911.65,5116.45
912.734,5077.3
913.817,5032.25
914.9,5004.8
915.982,4976.45
917.065,4942.3
918.147,4926.25
919.23,4873.8
920.312,4873.7
921.394,4814.25
922.476,4769.5
923.558,4753.7
924.639,4726.65
925.721,4710.55
926.802,4647.35
927.884,4624.3
928.965,4609.45
930.046,4590.2
931.126,4556.85
932.207,4522.25
933.288,4480.0
934.368,4510.35
935.448,4446.7
936.528,4431.25
937.608,4406.75
938.688,4385.65
939.767,4349.15
940.847,4361.4
941.926,4303.9
943.005,4304.75
944.084,4297.5
945.163,4260.1
946.242,4251.1
947.321,4222.0
948.399,4211.1
949.477,4184.65
950.556,4169.0
951.634,4152.8
952.711,4142.4
953.789,4130.1
954.867,4117.65
955.944,4097.6
957.021,4087.55
958.098,4077.0
959.175,4059.85
960.252,4042.6
961.328,4027.55
962.405,4031.85
963.481,4018.55
964.557,4005.9
965.633,3988.65
966.709,3990.5
967.785,3973.4
968.86,3956.05
969.936,3943.75
971.011,3953.0
972.086,3946.0
973.161,3923.85
974.235,3928.8
975.31,3923.95
976.384,3915.05
977.459,3896.5
978.533,3896.5
979.607,3888.9
980.68,3882.45
981.754,3871.9
982.827,3877.3
983.901,3868.75
984.974,3850.6
986.047,3854.55
987.119,3851.3
988.192,3851.6
989.264,3835.75
990.337,3829.8
991.409,3827.95
992.481,3821.4
993.553,3814.05
994.624,3816.15
995.696,3810.5
996.767,3803.3
997.838,3801.2
998.909,3796.0
999.98,3793.9
1001.05,3788.3
1002.12,3784.65
1003.19,3783.1
1004.26,3773.8
1005.33,3774.15
1006.4,3772.9
1007.47,3765.1
1008.54,3767.85
1009.61,3764.85
1010.68,3760.55
1011.75,3757.8
1012.82,3754.45
1013.88,3755.1
1014.95,3754.4
1016.02,3750.3
1017.09,3746.95
1018.16,3747.3
1019.22,3746.45
1020.29,3749.2
1021.36,3754.3
1022.43,3753.65
1023.49,3749.6
1024.56,3742.7
1025.63,3738.9
1026.69,3730.8
1027.76,3729.6
1028.83,3725.35
1029.89,3724.85
1030.96,3721.6
1032.02,3723.3
1033.09,3725.15
1034.15,3728.7
1035.22,3729.15
1036.28,3722.05
1037.35,3719.15
1038.41,3714.15
1039.48,3713.05
1040.54,3712.2
1041.6,3710.75
1042.67,3710.6
1043.73,3711.0
1044.79,3706.45
1045.86,3706.1
1046.92,3708.15
1047.98,3704.75
1049.05,3706.55
1050.11,3705.8
1051.17,3705.45
1052.23,3704.55
1053.29,3703.45
1054.36,3702.4
1055.42,3705.55
1056.48,3703.55
1057.54,3704.0
1058.6,3702.35
1059.66,3701.35
1060.72,3701.75
1061.78,3702.8
1062.84,3701.3
1063.9,3701.9
1064.96,3701.9
1066.02,3700.0
1067.08,3700.6
1067.88,3699.2