File: spectra/VLFR_07-PET_nobio_Raman_7018ebe8.csv
nm,Intensity
791.75,13579.2
792.846,12585.8
793.942,11870.7
795.037,11866.5
796.133,11628.8
797.228,11558.5
798.324,11479.8
799.419,11541.3
800.514,11280.5
801.61,11337.6
802.705,11220.1
803.8,10919.0
804.894,10979.8
805.989,10640.2
807.084,10665.8
808.178,10655.2
809.273,10557.6
810.367,10431.5
811.461,10363.2
812.556,10226.0
813.65,10214.6
814.744,10101.2
815.837,10097.3
816.931,9818.35
818.025,9866.85
819.118,9745.05
820.212,9664.0
821.305,9542.1
822.398,9555.75
823.491,9380.4
824.585,9316.1
825.677,9616.5
826.77,9187.85
827.863,8911.25
828.956,8901.75
830.048,8965.5
831.14,8850.9
832.233,8653.4
833.325,8596.05
834.417,8390.9
835.509,8385.55
836.601,8534.7
837.692,8402.25
838.784,8297.8
839.876,8350.4
840.967,8709.65
842.058,8231.2
843.149,8111.9
844.24,7927.35
845.331,7736.25
846.422,7647.7
847.513,7647.8
848.604,7578.75
849.694,7462.25
850.784,7512.6
851.875,7532.15
852.965,7383.5
854.055,7403.1
855.145,7237.2
856.235,7156.45
857.324,7191.85
858.414,7322.75
859.503,7382.25
860.593,7283.25
861.682,7091.65
862.771,7108.45
863.86,7071.2
864.949,7018.75
866.038,6815.7
867.126,6843.2
868.215,6767.25
869.303,6849.85
870.391,6930.95
871.479,6996.45
872.567,7192.7
873.655,7152.25
874.743,6712.45
875.831,6567.0
876.918,6565.35
878.006,6430.8
879.093,6477.1
880.18,6367.8
881.267,6402.2
882.354,6379.4
883.441,6304.35
884.527,6332.7
885.614,6226.0
886.7,6139.2
887.786,6098.35
888.872,6091.55
889.958,5974.4
891.044,6059.6
892.13,5985.95
893.216,5809.75
894.301,5831.95
895.386,5843.8
896.472,5864.2
897.557,6470.5
898.642,6364.9
899.726,5847.9
900.811,5611.65
901.896,5564.85
902.98,5499.6
904.064,5495.4
905.148,5522.65
906.232,5797.05
907.316,6022.55
908.4,5781.9
909.484,5457.95
910.567,5253.6
911.65,5200.95
912.734,5175.95
913.817,5145.85
914.9,5099.85
915.982,5078.4
917.065,5008.45
918.147,4959.6
919.23,4951.1
920.312,4920.4
921.394,4869.65
922.476,4816.35
923.558,4826.4
924.639,4800.35
925.721,4763.2
926.802,4709.5
927.884,4692.55
928.965,4653.95
930.046,4631.4
931.126,4593.25
932.207,4580.2
933.288,4533.15
934.368,4532.95
935.448,4504.4
936.528,4479.95
937.608,4459.15
938.688,4432.95
939.767,4398.6
940.847,4405.5
941.926,4349.35
943.005,4322.05
944.084,4340.95
945.163,4288.7
946.242,4283.15
947.321,4265.7
948.399,4247.25
949.477,4212.8
950.556,4211.1
951.634,4187.8
952.711,4177.6
953.789,4164.95
954.867,4153.0
955.944,4127.55
957.021,4121.35
958.098,4103.4
959.175,4100.0
960.252,4079.85
961.328,4055.4
962.405,4063.55
963.481,4052.65
964.557,4025.2
965.633,4010.1
966.709,4011.85
967.785,3998.65
968.86,3988.55
969.936,3976.6
971.011,3965.05
972.086,3962.35
973.161,3943.8
974.235,3942.2
975.31,3931.8
976.384,3929.0
977.459,3911.2
978.533,3911.3
979.607,3904.0
980.68,3888.05
981.754,3880.95
982.827,3882.4
983.901,3872.55
984.974,3860.75
986.047,3859.75
987.119,3859.15
988.192,3853.85
989.264,3840.8
990.337,3832.1
991.409,3828.95
992.481,3825.15
993.553,3819.8
994.624,3812.35
995.696,3813.35
996.767,3809.25
997.838,3805.05
998.909,3800.25
999.98,3795.25
1001.05,3793.5
1002.12,3788.85
1003.19,3786.55
1004.26,3773.9
1005.33,3774.4
1006.4,3770.05
1007.47,3769.35
1008.54,3764.9
1009.61,3762.6
1010.68,3758.85
1011.75,3757.3
1012.82,3753.75
1013.88,3754.4
1014.95,3752.7
1016.02,3751.2
1017.09,3746.75
1018.16,3745.85
1019.22,3746.85
1020.29,3744.8
1021.36,3753.3
1022.43,3757.0
1023.49,3747.85
1024.56,3742.65
1025.63,3733.75
1026.69,3730.2
1027.76,3727.9
1028.83,3728.1
1029.89,3723.35
1030.96,3722.1
1032.02,3722.35
1033.09,3724.7
1034.15,3727.45
1035.22,3725.5
1036.28,3721.25
1037.35,3718.6
1038.41,3713.25
1039.48,3711.7
1040.54,3711.3
1041.6,3709.5
1042.67,3708.5
1043.73,3709.1
1044.79,3707.0
1045.86,3707.85
1046.92,3707.1
1047.98,3705.45
1049.05,3705.15
1050.11,3706.15
1051.17,3703.55
1052.23,3706.05
1053.29,3703.35
1054.36,3703.65
1055.42,3704.65
1056.48,3702.75
1057.54,3703.2
1058.6,3702.55
1059.66,3701.9
1060.72,3701.4
1061.78,3701.05
1062.84,3701.5
1063.9,3699.1
1064.96,3699.85
1066.02,3699.85
1067.08,3699.65
1067.88,3698.8