File: spectra/VLFR_01-LDPE_nobio_Raman_61ad2f16.csv
nm,Intensity
526.486,829.1
527.033,828.5
527.579,828.9
528.126,828.6
528.672,828.7
529.219,829.9
529.765,828.2
530.311,828.5
530.857,829.3
531.403,828.4
531.948,830.4
532.494,829.1
533.039,829.9
533.585,828.1
534.13,847.1
534.675,845.4
535.22,839.8
535.764,842.2
536.309,840.8
536.854,840.3
537.398,838.6
537.942,840.3
538.486,839.0
539.03,838.7
539.574,837.5
540.118,836.3
540.662,838.6
541.205,837.2
541.749,837.9
542.292,835.5
542.835,837.7
543.378,835.0
543.921,835.7
544.464,836.5
545.006,835.7
545.549,837.5
546.091,836.8
546.634,835.0
547.176,836.5
547.718,837.2
548.26,836.2
548.802,836.0
549.343,837.3
549.885,836.1
550.426,835.8
550.968,835.5
551.509,834.7
552.05,837.1
552.591,836.4
553.132,836.3
553.673,836.7
554.214,837.8
554.754,835.9
555.295,836.7
555.835,837.5
556.375,836.5
556.915,836.4
557.455,839.0
557.995,839.2
558.535,839.4
559.075,837.7
559.614,837.8
560.154,838.4
560.693,838.0
561.232,838.6
561.772,837.1
562.311,838.2
562.85,841.1
563.388,840.3
563.927,848.6
564.466,844.4
565.004,844.5
565.543,843.6
566.081,854.1
566.619,842.2
567.157,842.1
567.695,840.9
568.233,840.2
568.771,843.3
569.309,842.9
569.846,842.7
570.384,842.4
570.921,843.4
571.458,858.0
571.995,850.8
572.532,847.4
573.069,845.2
573.606,845.7
574.143,847.3
574.68,847.6
575.216,847.8
575.753,857.4
576.289,869.1
576.825,861.6
577.361,857.0
577.897,855.7
578.433,851.7
578.969,853.4
579.505,855.6
580.041,856.7
580.576,857.8
581.112,859.0
581.647,859.9
582.183,863.7
582.718,867.6
583.253,871.4
583.788,870.7
584.323,875.4
584.858,874.1
585.392,881.3
585.927,887.7
586.462,891.2
586.996,897.8
587.53,901.8
588.065,904.9
588.599,907.8
589.133,915.3
589.667,919.4
590.201,926.9
590.735,927.3
591.268,930.8
591.802,935.5
592.335,939.9
592.869,940.5
593.402,944.0
593.936,944.6
594.469,945.8
595.002,956.3
595.535,960.3
596.068,966.2
596.601,969.4
597.133,977.9
597.666,978.4
598.199,986.1
598.731,992.9
599.264,994.3
599.796,998.8
600.328,1000.7
600.86,997.3
601.393,1002.0
601.925,1001.5
602.457,999.0
602.988,992.3
603.52,989.4
604.052,980.4
604.583,977.9
605.115,966.5
605.646,955.4
606.178,952.2
606.709,948.8
607.24,944.6
607.771,937.4
608.302,934.0
608.833,928.1
609.364,929.5
609.895,920.6
610.426,918.8
610.957,915.2
611.487,914.1
612.018,908.7
612.548,911.9
613.078,908.6
613.609,906.5
614.139,903.9
614.669,906.0
615.199,901.0
615.729,901.3
616.259,902.1
616.789,893.8
617.319,892.2
617.849,896.2
618.378,895.1
618.908,891.5
619.437,889.6
619.967,888.9
620.496,887.6
621.025,888.4
621.555,886.3
622.084,889.1
622.613,887.9
623.142,882.7
623.671,882.4
624.2,883.0
624.729,880.7
625.258,878.5
625.786,876.7
626.315,881.1
626.844,909.0
627.372,978.3
627.901,938.2
628.429,954.0
628.957,950.6
629.486,937.2
630.014,920.6
630.542,912.7
631.07,896.3
631.598,880.8
632.126,878.8
632.654,875.6
633.182,874.9
633.71,875.0
634.237,874.2
634.765,874.9
635.293,873.0
635.82,875.8
636.348,873.6
636.875,875.5
637.403,876.1
637.93,876.9
638.458,877.2
638.985,877.9
639.512,878.9
640.039,878.5
640.566,879.4
641.093,882.3
641.62,882.2
642.147,882.4
642.674,885.0
643.201,882.9
643.728,887.0
644.255,882.6
644.781,883.2
645.308,882.4
645.835,884.5
646.361,884.1
646.888,885.6
647.414,886.8
647.941,889.5
648.467,888.1
648.993,889.5
649.52,888.0
650.046,889.3
650.572,891.8
651.098,889.7
651.625,891.6
652.151,888.8
652.677,891.5
653.203,892.6
653.729,891.7
654.255,890.5
654.78,890.2
655.306,889.6
655.832,892.1
656.358,885.5
656.884,887.4
657.409,884.4
657.935,883.0
658.461,883.4
658.986,880.7
659.512,879.3
660.037,877.2
660.563,872.3
661.088,874.3
661.614,872.9
662.139,867.4
662.664,868.3
663.058,867.6