File: spectra/VLFR_06-PET_nobio_Raman_8f509d1b.csv
nm,Intensity
526.5,826.6
527.047,825.4
527.594,827.2
528.14,827.2
528.687,825.9
529.233,827.2
529.779,826.3
530.325,826.9
530.871,826.6
531.417,827.3
531.962,829.9
532.508,827.8
533.053,827.4
533.599,832.9
534.144,1483.0
534.689,1305.8
535.234,1125.3
535.778,1017.5
536.323,950.2
536.867,926.0
537.412,916.8
537.956,912.2
538.5,915.2
539.044,917.1
539.588,925.5
540.132,925.8
540.675,908.3
541.219,897.2
541.762,899.1
542.305,897.3
542.848,899.7
543.391,896.6
543.934,905.4
544.477,897.8
545.02,904.4
545.562,905.4
546.105,903.2
546.647,907.3
547.189,909.0
547.731,906.1
548.273,911.4
548.815,909.8
549.356,915.2
549.898,914.4
550.439,922.4
550.981,927.9
551.522,916.8
552.063,920.9
552.604,926.7
553.145,936.5
553.686,931.3
554.226,928.4
554.767,932.1
555.307,937.4
555.848,961.0
556.388,970.1
556.928,976.5
557.468,1059.1
558.008,992.4
558.547,988.7
559.087,960.8
559.626,949.2
560.166,950.6
560.705,953.7
561.244,956.2
561.783,962.7
562.322,967.0
562.861,976.9
563.4,978.4
563.939,969.4
564.477,977.6
565.015,1002.3
565.554,1045.3
566.092,1040.5
566.63,993.1
567.168,981.7
567.706,1030.2
568.244,990.8
568.781,992.5
569.319,996.5
569.857,1013.3
570.394,1036.6
570.931,1114.9
571.468,1185.7
572.005,1097.9
572.542,1030.3
573.079,1015.3
573.616,1018.8
574.153,1041.9
574.689,1025.3
575.226,1042.7
575.762,1037.0
576.298,1046.9
576.834,1056.4
577.371,1042.1
577.907,1034.0
578.442,1043.2
578.978,1037.5
579.514,1043.2
580.049,1044.0
580.585,1055.1
581.12,1062.8
581.656,1107.5
582.191,1786.5
582.726,1094.5
583.261,1072.3
583.796,1060.1
584.331,1075.9
584.865,1076.1
585.4,1140.1
585.935,1446.5
586.469,1304.1
587.004,1113.9
587.538,1086.9
588.072,1084.6
588.606,1084.1
589.14,1082.7
589.674,1087.6
590.208,1086.8
590.742,1087.8
591.275,1091.4
591.809,1087.4
592.342,1093.2
592.876,1090.8
593.409,1091.5
593.942,1094.5
594.476,1097.1
595.009,1101.1
595.542,1099.5
596.075,1098.5
596.607,1100.7
597.14,1106.2
597.673,1103.6
598.205,1109.1
598.738,1110.1
599.27,1111.7
599.803,1112.0
600.335,1105.4
600.867,1109.2
601.399,1112.2
601.931,1108.8
602.463,1113.3
602.995,1111.5
603.527,1116.4
604.058,1118.2
604.59,1116.2
605.122,1114.8
605.653,1111.4
606.184,1108.8
606.716,1114.3
607.247,1111.5
607.778,1114.7
608.309,1119.0
608.84,1112.4
609.371,1116.9
609.902,1117.1
610.433,1124.3
610.964,1111.6
611.494,1121.6
612.025,1129.8
612.556,1126.3
613.086,1135.3
613.616,1140.7
614.147,1136.1
614.677,1142.6
615.207,1136.3
615.737,1139.9
616.267,1144.0
616.797,1144.2
617.327,1148.1
617.857,1152.0
618.387,1161.3
618.917,1157.7
619.446,1160.0
619.976,1151.6
620.505,1158.2
621.035,1147.2
621.564,1155.9
622.093,1153.3
622.623,1164.1
623.152,1167.6
623.681,1167.4
624.21,1173.7
624.739,1177.2
625.268,1185.6
625.797,1180.9
626.326,1188.1
626.855,1192.6
627.383,1184.8
627.912,1192.0
628.441,1209.7
628.969,1221.1
629.498,1222.9
630.026,1224.0
630.554,1224.2
631.083,1259.7
631.611,1347.9
632.139,1324.0
632.667,1287.0
633.195,1278.5
633.724,1271.0
634.252,1251.3
634.779,1245.6
635.307,1263.8
635.835,1290.9
636.363,1373.8
636.891,1373.2
637.418,1286.3
637.946,1276.2
638.474,1274.6
639.001,1273.4
639.529,1278.6
640.056,1280.3
640.583,1282.0
641.111,1281.1
641.638,1292.9
642.165,1295.0
642.692,1288.6
643.22,1292.3
643.747,1284.6
644.274,1292.8
644.801,1287.2
645.328,1289.4
645.854,1301.8
646.381,1287.6
646.908,1288.8
647.435,1299.4
647.962,1314.8
648.488,1300.7
649.015,1303.1
649.542,1305.5
650.068,1304.4
650.595,1302.9
651.121,1300.9
651.648,1305.6
652.174,1310.5
652.7,1316.9
653.227,1313.0
653.753,1311.9
654.279,1310.3
654.805,1313.0
655.331,1313.2
655.858,1313.4
656.384,1312.1
656.91,1311.0
657.436,1314.9
657.962,1305.5
658.488,1318.5
659.013,1311.9
659.539,1310.6
660.065,1308.1
660.591,1302.7
661.117,1297.5
661.642,1304.7
662.168,1304.9
662.694,1297.7
663.088,1292.3