File: spectra/VLFR_07-PET_bio_Raman_ca415bf0.csv
nm,Intensity
791.588,8999.7
792.685,8455.7
793.781,8201.9
794.878,8056.1
795.975,8027.5
797.071,8073.6
798.168,8111.0
799.264,8141.9
800.36,7977.2
801.456,7949.6
802.552,7992.5
803.648,7925.5
804.744,7815.4
805.84,7796.7
806.936,7690.9
808.031,7671.3
809.127,7639.8
810.222,7625.5
811.317,7571.7
812.412,7488.4
813.507,7391.2
814.602,7355.9
815.697,7253.1
816.792,7278.2
817.887,7213.7
818.981,7148.7
820.076,7081.6
821.17,7128.8
822.265,6958.6
823.359,6934.8
824.453,6920.6
825.547,6927.4
826.641,6880.5
827.735,6822.8
828.828,6765.0
829.922,6732.6
831.016,6731.0
832.109,6616.3
833.202,6617.2
834.295,6579.9
835.388,6497.5
836.481,6498.0
837.574,6515.8
838.667,6430.1
839.76,6435.9
840.852,6525.3
841.945,6540.0
843.037,6331.5
844.129,6293.4
845.221,6180.7
846.314,6113.2
847.405,6116.8
848.497,6080.0
849.589,6052.3
850.68,6010.8
851.772,5987.3
852.863,5989.1
853.955,5924.3
855.046,5895.7
856.137,5855.6
857.228,5894.2
858.318,5862.6
859.409,5914.1
860.5,5936.8
861.59,5794.4
862.681,5775.8
863.771,5772.7
864.861,5708.6
865.951,5715.7
867.041,5619.5
868.131,5621.6
869.22,5619.0
870.31,5603.7
871.399,5743.8
872.488,5751.4
873.578,5787.7
874.667,5656.3
875.756,5546.8
876.845,5477.9
877.933,5466.0
879.022,5456.3
880.11,5426.9
881.199,5403.9
882.287,5397.8
883.375,5374.6
884.463,5338.2
885.551,5356.6
886.639,5288.4
887.726,5263.1
888.814,5236.0
889.901,5196.0
890.988,5210.9
892.075,5164.8
893.162,5123.9
894.249,5077.0
895.336,5057.8
896.423,5031.6
897.509,5196.4
898.595,5365.1
899.682,5190.7
900.768,4982.4
901.854,4919.5
902.94,4865.2
904.025,4875.0
905.111,4887.7
906.196,4954.5
907.282,5037.5
908.367,5085.9
909.452,4861.5
910.537,4712.0
911.622,4715.1
912.706,4672.7
913.791,4628.3
914.875,4604.5
915.959,4589.8
917.044,4549.7
918.128,4567.3
919.211,4533.7
920.295,4532.2
921.379,4511.1
922.462,4448.5
923.546,4449.2
924.629,4422.5
925.712,4408.6
926.795,4388.3
927.877,4350.9
928.96,4340.5
930.043,4313.2
931.125,4296.8
932.207,4283.3
933.289,4253.3
934.371,4244.1
935.453,4233.9
936.535,4209.2
937.616,4190.1
938.697,4179.1
939.779,4167.7
940.86,4162.9
941.941,4133.2
943.022,4126.4
944.102,4111.7
945.183,4107.9
946.263,4094.0
947.343,4086.6
948.423,4085.1
949.503,4070.4
950.583,4050.1
951.663,4044.1
952.742,4034.8
953.822,4025.4
954.901,4010.6
955.98,3999.1
957.059,3995.5
958.137,3987.6
959.216,3975.4
960.294,3974.9
961.373,3962.2
962.451,3958.8
963.529,3958.5
964.607,3944.9
965.684,3946.2
966.762,3934.9
967.839,3927.5
968.917,3924.5
969.994,3914.7
971.071,3910.7
972.147,3903.6
973.224,3909.6
974.3,3889.5
975.377,3889.4
976.453,3885.6
977.529,3877.0
978.605,3880.0
979.68,3865.9
980.756,3873.0
981.831,3862.3
982.907,3858.1
983.982,3856.2
985.057,3851.7
986.131,3846.4
987.206,3844.3
988.28,3843.8
989.355,3842.0
990.429,3832.0
991.503,3831.9
992.576,3822.5
993.65,3821.7
994.723,3818.2
995.797,3817.4
996.87,3811.6
997.943,3811.3
999.016,3807.4
1000.09,3808.8
1001.16,3800.7
1002.23,3801.5
1003.31,3797.2
1004.38,3790.4
1005.45,3797.0
1006.52,3790.3
1007.59,3786.7
1008.66,3784.1
1009.73,3781.4
1010.81,3781.4
1011.88,3779.5
1012.95,3775.8
1014.02,3778.7
1015.09,3780.9
1016.16,3769.9
1017.23,3773.8
1018.3,3770.1
1019.37,3771.6
1020.44,3770.0
1021.51,3771.3
1022.58,3772.8
1023.64,3767.6
1024.71,3767.1
1025.78,3764.5
1026.85,3761.4
1027.92,3758.4
1028.99,3755.5
1030.05,3757.7
1031.12,3755.0
1032.19,3754.9
1033.26,3754.1
1034.32,3756.1
1035.39,3756.0
1036.46,3755.0
1037.52,3753.2
1038.59,3747.3
1039.66,3749.4
1040.72,3748.3
1041.79,3749.1
1042.86,3746.2
1043.92,3748.1
1044.99,3746.5
1046.05,3744.1
1047.12,3742.9
1048.18,3744.8
1049.25,3744.4
1050.31,3744.5
1051.37,3744.1
1052.44,3742.3
1053.5,3742.3
1054.57,3742.9
1055.63,3742.7
1056.69,3743.0
1057.76,3740.3
1058.82,3741.1
1059.88,3743.7
1060.95,3741.0
1062.01,3743.0
1063.07,3742.7
1064.13,3739.6
1065.19,3742.5
1066.26,3739.6
1067.32,3741.6
1068.11,3739.5