File: spectra/VLFR_08-PLA_nobio_Raman_53e58490.csv
cm-1,Intensity
-123.878,1853.15
-105.821,1852.2
-87.8007,1852.65
-69.8161,1853.6
-51.8675,1853.3
-33.9547,1854.05
-16.0776,1887.4
1.76388,3428.65
19.5698,1854.05
37.3403,1854.25
55.0755,2024.15
72.7754,2494.2
90.4402,2483.65
108.07,2482.55
125.665,2459.5
143.225,2451.75
160.75,2479.75
178.241,2460.55
195.697,2486.3
213.119,2459.4
230.506,2466.25
247.859,2482.5
265.178,2485.85
282.463,2503.85
299.713,2528.2
316.93,2539.4
334.113,2533.9
351.263,2541.4
368.379,2562.3
385.461,2592.35
402.51,2634.9
419.526,2603.0
436.508,2613.75
453.458,2621.55
470.374,2634.5
487.257,2648.85
504.107,2656.45
520.925,2658.15
537.71,2687.0
554.462,2722.35
571.182,2748.65
587.87,2732.45
604.525,2754.65
621.148,2756.6
637.739,2799.0
654.297,2801.5
670.824,2812.35
687.319,2822.05
703.782,2819.4
720.213,2810.5
736.613,2859.7
752.981,2847.2
769.317,2878.05
785.623,2854.25
801.897,2858.5
818.139,2877.3
834.351,2885.45
850.532,2919.35
866.681,3098.65
882.8,3037.15
898.888,2959.95
914.945,2981.2
930.972,2952.55
946.968,2971.1
962.934,2978.75
978.869,2968.2
994.774,3000.4
1010.65,3013.8
1026.49,3059.1
1042.31,3105.7
1058.09,3069.1
1073.85,3056.4
1089.57,3136.5
1105.27,3124.15
1120.93,3192.55
1136.57,3172.05
1152.18,3114.3
1167.75,3117.6
1183.3,3134.85
1198.82,3174.8
1214.31,3182.1
1229.77,3142.35
1245.2,3181.3
1260.6,3194.05
1275.97,3197.7
1291.32,3269.8
1306.63,3302.7
1321.92,3243.0
1337.18,3264.25
1352.41,3285.5
1367.61,3260.85
1382.78,3292.1
1397.93,3262.15
1413.05,3274.85
1428.14,3286.75
1443.2,3388.55
1458.23,3410.2
1473.23,3319.75
1488.21,3278.35
1503.16,3246.55
1518.08,3280.9
1532.97,3283.6
1547.84,3278.35
1562.68,3312.35
1577.49,3288.85
1592.27,3295.85
1607.03,3278.6
1621.76,3294.7
1636.46,3291.5
1651.14,3277.1
1665.78,3345.55
1680.41,3286.35
1695.0,3308.8
1709.57,3257.1
1724.11,3271.4
1738.62,3283.7
1753.11,3381.6
1767.57,3436.6
1782.01,3395.35
1796.41,3286.1
1810.8,3289.85
1825.15,3261.2
1839.48,3286.5
1853.79,3268.05
1868.06,3272.95
1882.31,3287.6
1896.54,3302.0
1910.74,3314.6
1924.91,3271.2
1939.06,3248.9
1953.19,3269.85
1967.28,3273.5
1981.35,3255.3
1995.4,3257.5
2009.42,3297.2
2023.42,3325.3
2037.39,3298.35
2051.33,3284.15
2065.25,3278.25
2079.15,3297.25
2093.01,3276.25
2106.86,3305.05
2120.68,3293.95
2134.47,3327.8
2148.24,3312.15
2161.99,3294.75
2175.71,3294.0
2189.41,3300.1
2203.08,3308.8
2216.73,3300.85
2230.35,3282.45
2243.95,3326.35
2257.52,3313.0
2271.07,3289.2
2284.6,3295.05
2298.1,3282.8
2311.58,3299.3
2325.03,3263.5
2338.46,3329.1
2351.87,3279.05
2365.25,3296.3
2378.61,3280.7
2391.94,3297.05
2405.26,3320.3
2418.54,3332.85
2431.81,3316.35
2445.05,3268.0
2458.27,3324.7
2471.46,3294.4
2484.63,3297.05
2497.78,3288.45
2510.9,3301.5
2524.0,3307.0
2537.08,3268.2
2550.14,3304.0
2563.17,3290.75
2576.18,3275.3
2589.17,3267.5
2602.13,3278.3
2615.07,3287.0
2627.99,3251.75
2640.89,3289.4
2653.76,3289.5
2666.61,3244.05
2679.44,3292.5
2692.25,3296.35
2705.03,3272.75
2717.79,3256.95
2730.53,3266.0
2743.25,3320.55
2755.94,3288.05
2768.61,3252.3
2781.27,3226.5
2793.89,3240.0
2806.5,3238.2
2819.09,3246.1
2831.65,3237.35
2844.19,3277.65
2856.71,3322.3
2869.21,3357.9
2881.69,3506.85
2894.14,3424.1
2906.58,3448.4
2918.99,3483.9
2931.38,3710.6
2943.75,4530.65
2956.1,4114.35
2968.42,3607.3
2980.73,3493.55
2993.01,3619.7
3005.28,3687.1
3017.52,3459.45
3029.74,3253.35
3041.94,3167.4
3054.12,3131.05
3066.28,3085.55
3078.42,3108.95
3090.54,3087.45
3102.63,3046.9
3114.71,3022.55
3126.77,3049.85
3138.8,3013.15
3150.82,3036.65
3162.81,3016.3
3174.78,3022.15
3186.74,2980.15
3198.67,2982.2
3210.58,2991.75
3222.47,2980.2
3234.35,2948.0
3246.2,2929.8
3258.03,2927.45
3269.84,2892.35
3281.64,2930.1
3293.41,2922.1
3305.16,2868.6
3316.89,2855.5
3328.61,2841.5
3340.3,2843.55
3351.97,2856.05
3363.63,2836.7
3375.26,2790.65
3386.88,2814.6
3398.47,2793.0
3410.05,2797.25
3421.6,2767.5
3433.14,2786.95
3444.66,2773.15
3456.15,2776.05
3467.63,2701.95
3479.09,2749.4
3490.53,2668.75
3501.96,2687.8
3513.36,2673.45
3524.74,2670.35
3536.11,2648.4
3547.45,2648.95
3558.78,2621.8
3570.09,2624.75
3581.37,2643.3
3592.64,2598.7
3603.9,2564.55
3615.13,2555.8
3626.34,2537.35
3637.54,2562.0
3648.72,2549.75
3659.87,2538.95
3665.45,2526.05