File: spectra/VLFR_02-HDPE_bio_Raman_c00a4588.csv
nm,Intensity
526.549,831.65
527.096,832.95
527.643,832.45
528.19,831.15
528.737,831.5
529.283,831.25
529.83,832.95
530.376,832.4
530.922,831.25
531.468,832.7
532.014,847.6
532.559,832.55
533.105,832.0
533.65,833.8
534.196,928.7
534.741,922.95
535.286,913.4
535.83,886.1
536.375,877.2
536.92,872.05
537.464,873.2
538.008,870.5
538.553,867.9
539.097,862.7
539.641,859.3
540.184,859.0
540.728,858.4
541.271,858.45
541.815,858.1
542.358,858.6
542.901,858.15
543.444,855.45
543.987,858.0
544.53,858.4
545.072,857.0
545.615,858.0
546.157,856.85
546.699,856.9
547.242,858.85
547.784,856.2
548.325,858.0
548.867,857.0
549.409,857.5
549.95,859.0
550.492,858.35
551.033,858.25
551.574,858.65
552.115,859.75
552.656,856.8
553.197,859.55
553.737,861.95
554.278,861.8
554.818,862.8
555.358,860.1
555.899,863.3
556.439,864.1
556.979,867.4
557.518,869.8
558.058,868.4
558.598,867.95
559.137,868.85
559.677,866.35
560.216,865.4
560.755,867.35
561.294,867.9
561.833,870.95
562.372,869.15
562.91,874.9
563.449,876.85
563.987,994.95
564.526,898.4
565.064,888.3
565.602,883.85
566.14,1008.5
566.678,882.55
567.216,879.2
567.754,881.05
568.291,873.45
568.829,875.95
569.366,876.15
569.904,878.65
570.441,884.45
570.978,889.35
571.515,1094.9
572.052,910.05
572.589,889.0
573.125,884.35
573.662,888.45
574.199,895.0
574.735,885.8
575.271,897.45
575.807,945.8
576.344,1079.7
576.88,990.55
577.415,956.65
577.951,917.4
578.487,909.75
579.023,914.2
579.558,918.9
580.094,918.45
580.629,926.65
581.164,932.35
581.699,936.25
582.234,938.4
582.769,945.8
583.304,955.0
583.839,960.05
584.374,965.85
584.908,971.35
585.443,978.1
585.977,990.15
586.511,997.05
587.046,1004.6
587.58,1011.9
588.114,1021.55
588.648,1031.05
589.182,1032.45
589.716,1046.35
590.249,1054.5
590.783,1059.05
591.316,1065.5
591.85,1071.05
592.383,1080.25
592.917,1075.85
593.45,1087.85
593.983,1085.3
594.516,1085.4
595.049,1090.0
595.582,1088.0
596.115,1093.4
596.647,1094.15
597.18,1094.6
597.712,1094.75
598.245,1096.95
598.777,1095.25
599.31,1100.35
599.842,1094.75
600.374,1093.2
600.906,1090.9
601.438,1085.75
601.97,1085.85
602.502,1085.0
603.034,1075.85
603.565,1080.35
604.097,1069.4
604.628,1065.45
605.16,1053.3
605.691,1047.55
606.223,1044.4
606.754,1034.5
607.285,1029.9
607.816,1026.05
608.347,1023.2
608.878,1019.1
609.409,1013.5
609.94,1011.8
610.47,1005.1
611.001,1002.05
611.532,998.9
612.062,998.2
612.593,994.4
613.123,992.3
613.653,992.2
614.184,988.5
614.714,989.35
615.244,985.5
615.774,981.55
616.304,979.0
616.834,983.1
617.364,985.5
617.894,984.85
618.423,984.55
618.953,982.9
619.482,985.05
620.012,984.05
620.541,981.65
621.071,988.65
621.6,1008.3
622.13,1040.0
622.659,1035.15
623.188,990.6
623.717,978.35
624.246,975.35
624.775,980.35
625.304,980.2
625.833,994.25
626.362,1044.55
626.89,1500.05
627.419,2053.75
627.948,1593.95
628.476,2088.4
629.005,1582.1
629.533,1441.7
630.061,1292.25
630.59,1254.1
631.118,1091.6
631.646,1012.9
632.175,992.8
632.703,983.7
633.231,982.5
633.759,982.4
634.287,977.45
634.815,976.7
635.342,978.65
635.87,977.35
636.398,977.3
636.926,981.1
637.453,976.55
637.981,979.55
638.509,980.3
639.036,983.05
639.563,983.0
640.091,983.95
640.618,987.65
641.146,990.25
641.673,989.05
642.2,992.0
642.727,992.25
643.254,996.3
643.781,991.4
644.309,992.95
644.836,994.55
645.362,993.2
645.889,994.55
646.416,993.05
646.943,991.25
647.47,994.0
647.997,993.8
648.523,992.55
649.05,990.0
649.577,987.05
650.103,988.65
650.63,984.0
651.156,984.85
651.683,983.4
652.209,980.75
652.735,978.35
653.262,975.65
653.788,978.55
654.314,974.5
654.841,969.0
655.367,970.05
655.893,966.9
656.419,964.9
656.945,963.5
657.471,958.95
657.997,957.65
658.523,955.25
659.049,950.5
659.575,950.15
660.101,951.9
660.627,945.0
661.153,944.5
661.679,937.5
662.205,934.85
662.731,933.0
663.125,932.7