File: spectra/VLFR_08-PLA_bio_Raman_b171f5a6.csv
nm,Intensity
526.508,831.1
527.055,830.0
527.602,830.2
528.149,828.9
528.695,828.8
529.241,830.2
529.787,830.0
530.334,829.6
530.879,830.2
531.425,831.1
531.971,837.2
532.516,831.5
533.062,829.5
533.607,831.8
534.152,1072.4
534.697,1020.1
535.242,980.6
535.786,964.6
536.331,957.5
536.876,956.7
537.42,948.4
537.964,945.4
538.508,934.4
539.052,931.5
539.596,932.0
540.14,922.9
540.683,943.8
541.227,947.2
541.77,938.6
542.313,934.2
542.856,936.7
543.399,962.8
543.942,968.0
544.485,946.6
545.027,937.6
545.57,928.7
546.112,928.0
546.654,934.2
547.196,935.4
547.738,935.8
548.28,937.3
548.822,939.2
549.363,941.0
549.905,940.9
550.446,940.4
550.988,950.5
551.529,945.6
552.07,955.2
552.611,958.1
553.152,951.1
553.692,947.0
554.233,960.6
554.773,953.6
555.314,949.8
555.854,941.2
556.394,947.0
556.934,950.0
557.474,962.9
558.014,1098.0
558.553,993.5
559.093,967.7
559.632,963.7
560.172,958.5
560.711,957.5
561.25,955.3
561.789,953.3
562.328,951.8
562.867,963.4
563.406,1011.4
563.944,980.4
564.483,973.2
565.021,989.8
565.559,990.5
566.098,1020.2
566.636,982.7
567.174,963.2
567.711,969.0
568.249,963.8
568.787,973.1
569.324,976.3
569.862,970.8
570.399,969.2
570.936,972.9
571.474,988.5
572.011,988.8
572.548,985.8
573.084,990.9
573.621,992.2
574.158,983.4
574.694,999.8
575.231,970.3
575.767,977.4
576.303,995.6
576.84,1068.4
577.376,1000.3
577.912,982.6
578.447,975.8
578.983,976.0
579.519,977.1
580.054,977.9
580.59,983.3
581.125,975.6
581.661,982.8
582.196,977.1
582.731,982.4
583.266,985.5
583.801,984.7
584.336,979.8
584.87,984.3
585.405,984.0
585.94,990.3
586.474,996.7
587.008,1040.0
587.543,1063.5
588.077,1013.2
588.611,986.3
589.145,986.5
589.679,978.0
590.213,984.3
590.747,980.6
591.28,980.7
591.814,983.2
592.347,984.7
592.881,983.4
593.414,980.6
593.947,981.5
594.48,980.3
595.014,982.6
595.547,981.0
596.079,981.9
596.612,981.2
597.145,981.4
597.678,977.8
598.21,987.2
598.743,983.2
599.275,982.8
599.807,984.0
600.34,979.7
600.872,981.5
601.404,982.9
601.936,980.0
602.468,976.1
603.0,985.6
603.532,980.2
604.063,978.1
604.595,973.4
605.126,976.5
605.658,973.8
606.189,971.9
606.721,973.3
607.252,976.1
607.783,972.8
608.314,973.5
608.845,968.9
609.376,974.3
609.907,972.9
610.438,973.6
610.968,976.5
611.499,968.9
612.03,968.3
612.56,976.1
613.091,970.7
613.621,976.5
614.151,976.5
614.681,979.9
615.212,973.2
615.742,976.4
616.272,976.5
616.802,975.0
617.332,972.9
617.861,977.9
618.391,971.0
618.921,974.5
619.45,974.2
619.98,972.5
620.509,979.3
621.039,969.9
621.568,968.6
622.097,974.5
622.627,985.9
623.156,988.4
623.685,985.2
624.214,979.0
624.743,973.7
625.272,976.6
625.801,972.0
626.33,973.0
626.858,969.8
627.387,976.6
627.916,986.3
628.444,1064.4
628.973,1043.0
629.501,1039.7
630.029,1053.6
630.558,1111.5
631.086,1553.0
631.614,1263.4
632.142,1114.3
632.67,1094.0
633.198,1204.2
633.726,1155.1
634.254,1043.0
634.782,985.7
635.31,973.9
635.838,963.1
636.365,966.8
636.893,960.4
637.421,963.1
637.948,957.2
638.476,955.4
639.003,953.8
639.531,951.9
640.058,955.9
640.585,955.0
641.113,956.5
641.64,955.3
642.167,955.3
642.694,954.6
643.221,952.1
643.748,952.1
644.275,948.4
644.802,946.3
645.329,944.9
645.856,944.5
646.382,943.1
646.909,945.8
647.436,940.7
647.962,942.4
648.489,939.4
649.016,937.5
649.542,938.2
650.069,939.7
650.595,940.1
651.121,936.7
651.648,938.2
652.174,937.0
652.7,935.2
653.227,941.8
653.753,935.6
654.279,936.3
654.805,933.3
655.331,935.2
655.857,932.0
656.383,937.9
656.909,936.0
657.435,934.9
657.961,933.9
658.487,934.8
659.013,935.8
659.538,929.0
660.064,931.1
660.59,931.3
661.116,931.2
661.641,928.6
662.167,927.2
662.692,929.4
663.087,927.1