File: spectra/VLFR_02-HDPE_bio_Raman_86fe66d0.csv
nm,Intensity
528.635,1838.5
529.14,1837.7
529.645,1839.4
530.151,1838.2
530.656,1838.1
531.161,1840.1
531.666,1876.0
532.171,4243.8
532.676,1839.2
533.181,1838.2
533.686,1960.0
534.191,2254.5
534.696,2247.1
535.201,2214.5
535.705,2072.6
536.21,2027.0
536.715,2003.1
537.219,1996.5
537.724,2006.5
538.228,1994.0
538.733,1978.4
539.237,1964.1
539.741,1960.2
540.246,1943.5
540.75,1941.9
541.254,1940.2
541.758,1941.1
542.262,1942.8
542.766,1937.8
543.27,1938.2
543.774,1935.3
544.278,1929.9
544.781,1924.6
545.285,1928.5
545.789,1938.8
546.292,1937.3
546.796,1930.8
547.299,1936.5
547.803,1934.5
548.306,1935.5
548.809,1929.7
549.313,1941.2
549.816,1935.5
550.319,1925.8
550.822,1940.4
551.325,1940.4
551.828,1941.5
552.331,1939.1
552.834,1946.6
553.337,1966.3
553.839,1956.2
554.342,1961.7
554.845,1960.2
555.347,1968.6
555.85,1977.9
556.352,1982.2
556.854,2002.2
557.357,1996.4
557.859,2013.1
558.361,2021.8
558.863,2020.9
559.365,2020.7
559.867,2009.4
560.369,1996.8
560.871,2000.1
561.373,2007.2
561.875,2006.6
562.377,2026.2
562.878,2042.6
563.38,2078.1
563.881,2856.1
564.383,2246.6
564.884,2166.0
565.386,2121.4
565.887,2514.1
566.388,2544.0
566.889,2082.8
567.391,2203.5
567.892,2041.5
568.393,2034.6
568.893,2034.8
569.394,2046.6
569.895,2036.5
570.396,2073.3
570.897,2132.0
571.397,3282.4
571.898,2349.5
572.398,2118.6
572.899,2054.1
573.399,2046.1
573.899,2142.3
574.399,2030.4
574.9,2044.8
575.4,2594.4
575.9,2517.5
576.4,3181.0
576.899,2787.3
577.399,2380.6
577.899,2092.8
578.399,2044.5
578.898,2029.3
579.398,2032.5
579.897,2023.8
580.397,2023.3
580.896,2020.6
581.396,2018.3
581.895,2011.4
582.394,2008.6
582.893,2013.4
583.392,2006.7
583.891,2016.6
584.39,2010.8
584.889,2014.8
585.387,2014.4
585.886,2013.7
586.385,2028.7
586.883,2016.3
587.382,2024.1
587.88,2027.9
588.379,2026.2
588.877,2034.1
589.375,2031.8
589.873,2042.0
590.371,2040.5
590.869,2051.8
591.367,2041.7
591.865,2047.6
592.363,2039.2
592.86,2045.0
593.358,2045.6
593.856,2040.3
594.353,2040.5
594.851,2039.9
595.348,2044.2
595.845,2049.7
596.342,2045.6
596.84,2052.6
597.337,2049.0
597.834,2053.0
598.331,2064.7
598.827,2066.9
599.324,2070.1
599.821,2080.2
600.318,2073.7
600.814,2071.8
601.311,2083.3
601.807,2102.3
602.303,2103.9
602.8,2073.7
603.296,2078.4
603.792,2068.1
604.288,2078.2
604.784,2069.4
605.28,2060.5
605.776,2052.4
606.272,2049.7
606.767,2045.2
607.263,2033.2
607.758,2034.4
608.254,2041.6
608.749,2039.9
609.244,2034.0
609.74,2032.1
610.235,2037.4
610.73,2053.9
611.225,2053.4
611.72,2036.8
612.215,2029.7
612.709,2021.1
613.204,2029.8
613.699,2037.0
614.193,2038.0
614.688,2022.1
615.182,2036.1
615.676,2046.7
616.171,2060.0
616.665,2083.9
617.159,2117.5
617.653,2136.9
618.147,2121.8
618.641,2108.1
619.134,2147.8
619.628,2175.1
620.122,2152.6
620.615,2178.6
621.109,2237.9
621.602,2420.8
622.095,2666.2
622.588,2506.8
623.082,2238.6
623.575,2160.0
624.068,2156.6
624.56,2177.4
625.053,2194.0
625.546,2247.4
626.039,2426.4
626.531,3587.6
627.024,8913.6
627.516,7842.7
628.008,6414.7
628.501,10055.3
628.993,6107.8
629.485,5181.8
629.977,4349.8
630.469,4007.8
630.961,3042.7
631.452,2376.3
631.944,2233.7
632.436,2180.2
632.927,2143.3
633.418,2129.1
633.91,2103.3
634.401,2085.6
634.892,2064.5
635.383,2043.5
635.874,2042.4
636.365,2037.4
636.856,2035.2
637.347,1995.6
637.837,1983.7
638.328,1995.2
638.818,1977.0
639.309,1981.0
639.799,1971.0
640.289,1975.4
640.78,1966.0
641.27,1964.0
641.76,1970.1
642.249,1959.3
642.739,1960.4
643.229,1959.9
643.719,1959.2
644.208,1966.5
644.698,1956.4
645.187,1961.2
645.676,1957.0
646.165,1951.8
646.655,1955.4
647.144,1955.9
647.633,1960.7
648.121,1951.6
648.61,1946.2
649.099,1944.8
649.587,1945.8
650.076,1940.0
650.564,1948.8
651.053,1942.1
651.541,1945.4
652.029,1942.1
652.517,1938.3
653.005,1945.2
653.493,1935.0
653.981,1937.1
654.468,1939.6
654.956,1928.7
655.444,1934.1
655.931,1942.6
656.418,1931.0
656.906,1930.3
657.393,1933.4
657.88,1934.0
658.367,1928.8
658.854,1928.9
659.341,1922.6
659.827,1932.2
660.314,1936.9
660.8,1933.2
661.044,1924.8