File: spectra/VLFR_08-PLA_nobio_Raman_bcd6559c.csv
nm,Intensity
526.5,827.5
527.047,828.7
527.594,828.2
528.14,828.2
528.687,827.4
529.233,829.0
529.779,827.8
530.325,829.4
530.871,827.1
531.417,828.8
531.962,835.5
532.508,829.0
533.053,827.9
533.599,829.3
534.144,1015.7
534.689,973.6
535.234,943.8
535.778,927.1
536.323,915.3
536.867,920.4
537.412,907.4
537.956,904.6
538.5,896.6
539.044,895.3
539.588,891.9
540.132,887.8
540.675,906.0
541.219,902.8
541.762,893.5
542.305,891.4
542.848,890.7
543.391,912.2
543.934,925.9
544.477,900.0
545.02,890.0
545.562,887.8
546.105,886.1
546.647,884.8
547.189,888.1
547.731,885.0
548.273,889.3
548.815,890.1
549.356,890.5
549.898,887.8
550.439,892.3
550.981,895.2
551.522,900.5
552.063,899.3
552.604,902.0
553.145,904.7
553.686,902.0
554.226,903.2
554.767,898.2
555.307,896.4
555.848,891.6
556.388,894.3
556.928,895.4
557.468,909.8
558.008,1015.4
558.547,926.9
559.087,904.8
559.626,901.6
560.166,901.6
560.705,900.7
561.244,897.1
561.783,896.4
562.322,896.7
562.861,905.4
563.4,940.3
563.939,918.8
564.477,910.5
565.015,931.0
565.554,929.0
566.092,950.0
566.63,923.4
567.168,904.0
567.706,907.2
568.244,913.2
568.781,910.7
569.319,912.4
569.857,909.8
570.394,910.6
570.931,913.8
571.468,929.7
572.005,926.5
572.542,923.5
573.079,918.2
573.616,928.6
574.153,919.5
574.689,931.4
575.226,914.1
575.762,913.0
576.298,930.0
576.834,981.2
577.371,932.2
577.907,913.8
578.442,916.3
578.978,914.4
579.514,914.0
580.049,914.1
580.585,914.8
581.12,916.7
581.656,914.0
582.191,915.7
582.726,915.9
583.261,918.5
583.796,918.5
584.331,916.1
584.865,913.9
585.4,919.3
585.935,918.2
586.469,931.0
587.004,964.5
587.538,983.8
588.072,943.3
588.606,921.9
589.14,915.2
589.674,918.4
590.208,913.9
590.742,913.6
591.275,917.7
591.809,917.8
592.342,922.2
592.876,914.7
593.409,912.8
593.942,918.6
594.476,915.5
595.009,919.0
595.542,917.2
596.075,916.3
596.607,919.6
597.14,913.1
597.673,921.1
598.205,918.6
598.738,917.2
599.27,922.2
599.803,917.3
600.335,920.4
600.867,918.8
601.399,918.7
601.931,916.5
602.463,918.4
602.995,917.4
603.527,919.2
604.058,915.9
604.59,917.4
605.122,915.7
605.653,913.5
606.184,915.5
606.716,914.7
607.247,914.7
607.778,913.8
608.309,911.8
608.84,917.5
609.371,911.9
609.902,916.0
610.433,915.2
610.964,913.6
611.494,913.0
612.025,915.3
612.556,916.1
613.086,918.2
613.616,917.5
614.147,918.3
614.677,917.6
615.207,914.0
615.737,913.5
616.267,916.4
616.797,916.2
617.327,915.5
617.857,911.3
618.387,916.7
618.917,917.8
619.446,911.8
619.976,916.4
620.505,916.4
621.035,915.8
621.564,915.5
622.093,914.2
622.623,926.2
623.152,926.7
623.681,925.4
624.21,918.0
624.739,916.8
625.268,916.5
625.797,917.2
626.326,916.9
626.855,914.6
627.383,915.8
627.912,925.3
628.441,984.8
628.969,975.4
629.498,976.5
630.026,979.1
630.554,1033.9
631.083,1399.8
631.611,1166.2
632.139,1039.3
632.667,1011.9
633.195,1099.5
633.724,1065.1
634.252,982.1
634.779,932.0
635.307,918.8
635.835,914.4
636.363,914.0
636.891,911.2
637.418,910.4
637.946,905.6
638.474,908.2
639.001,907.2
639.529,908.5
640.056,909.1
640.583,909.6
641.111,908.2
641.638,907.9
642.165,908.2
642.692,905.1
643.22,906.6
643.747,901.1
644.274,901.6
644.801,901.5
645.328,897.5
645.854,899.2
646.381,897.3
646.908,899.6
647.435,898.5
647.962,894.8
648.488,896.7
649.015,894.3
649.542,896.0
650.068,893.1
650.595,898.0
651.121,895.6
651.648,896.4
652.174,895.0
652.7,897.7
653.227,893.2
653.753,894.7
654.279,895.8
654.805,890.7
655.331,897.0
655.858,893.7
656.384,888.7
656.91,892.7
657.436,890.5
657.962,893.8
658.488,889.9
659.013,892.4
659.539,891.3
660.065,888.9
660.591,890.2
661.117,889.5
661.642,888.0
662.168,887.2
662.694,888.2
663.088,886.6