File: spectra/VLFR_09-PET_bio_Raman_247b3a10.csv
nm,Intensity
528.635,1854.4
529.14,1851.4
529.645,1851.8
530.151,1850.7
530.656,1856.7
531.161,1858.4
531.666,1915.1
532.171,4929.3
532.676,1857.4
533.181,1869.5
533.686,3321.5
534.191,7894.6
534.696,7353.2
535.201,7088.4
535.705,6875.5
536.21,6650.5
536.715,6562.2
537.219,6642.7
537.724,6759.5
538.228,6720.1
538.733,6918.2
539.237,7018.3
539.741,7261.5
540.246,7386.4
540.75,7444.0
541.254,7438.4
541.758,7565.1
542.262,7607.1
542.766,7809.8
543.27,7830.8
543.774,7977.8
544.278,7976.9
544.781,8214.6
545.285,8283.1
545.789,8332.6
546.292,8507.9
546.796,8620.3
547.299,8620.2
547.803,8662.1
548.306,9068.0
548.809,9057.5
549.313,9029.0
549.816,9094.3
550.319,9338.7
550.822,9699.8
551.325,9553.6
551.828,9572.8
552.331,9702.5
552.834,9980.0
553.337,9959.0
553.839,9848.2
554.342,10169.1
554.845,10294.0
555.347,10438.9
555.85,10897.8
556.352,10580.4
556.854,11092.0
557.357,11697.0
557.859,11889.2
558.361,11514.5
558.863,11478.5
559.365,11300.4
559.867,11272.5
560.369,11565.9
560.871,11620.7
561.373,11953.7
561.875,12334.2
562.377,12185.7
562.878,12039.0
563.38,12296.9
563.881,12308.4
564.383,12606.9
564.884,13364.3
565.386,13401.5
565.887,13691.4
566.388,13210.6
566.889,12963.8
567.391,13322.3
567.892,13425.6
568.393,13249.2
568.893,13323.0
569.394,13616.7
569.895,13846.6
570.396,14092.3
570.897,15300.5
571.397,16490.5
571.898,15292.1
572.398,14408.1
572.899,14309.0
573.399,14411.7
573.899,14557.1
574.399,14433.6
574.9,14684.0
575.4,15082.2
575.9,14903.1
576.4,14829.5
576.899,15345.2
577.399,15253.7
577.899,15000.4
578.399,15237.0
578.898,14908.0
579.398,15288.3
579.897,15456.7
580.397,15781.4
580.896,16178.5
581.396,16213.0
581.895,21024.2
582.394,20016.4
582.893,16174.2
583.392,16011.3
583.891,16154.9
584.39,16103.3
584.889,16074.3
585.387,17342.8
585.886,20738.4
586.385,18857.2
586.883,16532.2
587.382,16932.2
587.88,16644.1
588.379,16400.0
588.877,16856.6
589.375,16327.7
589.873,16333.5
590.371,16417.9
590.869,16561.8
591.367,16693.3
591.865,16979.5
592.363,16961.4
592.86,16667.6
593.358,16624.6
593.856,16817.9
594.353,16563.1
594.851,17060.6
595.348,17134.6
595.845,17118.6
596.342,17327.7
596.84,17411.3
597.337,17412.8
597.834,17437.8
598.331,17493.8
598.827,17243.7
599.324,17404.3
599.821,17529.0
600.318,17433.9
600.814,17211.5
601.311,17522.6
601.807,17636.6
602.303,17484.8
602.8,18220.9
603.296,18096.1
603.792,18101.7
604.288,18257.7
604.784,18294.5
605.28,17739.1
605.776,18561.5
606.272,18212.2
606.767,18970.4
607.263,18870.7
607.758,18683.2
608.254,19139.9
608.749,18813.0
609.244,19756.7
609.74,19159.5
610.235,19278.0
610.73,19363.1
611.225,19680.8
611.72,19882.9
612.215,19666.1
612.709,19982.2
613.204,20357.8
613.699,20432.7
614.193,20618.3
614.688,20879.9
615.182,20488.5
615.676,20775.1
616.171,21094.8
616.665,21437.3
617.159,21242.8
617.653,21802.1
618.147,21530.7
618.641,22111.2
619.134,22071.8
619.628,22998.4
620.122,22990.8
620.615,22698.6
621.109,23115.5
621.602,23130.4
622.095,22952.8
622.588,24049.9
623.082,23944.1
623.575,24035.4
624.068,23859.0
624.56,24777.3
625.053,25160.9
625.546,24262.9
626.039,25137.4
626.531,24534.5
627.024,25673.9
627.516,25592.2
628.008,25460.0
628.501,25793.6
628.993,26454.7
629.485,26768.2
629.977,26738.4
630.469,27039.6
630.961,27205.2
631.452,27514.2
631.944,27980.2
632.436,28133.6
632.927,27634.0
633.418,27987.9
633.91,27427.4
634.401,27796.2
634.892,27857.4
635.383,28377.8
635.874,28447.0
636.365,29624.1
636.856,28869.2
637.347,28221.3
637.837,28539.1
638.328,28520.4
638.818,28522.5
639.309,28673.6
639.799,28303.6
640.289,28213.9
640.78,27995.9
641.27,28947.0
641.76,28431.7
642.249,28395.7
642.739,28075.2
643.229,27673.4
643.719,27527.5
644.208,28749.0
644.698,28377.7
645.187,27948.4
645.676,28225.3
646.165,27868.4
646.655,28491.3
647.144,26658.4
647.633,27754.7
648.121,27424.8
648.61,28293.6
649.099,27123.3
649.587,27316.0
650.076,27136.6
650.564,27522.2
651.053,26044.3
651.541,26549.7
652.029,27564.5
652.517,26486.1
653.005,26317.0
653.493,25105.8
653.981,26050.2
654.468,25392.5
654.956,25580.1
655.444,25655.0
655.931,25760.2
656.418,25181.9
656.906,25187.1
657.393,24765.6
657.88,24205.1
658.367,24204.6
658.854,23463.0
659.341,23749.5
659.827,23172.2
660.314,23022.2
660.8,22167.3
661.044,23583.9