File: spectra/VLFR_07-PET_bio_Raman_0f5d2bb8.csv
nm,Intensity
791.588,10978.6
792.685,10237.5
793.781,10027.5
794.878,9872.4
795.975,9756.5
797.071,9730.4
798.168,9780.1
799.264,9814.9
800.36,9745.4
801.456,9705.3
802.552,9718.1
803.648,9533.2
804.744,9418.2
805.84,9326.6
806.936,9311.9
808.031,9189.9
809.127,9166.1
810.222,8938.3
811.317,8930.0
812.412,8858.4
813.507,8691.7
814.602,8618.4
815.697,8532.9
816.792,8549.7
817.887,8495.8
818.981,8386.5
820.076,8306.5
821.17,8238.1
822.265,8170.0
823.359,8127.9
824.453,8014.8
825.547,8097.2
826.641,8069.1
827.735,7951.4
828.828,7819.6
829.922,7761.9
831.016,7804.7
832.109,7621.2
833.202,7603.0
834.295,7572.0
835.388,7461.6
836.481,7480.1
837.574,7475.8
838.667,7473.1
839.76,7411.6
840.852,7406.3
841.945,7427.1
843.037,7237.8
844.129,7117.9
845.221,7006.0
846.314,6937.7
847.405,6850.0
848.497,6889.3
849.589,6775.9
850.68,6808.2
851.772,6771.8
852.863,6705.7
853.955,6643.0
855.046,6656.9
856.137,6595.4
857.228,6604.7
858.318,6647.0
859.409,6693.1
860.5,6582.2
861.59,6422.1
862.681,6407.6
863.771,6389.8
864.861,6417.8
865.951,6294.0
867.041,6292.4
868.131,6240.9
869.22,6299.8
870.31,6269.4
871.399,6341.6
872.488,6375.9
873.578,6357.2
874.667,6290.1
875.756,6165.2
876.845,6066.2
877.933,6062.6
879.022,6029.2
880.11,5974.0
881.199,5977.9
882.287,5957.9
883.375,5927.2
884.463,5907.6
885.551,5856.0
886.639,5855.2
887.726,5783.4
888.814,5726.7
889.901,5756.0
890.988,5686.0
892.075,5705.7
893.162,5634.1
894.249,5576.3
895.336,5528.7
896.423,5524.9
897.509,5667.8
898.595,5807.8
899.682,5583.7
900.768,5377.5
901.854,5300.5
902.94,5289.2
904.025,5282.9
905.111,5257.4
906.196,5279.5
907.282,5444.0
908.367,5387.3
909.452,5243.0
910.537,5085.7
911.622,5033.4
912.706,4974.9
913.791,4971.6
914.875,4912.8
915.959,4871.2
917.044,4873.3
918.128,4822.6
919.211,4801.6
920.295,4805.6
921.379,4733.1
922.462,4715.5
923.546,4679.3
924.629,4672.5
925.712,4634.1
926.795,4604.8
927.877,4577.7
928.96,4537.4
930.043,4534.9
931.125,4506.8
932.207,4463.9
933.289,4443.5
934.371,4406.3
935.453,4394.3
936.535,4398.5
937.616,4347.4
938.697,4354.5
939.779,4324.8
940.86,4298.6
941.941,4287.2
943.022,4272.1
944.102,4239.5
945.183,4246.5
946.263,4230.5
947.343,4214.6
948.423,4195.1
949.503,4194.7
950.583,4171.6
951.663,4155.1
952.742,4148.4
953.822,4124.1
954.901,4118.5
955.98,4105.5
957.059,4100.6
958.137,4083.5
959.216,4072.2
960.294,4065.9
961.373,4044.2
962.451,4044.4
963.529,4039.5
964.607,4027.9
965.684,4017.8
966.762,4011.7
967.839,4003.3
968.917,4000.5
969.994,3988.1
971.071,3981.0
972.147,3976.7
973.224,3967.0
974.3,3960.5
975.377,3951.9
976.453,3941.9
977.529,3936.3
978.605,3937.6
979.68,3929.5
980.756,3920.3
981.831,3913.4
982.907,3918.9
983.982,3908.4
985.057,3896.5
986.131,3893.3
987.206,3893.5
988.28,3889.5
989.355,3882.8
990.429,3877.7
991.503,3876.4
992.576,3869.7
993.65,3867.2
994.723,3861.1
995.797,3853.4
996.87,3851.3
997.943,3847.3
999.016,3843.5
1000.09,3844.1
1001.16,3843.7
1002.23,3835.6
1003.31,3838.7
1004.38,3826.4
1005.45,3824.4
1006.52,3818.0
1007.59,3819.0
1008.66,3818.1
1009.73,3815.1
1010.81,3810.9
1011.88,3808.0
1012.95,3805.6
1014.02,3810.2
1015.09,3801.2
1016.16,3800.2
1017.23,3799.7
1018.3,3796.3
1019.37,3793.3
1020.44,3796.6
1021.51,3796.8
1022.58,3796.5
1023.64,3789.2
1024.71,3788.7
1025.78,3787.2
1026.85,3782.9
1027.92,3780.4
1028.99,3778.7
1030.05,3778.8
1031.12,3776.1
1032.19,3776.4
1033.26,3776.8
1034.32,3776.5
1035.39,3773.6
1036.46,3775.9
1037.52,3772.0
1038.59,3768.9
1039.66,3766.0
1040.72,3767.5
1041.79,3768.2
1042.86,3768.7
1043.92,3764.3
1044.99,3762.5
1046.05,3763.9
1047.12,3764.0
1048.18,3761.2
1049.25,3761.2
1050.31,3761.6
1051.37,3762.3
1052.44,3761.2
1053.5,3760.0
1054.57,3759.0
1055.63,3762.1
1056.69,3758.1
1057.76,3760.6
1058.82,3759.3
1059.88,3758.7
1060.95,3759.1
1062.01,3758.3
1063.07,3758.4
1064.13,3759.9
1065.19,3759.2
1066.26,3757.2
1067.32,3758.6
1068.11,3755.0