File: spectra/VLFR_08-PLA_bio_Raman_22cf8370.csv
nm,Intensity
526.495,829.6
527.042,829.3
527.589,828.8
528.136,828.5
528.682,830.5
529.229,829.3
529.775,830.5
530.321,829.1
530.867,829.1
531.413,827.7
531.959,830.5
532.505,829.8
533.051,829.2
533.596,830.7
534.141,1037.4
534.687,1003.9
535.232,969.7
535.777,953.1
536.321,940.2
536.866,944.1
537.41,936.2
537.955,933.0
538.499,922.9
539.043,920.4
539.587,916.7
540.131,913.8
540.675,930.7
541.219,930.7
541.762,921.3
542.305,918.2
542.849,924.6
543.392,941.1
543.935,950.7
544.478,928.7
545.02,922.0
545.563,919.1
546.106,916.0
546.648,922.8
547.19,921.3
547.732,920.3
548.274,917.4
548.816,921.5
549.358,928.7
549.9,930.0
550.441,927.6
550.983,931.5
551.524,929.9
552.065,934.8
552.606,939.3
553.147,940.9
553.688,932.5
554.229,946.4
554.769,935.7
555.31,932.7
555.85,929.4
556.391,932.6
556.931,933.8
557.471,948.9
558.011,1063.2
558.551,971.2
559.09,951.1
559.63,947.5
560.169,940.5
560.709,939.6
561.248,939.7
561.787,938.9
562.326,942.6
562.865,951.2
563.404,975.8
563.943,962.9
564.481,954.7
565.02,971.3
565.558,968.8
566.096,998.1
566.634,969.2
567.172,954.8
567.71,956.9
568.248,959.4
568.786,958.5
569.324,960.5
569.861,957.5
570.399,957.7
570.936,957.4
571.473,977.0
572.01,978.5
572.547,973.0
573.084,975.5
573.621,978.2
574.158,976.4
574.694,988.3
575.231,968.0
575.767,962.1
576.303,979.7
576.84,1036.8
577.376,986.3
577.912,971.6
578.448,971.3
578.984,966.3
579.519,968.8
580.055,967.1
580.59,968.6
581.126,963.9
581.661,968.4
582.196,970.8
582.731,968.5
583.267,971.1
583.801,973.3
584.336,971.4
584.871,972.9
585.406,977.1
585.94,973.9
586.475,987.3
587.009,1025.8
587.543,1047.7
588.078,998.6
588.612,979.6
589.146,973.8
589.68,977.3
590.214,979.0
590.747,977.8
591.281,980.2
591.815,976.6
592.348,974.3
592.881,976.5
593.415,979.5
593.948,983.0
594.481,981.8
595.014,984.8
595.547,986.5
596.08,983.7
596.613,987.2
597.146,990.5
597.678,993.8
598.211,994.5
598.743,991.5
599.276,988.7
599.808,993.0
600.34,995.9
600.872,990.3
601.404,996.6
601.936,997.3
602.468,1002.8
603.0,1003.1
603.532,1003.9
604.064,1005.9
604.595,1005.6
605.127,998.3
605.658,1002.8
606.189,1006.2
606.721,1010.0
607.252,1015.1
607.783,1012.2
608.314,1013.9
608.845,1018.5
609.376,1017.1
609.907,1021.0
610.438,1020.8
610.968,1019.4
611.499,1027.8
612.029,1025.2
612.56,1030.7
613.09,1033.5
613.621,1035.9
614.151,1042.6
614.681,1043.7
615.211,1037.5
615.741,1042.3
616.271,1045.7
616.801,1044.2
617.331,1050.1
617.861,1044.3
618.39,1049.3
618.92,1052.4
619.45,1054.3
619.979,1047.2
620.509,1049.6
621.038,1054.7
621.567,1053.1
622.096,1057.0
622.626,1066.4
623.155,1072.4
623.684,1072.2
624.213,1061.9
624.742,1058.1
625.271,1059.0
625.799,1058.0
626.328,1059.6
626.857,1054.5
627.386,1057.2
627.914,1065.1
628.443,1139.0
628.971,1124.9
629.5,1123.2
630.028,1129.5
630.556,1189.2
631.084,1597.8
631.613,1327.0
632.141,1195.0
632.669,1168.9
633.197,1266.3
633.725,1229.1
634.253,1126.4
634.781,1065.2
635.308,1050.3
635.836,1043.7
636.364,1044.2
636.891,1038.6
637.419,1038.6
637.947,1031.9
638.474,1026.3
639.002,1031.6
639.529,1034.3
640.056,1028.0
640.584,1026.5
641.111,1029.1
641.638,1027.4
642.165,1026.8
642.692,1024.3
643.219,1013.4
643.746,1011.8
644.273,1011.6
644.8,1010.9
645.327,1005.8
645.854,1008.2
646.381,1005.5
646.908,1000.7
647.434,999.2
647.961,1002.2
648.488,997.3
649.014,997.3
649.541,993.8
650.067,996.3
650.594,995.2
651.12,986.1
651.646,985.6
652.173,991.5
652.699,984.8
653.225,987.6
653.752,983.8
654.278,984.9
654.804,978.7
655.33,982.0
655.856,979.5
656.382,977.0
656.908,979.5
657.434,976.3
657.96,977.1
658.486,974.6
659.012,977.1
659.538,970.7
660.064,971.1
660.589,970.1
661.115,967.6
661.641,967.5
662.166,965.9
662.692,967.7
663.086,960.4