File: spectra/VLFR_01-LDPE_bio_Raman_573ace16.csv
nm,Intensity
528.626,1863.8
529.132,1863.3
529.637,1865.25
530.143,1864.2
530.648,1865.75
531.153,1865.35
531.658,1917.1
532.164,4220.3
532.669,1866.2
533.174,1866.85
533.679,1940.2
534.184,2231.2
534.689,2221.7
535.194,2269.25
535.699,2290.05
536.203,2275.45
536.708,2215.35
537.213,2257.7
537.717,2236.75
538.222,2252.65
538.726,2209.2
539.231,2204.1
539.735,2194.55
540.239,2201.95
540.744,2208.05
541.248,2223.65
541.752,2224.7
542.256,2218.4
542.76,2226.3
543.264,2229.3
543.768,2311.4
544.272,2430.05
544.776,2250.25
545.28,2250.0
545.784,2278.25
546.287,2378.1
546.791,2328.65
547.294,2271.1
547.798,2244.85
548.301,2268.5
548.805,2279.25
549.308,2303.9
549.811,2323.45
550.315,2389.4
550.818,2296.95
551.321,2277.4
551.824,2331.65
552.327,2278.9
552.83,2261.55
553.333,2277.25
553.835,2285.05
554.338,2284.3
554.841,2296.75
555.343,2289.2
555.846,2308.45
556.349,2290.55
556.851,2299.85
557.353,2294.5
557.856,2311.8
558.358,2317.25
558.86,2292.55
559.362,2309.15
559.864,2308.35
560.366,2303.1
560.868,2339.1
561.37,2329.9
561.872,2511.85
562.374,4203.65
562.876,2409.2
563.377,2368.3
563.879,2429.45
564.38,2391.4
564.882,2392.7
565.383,2387.9
565.885,2442.25
566.386,2639.45
566.887,2425.1
567.388,2398.75
567.889,2396.05
568.391,2368.9
568.892,2374.2
569.392,2397.5
569.893,2400.75
570.394,2424.4
570.895,2407.8
571.395,2592.05
571.896,2513.7
572.397,2466.6
572.897,2468.85
573.397,2464.55
573.898,2502.3
574.398,2495.7
574.898,2502.85
575.398,2551.85
575.898,2645.15
576.398,2758.35
576.898,2745.95
577.398,2682.0
577.898,2645.35
578.398,2668.05
578.897,2720.0
579.397,2761.2
579.896,2783.55
580.396,2811.55
580.895,2850.55
581.395,2885.55
581.894,2924.6
582.393,2968.0
582.892,2988.0
583.391,3028.35
583.89,3064.65
584.389,3088.7
584.888,3177.8
585.387,3199.5
585.886,3230.15
586.384,3317.7
586.883,3375.8
587.381,3462.25
587.88,3547.8
588.378,3636.65
588.876,3611.65
589.375,3697.15
589.873,3811.8
590.371,3900.15
590.869,4027.0
591.367,4079.2
591.865,4126.35
592.363,4297.6
592.86,4333.05
593.358,4433.55
593.856,4475.7
594.353,4567.25
594.851,4717.4
595.348,4825.4
595.845,5002.15
596.342,5099.35
596.84,5252.75
597.337,5422.25
597.834,5496.15
598.331,5541.4
598.828,5736.9
599.324,5864.55
599.821,5890.55
600.318,5956.85
600.814,5982.45
601.311,5883.05
601.807,5968.7
602.304,5883.6
602.8,5824.9
603.296,5720.1
603.792,5598.05
604.288,5459.0
604.784,5363.5
605.28,5207.95
605.776,5069.7
606.272,5046.25
606.767,4865.0
607.263,4755.9
607.759,4667.3
608.254,4511.6
608.749,4494.4
609.245,4387.2
609.74,4307.3
610.235,4202.25
610.73,4182.4
611.225,4136.2
611.72,4050.65
612.215,4028.05
612.71,3980.2
613.204,3934.95
613.699,3855.95
614.194,3845.1
614.688,3825.9
615.182,3823.5
615.677,3713.4
616.171,3664.1
616.665,3640.3
617.159,3636.65
617.653,3580.75
618.147,3520.7
618.641,3561.5
619.135,3466.6
619.628,3454.7
620.122,3465.45
620.615,3470.6
621.109,3404.6
621.602,3409.65
622.095,3395.9
622.589,3381.35
623.082,3342.8
623.575,3294.85
624.068,3276.9
624.561,3260.1
625.053,3255.3
625.546,3255.15
626.039,3299.05
626.531,3365.5
627.024,4113.6
627.516,4088.6
628.008,3825.05
628.501,4451.95
628.993,3887.15
629.485,3762.35
629.977,3608.2
630.469,3569.25
630.96,3326.35
631.452,3167.15
631.944,3164.0
632.435,3127.9
632.927,3110.2
633.418,3102.85
633.91,3095.65
634.401,3107.0
634.892,3141.55
635.383,3117.55
635.874,3086.3
636.365,3118.65
636.856,3127.3
637.346,3117.6
637.837,3109.9
638.327,3149.0
638.818,3146.0
639.308,3157.2
639.799,3174.65
640.289,3228.05
640.779,3182.85
641.269,3264.8
641.759,3211.45
642.249,3268.2
642.738,3295.85
643.228,3272.5
643.718,3314.9
644.207,3343.05
644.697,3332.2
645.186,3358.7
645.675,3371.3
646.164,3378.25
646.653,3393.7
647.142,3373.05
647.631,3412.5
648.12,3391.65
648.609,3388.75
649.098,3493.85
649.586,3551.0
650.075,3551.75
650.563,3529.8
651.051,3452.2
651.539,3461.15
652.027,3441.25
652.515,3438.45
653.003,3420.05
653.491,3401.05
653.979,3400.0
654.467,3364.6
654.954,3365.3
655.442,3328.35
655.929,3294.4
656.416,3259.2
656.904,3268.2
657.391,3235.25
657.878,3182.15
658.365,3100.9
658.851,3113.3
659.338,3017.45
659.825,2979.0
660.311,2980.2
660.798,2940.85
661.041,2917.05