File: spectra/VLFR_01-LDPE_bio_Raman_26488b0d.csv
nm,Intensity
526.508,828.9
527.055,829.9
527.602,830.2
528.149,830.1
528.695,829.1
529.241,830.9
529.787,829.2
530.334,830.0
530.879,830.9
531.425,830.2
531.971,835.3
532.516,831.2
533.062,830.0
533.607,830.8
534.152,914.0
534.697,899.7
535.242,885.7
535.786,871.6
536.331,864.2
536.876,861.4
537.42,861.2
537.964,860.9
538.508,857.7
539.052,854.9
539.596,852.6
540.14,851.9
540.683,849.0
541.227,849.0
541.77,848.1
542.313,846.8
542.856,845.9
543.399,844.5
543.942,846.3
544.485,845.6
545.027,845.0
545.57,845.0
546.112,844.9
546.654,843.5
547.196,844.0
547.738,843.2
548.28,844.5
548.822,843.2
549.363,841.1
549.905,842.5
550.446,843.0
550.988,843.4
551.529,843.1
552.07,844.1
552.611,842.7
553.152,845.1
553.692,846.6
554.233,846.8
554.773,849.5
555.314,850.7
555.854,849.0
556.394,853.8
556.934,852.8
557.474,858.7
558.014,859.3
558.553,860.8
559.093,858.9
559.632,856.6
560.172,855.3
560.711,855.8
561.25,857.7
561.789,857.9
562.328,859.6
562.867,864.8
563.406,867.8
563.944,925.5
564.483,890.5
565.021,884.3
565.559,878.2
566.098,946.7
566.636,885.3
567.174,878.1
567.711,873.6
568.249,872.1
568.787,871.9
569.324,874.4
569.862,877.9
570.399,882.8
570.936,889.0
571.474,985.7
572.011,919.1
572.548,898.0
573.084,895.2
573.621,898.2
574.158,907.7
574.694,903.2
575.231,910.1
575.767,959.5
576.303,1053.0
576.84,1009.5
577.376,987.7
577.912,953.7
578.447,968.4
578.983,969.5
579.519,983.0
580.054,994.0
580.59,1005.4
581.125,1020.2
581.661,1033.5
582.196,1039.5
582.731,1056.4
583.266,1068.2
583.801,1064.5
584.336,1078.5
584.87,1087.5
585.405,1095.0
585.94,1099.3
586.474,1117.5
587.008,1123.3
587.543,1134.9
588.077,1144.7
588.611,1155.6
589.145,1162.8
589.679,1170.1
590.213,1190.1
590.747,1198.0
591.28,1208.0
591.814,1214.1
592.347,1223.9
592.881,1233.7
593.414,1231.1
593.947,1233.8
594.48,1244.3
595.014,1245.9
595.547,1242.5
596.079,1257.0
596.612,1265.5
597.145,1270.4
597.678,1283.4
598.21,1288.8
598.743,1306.3
599.275,1311.5
599.807,1305.9
600.34,1321.2
600.872,1314.3
601.404,1308.5
601.936,1306.0
602.468,1301.8
603.0,1289.4
603.532,1283.6
604.063,1266.7
604.595,1249.2
605.126,1236.6
605.658,1211.8
606.189,1189.7
606.721,1178.3
607.252,1173.9
607.783,1155.0
608.314,1147.5
608.845,1140.8
609.376,1130.9
609.907,1121.1
610.438,1112.6
610.968,1106.8
611.499,1104.9
612.03,1097.2
612.56,1092.1
613.091,1087.7
613.621,1089.9
614.151,1078.9
614.681,1069.5
615.212,1068.4
615.742,1060.7
616.272,1058.6
616.802,1056.4
617.332,1048.1
617.861,1055.1
618.391,1049.9
618.921,1043.7
619.45,1041.5
619.98,1042.8
620.509,1043.6
621.039,1042.5
621.568,1047.2
622.097,1068.9
622.627,1066.7
623.156,1035.1
623.685,1031.1
624.214,1031.7
624.743,1024.9
625.272,1036.3
625.801,1037.8
626.33,1069.1
626.858,1295.4
627.387,1744.6
627.916,1458.5
628.444,1666.4
628.973,1526.0
629.501,1422.4
630.029,1324.3
630.558,1293.6
631.086,1173.4
631.614,1091.9
632.142,1069.8
632.67,1053.4
633.198,1059.3
633.726,1041.6
634.254,1045.3
634.782,1048.1
635.31,1044.8
635.838,1049.0
636.365,1052.3
636.893,1053.3
637.421,1047.5
637.948,1048.3
638.476,1044.5
639.003,1052.9
639.531,1064.1
640.058,1053.3
640.585,1057.8
641.113,1065.4
641.64,1065.8
642.167,1065.1
642.694,1067.2
643.221,1063.4
643.748,1062.6
644.275,1067.7
644.802,1068.5
645.329,1071.6
645.856,1074.7
646.382,1069.4
646.909,1075.9
647.436,1068.0
647.962,1070.4
648.489,1067.6
649.016,1068.8
649.542,1067.2
650.069,1064.2
650.595,1061.9
651.121,1065.5
651.648,1070.1
652.174,1065.5
652.7,1067.4
653.227,1066.8
653.753,1069.1
654.279,1064.1
654.805,1056.4
655.331,1056.1
655.857,1055.8
656.383,1053.0
656.909,1052.7
657.435,1046.4
657.961,1035.2
658.487,1040.6
659.013,1031.5
659.538,1027.7
660.064,1027.2
660.59,1013.1
661.116,1007.9
661.641,999.5
662.167,991.6
662.692,986.6
663.087,982.2