File: spectra/VLFR_08-PLA_nobio_Raman_c92325a0.csv
nm,Intensity
526.486,829.6
527.033,830.5
527.579,831.0
528.126,831.2
528.672,830.4
529.219,830.1
529.765,830.5
530.311,830.4
530.857,830.1
531.403,830.4
531.948,832.8
532.494,832.6
533.039,830.2
533.585,830.8
534.13,1010.3
534.675,975.5
535.22,935.2
535.764,920.6
536.309,915.8
536.854,918.8
537.398,908.1
537.942,904.8
538.486,895.0
539.03,891.5
539.574,890.7
540.118,887.9
540.662,899.8
541.205,900.7
541.749,893.6
542.292,887.6
542.835,891.4
543.378,909.5
543.921,916.2
544.464,898.3
545.006,891.6
545.549,885.4
546.091,885.0
546.634,885.7
547.176,890.8
547.718,887.7
548.26,887.0
548.802,891.4
549.343,894.4
549.885,891.4
550.426,890.8
550.968,892.1
551.509,898.1
552.05,896.9
552.591,900.5
553.132,896.0
553.673,896.8
554.214,902.6
554.754,898.5
555.295,892.9
555.835,890.1
556.375,889.7
556.915,891.8
557.455,904.5
557.995,995.2
558.535,929.6
559.075,904.1
559.614,906.2
560.154,897.3
560.693,902.0
561.232,892.8
561.772,896.3
562.311,895.0
562.85,906.5
563.388,930.3
563.927,918.1
564.466,905.0
565.004,924.3
565.543,916.5
566.081,944.2
566.619,920.3
567.157,901.3
567.695,904.4
568.233,907.7
568.771,909.3
569.309,907.6
569.846,900.7
570.384,906.3
570.921,909.3
571.458,921.3
571.995,921.7
572.532,918.1
573.069,917.9
573.606,920.4
574.143,919.7
574.68,927.7
575.216,906.8
575.753,908.9
576.289,921.5
576.825,974.5
577.361,933.7
577.897,914.8
578.433,912.5
578.969,910.8
579.505,912.8
580.041,908.3
580.576,907.8
581.112,907.2
581.647,909.7
582.183,910.4
582.718,912.4
583.253,913.2
583.788,914.1
584.323,915.4
584.858,911.5
585.392,916.0
585.927,913.8
586.462,923.9
586.996,957.1
587.53,977.8
588.065,942.5
588.599,915.0
589.133,915.1
589.667,914.1
590.201,916.0
590.735,910.6
591.268,914.3
591.802,911.8
592.335,909.9
592.869,915.3
593.402,911.4
593.936,909.9
594.469,910.4
595.002,911.7
595.535,913.0
596.068,916.1
596.601,914.9
597.133,914.0
597.666,916.6
598.199,913.7
598.731,912.6
599.264,914.9
599.796,914.5
600.328,911.4
600.86,911.7
601.393,915.4
601.925,915.4
602.457,913.4
602.988,911.3
603.52,913.0
604.052,911.0
604.583,916.9
605.115,911.6
605.646,908.0
606.178,909.5
606.709,908.8
607.24,910.6
607.771,911.5
608.302,914.5
608.833,908.5
609.364,910.9
609.895,911.2
610.426,909.2
610.957,912.2
611.487,911.2
612.018,914.1
612.548,912.3
613.078,911.7
613.609,912.3
614.139,912.0
614.669,915.7
615.199,913.7
615.729,912.9
616.259,913.4
616.789,911.0
617.319,914.0
617.849,914.6
618.378,913.5
618.908,912.5
619.437,912.8
619.967,913.7
620.496,911.7
621.025,914.5
621.555,914.2
622.084,914.6
622.613,919.1
623.142,924.8
623.671,920.2
624.2,917.4
624.729,918.0
625.258,911.1
625.786,912.2
626.315,910.7
626.844,913.8
627.372,912.8
627.901,922.8
628.429,979.9
628.957,974.8
629.486,970.0
630.014,972.5
630.542,1024.7
631.07,1373.5
631.598,1164.5
632.126,1034.8
632.654,1012.3
633.182,1094.5
633.71,1074.8
634.237,979.6
634.765,930.3
635.293,916.5
635.82,912.4
636.348,911.0
636.875,907.5
637.403,905.2
637.93,908.7
638.458,906.5
638.985,904.4
639.512,906.1
640.039,906.4
640.566,907.6
641.093,902.4
641.62,906.0
642.147,906.3
642.674,906.8
643.201,904.6
643.728,901.0
644.255,901.0
644.781,898.2
645.308,895.0
645.835,898.3
646.361,898.1
646.888,897.4
647.414,896.6
647.941,897.9
648.467,900.4
648.993,894.2
649.52,895.0
650.046,897.9
650.572,898.8
651.098,896.7
651.625,891.3
652.151,893.3
652.677,893.7
653.203,891.8
653.729,894.9
654.255,894.2
654.78,896.5
655.306,893.8
655.832,894.7
656.358,894.6
656.884,895.3
657.409,896.9
657.935,894.9
658.461,894.7
658.986,894.8
659.512,895.7
660.037,893.5
660.563,891.6
661.088,890.6
661.614,893.0
662.139,891.6
662.664,892.0
663.058,888.8