File: spectra/VLFR_02-HDPE_nobio_Raman_c87db9e2.csv
nm,Intensity
526.5,828.6
527.047,829.1
527.594,828.1
528.14,828.6
528.687,829.4
529.233,829.7
529.779,830.2
530.325,827.6
530.871,828.4
531.417,829.5
531.962,835.2
532.508,831.3
533.053,829.8
533.599,829.3
534.144,913.6
534.689,894.9
535.234,884.7
535.778,869.1
536.323,863.1
536.867,857.8
537.412,856.9
537.956,857.0
538.5,853.3
539.044,851.4
539.588,849.3
540.132,844.3
540.675,844.7
541.219,846.2
541.762,845.0
542.305,844.9
542.848,844.4
543.391,844.3
543.934,842.9
544.477,844.8
545.02,843.3
545.562,842.5
546.105,841.8
546.647,843.1
547.189,844.2
547.731,842.5
548.273,843.5
548.815,843.1
549.356,841.3
549.898,841.5
550.439,841.6
550.981,842.4
551.522,841.8
552.063,842.3
552.604,845.0
553.145,845.8
553.686,847.0
554.226,849.4
554.767,845.5
555.307,849.4
555.848,847.9
556.388,851.2
556.928,850.3
557.468,854.9
558.008,856.9
558.547,858.7
559.087,857.3
559.626,857.6
560.166,853.5
560.705,852.5
561.244,856.5
561.783,856.1
562.322,857.0
562.861,862.7
563.4,869.5
563.939,981.3
564.477,888.3
565.015,883.1
565.554,877.7
566.092,1092.8
566.63,883.7
567.168,866.5
567.706,866.0
568.244,860.4
568.781,860.4
569.319,861.4
569.857,863.6
570.394,866.5
570.931,873.7
571.468,1041.1
572.005,895.9
572.542,869.0
573.079,859.4
573.616,864.3
574.153,872.3
574.689,859.2
575.226,869.6
575.762,979.4
576.298,983.5
576.834,943.3
577.371,906.2
577.907,867.6
578.442,861.6
578.978,860.4
579.514,856.8
580.049,859.0
580.585,861.3
581.12,857.8
581.656,860.3
582.191,858.0
582.726,858.1
583.261,859.0
583.796,858.3
584.331,859.0
584.865,858.2
585.4,861.5
585.935,859.9
586.469,861.1
587.004,863.2
587.538,862.9
588.072,863.4
588.606,866.8
589.14,862.1
589.674,864.0
590.208,864.0
590.742,867.6
591.275,866.7
591.809,868.8
592.342,872.4
592.876,871.2
593.409,870.5
593.942,871.6
594.476,874.7
595.009,874.1
595.542,870.9
596.075,874.7
596.607,876.2
597.14,877.3
597.673,879.6
598.205,881.0
598.738,882.4
599.27,882.7
599.803,887.0
600.335,886.4
600.867,884.2
601.399,882.8
601.931,885.8
602.463,888.3
602.995,887.0
603.527,881.6
604.058,882.5
604.59,885.8
605.122,881.0
605.653,883.1
606.184,882.5
606.716,880.8
607.247,880.8
607.778,882.3
608.309,879.0
608.84,881.3
609.371,883.3
609.902,883.3
610.433,881.8
610.964,889.2
611.494,887.0
612.025,881.5
612.556,881.4
613.086,881.8
613.616,883.8
614.147,880.0
614.677,878.1
615.207,881.6
615.737,878.8
616.267,880.9
616.797,880.7
617.327,884.3
617.857,885.2
618.387,884.1
618.917,881.0
619.446,885.0
619.976,884.3
620.505,883.0
621.035,886.4
621.564,893.2
622.093,912.3
622.623,908.1
623.152,887.9
623.681,882.9
624.21,880.2
624.739,882.7
625.268,886.3
625.797,890.3
626.326,915.6
626.855,1116.6
627.383,1580.8
627.912,1276.0
628.441,1398.2
628.969,1330.3
629.498,1232.6
630.026,1132.6
630.554,1111.5
631.083,976.9
631.611,905.4
632.139,891.7
632.667,880.7
633.195,874.3
633.724,872.2
634.252,872.8
634.779,869.8
635.307,870.7
635.835,866.7
636.363,866.1
636.891,863.9
637.418,863.9
637.946,863.5
638.474,861.6
639.001,862.2
639.529,862.1
640.056,861.1
640.583,860.7
641.111,861.8
641.638,861.2
642.165,859.3
642.692,858.1
643.22,861.2
643.747,861.1
644.274,857.3
644.801,862.7
645.328,862.5
645.854,863.8
646.381,860.6
646.908,860.2
647.435,857.8
647.962,860.8
648.488,859.4
649.015,863.3
649.542,861.0
650.068,856.7
650.595,860.2
651.121,855.8
651.648,859.2
652.174,858.1
652.7,858.3
653.227,859.2
653.753,860.8
654.279,858.0
654.805,859.3
655.331,858.8
655.858,859.7
656.384,855.4
656.91,857.9
657.436,858.6
657.962,856.0
658.488,857.2
659.013,858.3
659.539,857.3
660.065,860.9
660.591,857.2
661.117,855.0
661.642,858.2
662.168,855.3
662.694,855.6
663.088,856.2