File: spectra/VLFR_08-PLA_bio_Raman_576c8f94.csv
nm,Intensity
528.626,1862.5
529.132,1862.7
529.637,1864.1
530.143,1864.6
530.648,1864.8
531.153,1866.6
531.658,1921.0
532.164,4921.3
532.669,1867.1
533.174,1868.5
533.679,2157.3
534.184,2985.3
534.689,2782.1
535.194,2658.8
535.699,2556.3
536.203,2513.1
536.708,2552.6
537.213,2454.0
537.717,2478.7
538.222,2393.4
538.726,2386.4
539.231,2404.5
539.735,2329.0
540.239,2352.8
540.744,2463.2
541.248,2457.7
541.752,2398.9
542.256,2373.9
542.76,2400.3
543.264,2487.5
543.768,2612.6
544.272,2481.8
544.776,2368.5
545.28,2370.1
545.784,2355.6
546.287,2338.9
546.791,2364.2
547.294,2377.9
547.798,2374.5
548.301,2379.7
548.805,2383.8
549.308,2391.8
549.811,2388.4
550.315,2403.1
550.818,2440.8
551.321,2459.2
551.824,2480.1
552.327,2462.4
552.83,2480.3
553.333,2460.6
553.835,2516.3
554.338,2498.2
554.841,2501.1
555.343,2427.4
555.846,2422.3
556.349,2420.3
556.851,2457.7
557.353,2549.9
557.856,3184.0
558.358,2965.7
558.86,2578.7
559.362,2545.0
559.864,2513.7
560.366,2500.6
560.868,2501.5
561.37,2468.2
561.872,2489.9
562.374,2510.9
562.876,2599.9
563.377,2780.7
563.879,2642.3
564.38,2571.9
564.882,2701.6
565.383,2708.5
565.885,2844.3
566.386,2804.1
566.887,2550.3
567.388,2554.9
567.889,2637.2
568.391,2596.6
568.892,2591.4
569.392,2597.0
569.893,2578.7
570.394,2581.8
570.895,2592.5
571.395,2714.2
571.896,2774.4
572.397,2730.0
572.897,2702.3
573.397,2746.1
573.898,2715.5
574.398,2718.1
574.898,2656.4
575.398,2626.3
575.898,2639.3
576.398,2918.0
576.898,3150.1
577.398,2767.4
577.898,2638.6
578.398,2612.8
578.897,2618.1
579.397,2594.7
579.896,2623.6
580.396,2620.4
580.895,2645.6
581.395,2611.6
581.894,2638.9
582.393,2637.0
582.892,2634.1
583.391,2633.3
583.89,2629.3
584.389,2626.1
584.888,2635.3
585.387,2610.6
585.886,2635.8
586.384,2719.3
586.883,2954.5
587.381,3110.1
587.88,2902.4
588.378,2674.3
588.876,2587.9
589.375,2603.3
589.873,2595.1
590.371,2625.6
590.869,2617.6
591.367,2610.9
591.865,2614.4
592.363,2609.0
592.86,2633.8
593.358,2633.4
593.856,2615.7
594.353,2616.4
594.851,2650.1
595.348,2626.4
595.845,2634.2
596.342,2653.4
596.84,2639.6
597.337,2645.1
597.834,2663.6
598.331,2654.6
598.828,2686.7
599.324,2683.8
599.821,2642.1
600.318,2672.0
600.814,2661.5
601.311,2688.3
601.807,2694.0
602.304,2679.9
602.8,2742.2
603.296,2677.6
603.792,2690.7
604.288,2696.9
604.784,2716.5
605.28,2687.0
605.776,2702.8
606.272,2715.0
606.767,2744.9
607.263,2718.6
607.759,2698.8
608.254,2732.1
608.749,2731.6
609.245,2726.0
609.74,2758.8
610.235,2742.6
610.73,2755.0
611.225,2760.7
611.72,2765.7
612.215,2747.4
612.71,2750.3
613.204,2759.8
613.699,2736.8
614.194,2763.4
614.688,2779.7
615.182,2735.1
615.677,2752.3
616.171,2752.8
616.665,2771.1
617.159,2805.6
617.653,2832.8
618.147,2764.4
618.641,2778.7
619.135,2811.9
619.628,2799.2
620.122,2797.2
620.615,2799.6
621.109,2795.9
621.602,2803.3
622.095,2809.7
622.589,2883.2
623.082,2887.5
623.575,2843.5
624.068,2812.8
624.561,2785.2
625.053,2800.4
625.546,2772.7
626.039,2764.9
626.531,2822.2
627.024,2796.2
627.516,2777.6
628.008,2981.2
628.501,3389.5
628.993,3218.1
629.485,3224.3
629.977,3279.6
630.469,3745.3
630.96,6170.3
631.452,5050.5
631.944,3858.9
632.435,3561.9
632.927,4051.6
633.418,4188.0
633.91,3600.6
634.401,3101.6
634.892,2863.8
635.383,2747.3
635.874,2708.6
636.365,2690.3
636.856,2657.1
637.346,2673.8
637.837,2649.1
638.327,2651.7
638.818,2604.2
639.308,2626.3
639.799,2618.4
640.289,2613.9
640.779,2581.9
641.269,2585.9
641.759,2598.8
642.249,2594.4
642.738,2606.6
643.228,2539.6
643.718,2543.2
644.207,2564.5
644.697,2528.0
645.186,2546.4
645.675,2515.3
646.164,2485.8
646.653,2508.1
647.142,2485.2
647.631,2473.4
648.12,2475.7
648.609,2455.4
649.098,2453.2
649.586,2423.8
650.075,2438.6
650.563,2446.7
651.051,2445.4
651.539,2418.4
652.027,2424.2
652.515,2399.4
653.003,2390.2
653.491,2375.3
653.979,2383.0
654.467,2355.2
654.954,2367.8
655.442,2348.5
655.929,2338.4
656.416,2335.1
656.904,2316.4
657.391,2311.6
657.878,2337.6
658.365,2304.3
658.851,2314.6
659.338,2311.4
659.825,2306.3
660.311,2313.0
660.798,2274.3
661.041,2308.3