File: spectra/VLFR_07-PET_bio_Raman_49b593b6.csv
nm,Intensity
791.75,12488.7
792.846,11643.2
793.942,11125.4
795.037,10950.3
796.133,10819.5
797.228,10665.3
798.324,10817.3
799.419,10796.8
800.514,10697.0
801.61,10663.8
802.705,10559.7
803.8,10323.8
804.894,10234.3
805.989,10124.7
807.084,10009.5
808.178,10004.0
809.273,9944.35
810.367,9769.8
811.461,9697.4
812.556,9517.0
813.65,9422.45
814.744,9344.4
815.837,9291.45
816.931,9280.4
818.025,9101.7
819.118,9036.35
820.212,8948.65
821.305,8902.5
822.398,8834.3
823.491,8687.55
824.585,8682.05
825.677,8956.7
826.77,8419.8
827.863,8423.3
828.956,8318.15
830.048,8332.1
831.14,8234.55
832.233,8170.5
833.325,8038.35
834.417,7943.05
835.509,7932.1
836.601,8004.0
837.692,8015.95
838.784,7941.6
839.876,7843.35
840.967,8222.6
842.058,7851.05
843.149,7774.5
844.24,7497.2
845.331,7489.9
846.422,7282.5
847.513,7221.7
848.604,7306.95
849.694,7165.1
850.784,7117.25
851.875,7130.45
852.965,7168.4
854.055,7012.45
855.145,7031.2
856.235,6965.45
857.324,6928.25
858.414,7049.3
859.503,7029.95
860.593,6902.75
861.682,6745.5
862.771,6712.75
863.86,6682.75
864.949,6751.3
866.038,6568.0
867.126,6495.75
868.215,6541.4
869.303,6539.0
870.391,6579.4
871.479,6789.1
872.567,7004.45
873.655,6750.4
874.743,6511.45
875.831,6440.1
876.918,6277.65
878.006,6275.05
879.093,6185.0
880.18,6190.55
881.267,6133.85
882.354,6167.0
883.441,6073.55
884.527,6104.9
885.614,6078.95
886.7,5946.1
887.786,5904.75
888.872,5817.3
889.958,5805.45
891.044,5890.55
892.13,5810.35
893.216,5717.6
894.301,5685.1
895.386,5626.95
896.472,5702.1
897.557,6316.55
898.642,6279.95
899.726,5679.95
900.811,5481.2
901.896,5390.85
902.98,5436.2
904.064,5352.4
905.148,5364.75
906.232,5651.0
907.316,5864.1
908.4,5690.7
909.484,5349.35
910.567,5215.45
911.65,5111.5
912.734,5082.15
913.817,5041.75
914.9,4994.2
915.982,4978.8
917.065,4919.95
918.147,4908.1
919.23,4895.35
920.312,4876.0
921.394,4799.35
922.476,4783.95
923.558,4770.05
924.639,4739.6
925.721,4693.65
926.802,4696.15
927.884,4618.6
928.965,4622.9
930.046,4571.05
931.126,4555.75
932.207,4509.95
933.288,4498.0
934.368,4501.6
935.448,4454.05
936.528,4405.1
937.608,4427.15
938.688,4374.15
939.767,4367.65
940.847,4346.95
941.926,4330.25
943.005,4310.55
944.084,4300.0
945.163,4256.2
946.242,4251.65
947.321,4234.4
948.399,4204.95
949.477,4208.45
950.556,4177.1
951.634,4176.75
952.711,4172.5
953.789,4134.7
954.867,4139.75
955.944,4122.8
957.021,4087.2
958.098,4092.95
959.175,4077.8
960.252,4064.35
961.328,4042.55
962.405,4041.4
963.481,4035.05
964.557,4016.15
965.633,4008.15
966.709,4002.75
967.785,3984.2
968.86,3985.1
969.936,3970.5
971.011,3954.8
972.086,3958.75
973.161,3950.5
974.235,3937.4
975.31,3928.25
976.384,3913.4
977.459,3916.1
978.533,3913.9
979.607,3897.95
980.68,3894.95
981.754,3893.3
982.827,3878.75
983.901,3878.45
984.974,3876.05
986.047,3867.95
987.119,3856.95
988.192,3857.75
989.264,3848.9
990.337,3845.95
991.409,3837.75
992.481,3830.3
993.553,3830.8
994.624,3824.4
995.696,3820.4
996.767,3810.9
997.838,3807.3
998.909,3809.45
999.98,3802.3
1001.05,3797.7
1002.12,3792.75
1003.19,3790.7
1004.26,3786.05
1005.33,3784.4
1006.4,3778.95
1007.47,3778.45
1008.54,3773.4
1009.61,3770.2
1010.68,3770.45
1011.75,3763.45
1012.82,3765.35
1013.88,3763.5
1014.95,3762.6
1016.02,3756.4
1017.09,3755.6
1018.16,3751.9
1019.22,3752.6
1020.29,3753.8
1021.36,3756.85
1022.43,3759.1
1023.49,3754.55
1024.56,3748.45
1025.63,3745.3
1026.69,3738.35
1027.76,3737.95
1028.83,3734.2
1029.89,3730.55
1030.96,3731.35
1032.02,3730.15
1033.09,3730.55
1034.15,3734.4
1035.22,3734.3
1036.28,3730.6
1037.35,3723.45
1038.41,3720.75
1039.48,3720.15
1040.54,3718.2
1041.6,3717.85
1042.67,3715.5
1043.73,3715.25
1044.79,3713.65
1045.86,3712.55
1046.92,3712.85
1047.98,3712.3
1049.05,3712.4
1050.11,3712.15
1051.17,3711.8
1052.23,3711.9
1053.29,3710.5
1054.36,3710.3
1055.42,3710.5
1056.48,3709.4
1057.54,3707.1
1058.6,3708.8
1059.66,3709.55
1060.72,3710.0
1061.78,3707.75
1062.84,3707.75
1063.9,3708.15
1064.96,3706.6
1066.02,3705.55
1067.08,3706.8
1067.88,3706.5