File: spectra/VLFR_01-LDPE_nobio_Raman_85ecc14f.csv
nm,Intensity
526.547,832.8
527.094,832.3
527.641,832.9
528.188,832.7
528.734,832.1
529.281,832.2
529.827,831.8
530.373,832.4
530.92,832.3
531.466,832.3
532.011,837.7
532.557,832.7
533.103,832.4
533.648,833.5
534.193,903.7
534.738,897.8
535.283,882.2
535.828,877.7
536.373,874.0
536.917,868.8
537.462,867.5
538.006,865.8
538.55,862.7
539.094,861.1
539.638,860.4
540.182,859.4
540.726,855.2
541.269,855.0
541.812,856.2
542.356,857.5
542.899,854.9
543.442,854.8
543.985,854.5
544.527,849.5
545.07,853.5
545.612,852.4
546.155,856.4
546.697,852.1
547.239,852.1
547.781,852.7
548.323,850.7
548.865,850.6
549.406,849.8
549.948,851.6
550.489,851.0
551.03,851.0
551.572,850.1
552.113,849.6
552.654,851.8
553.194,853.3
553.735,854.0
554.276,854.2
554.816,853.0
555.356,858.1
555.896,856.7
556.437,857.6
556.977,863.3
557.516,863.4
558.056,865.3
558.596,867.5
559.135,866.4
559.675,865.9
560.214,865.0
560.753,864.5
561.292,866.3
561.831,866.9
562.37,871.5
562.909,876.1
563.448,879.4
563.986,929.5
564.525,897.4
565.063,888.3
565.601,888.7
566.139,950.5
566.677,895.9
567.215,889.5
567.753,889.3
568.291,889.3
568.828,889.5
569.366,896.1
569.903,897.8
570.441,902.9
570.978,914.0
571.515,1013.2
572.052,936.5
572.589,922.6
573.126,923.7
573.662,933.3
574.199,945.9
574.735,946.3
575.272,957.7
575.808,994.5
576.344,1064.8
576.88,1045.0
577.416,1038.2
577.952,1028.8
578.488,1046.9
579.024,1064.1
579.559,1080.1
580.095,1101.5
580.63,1120.8
581.166,1139.9
581.701,1159.6
582.236,1173.8
582.771,1192.9
583.306,1215.4
583.841,1222.7
584.376,1233.7
584.911,1245.1
585.445,1251.3
585.98,1266.0
586.514,1281.7
587.048,1296.0
587.583,1305.3
588.117,1324.4
588.651,1335.0
589.185,1346.4
589.719,1356.7
590.253,1380.9
590.786,1394.1
591.32,1399.1
591.853,1412.5
592.387,1414.9
592.92,1422.8
593.454,1418.0
593.987,1425.1
594.52,1425.5
595.053,1444.3
595.586,1445.2
596.119,1459.0
596.651,1451.6
597.184,1462.2
597.717,1464.2
598.249,1482.9
598.782,1493.9
599.314,1496.9
599.846,1513.0
600.379,1503.8
600.911,1501.0
601.443,1490.8
601.975,1487.0
602.507,1479.6
603.038,1465.2
603.57,1443.8
604.102,1428.4
604.633,1406.6
605.165,1363.6
605.696,1335.9
606.228,1315.3
606.759,1294.8
607.29,1284.7
607.821,1267.6
608.352,1258.5
608.883,1238.2
609.414,1226.3
609.945,1215.6
610.476,1203.6
611.006,1195.5
611.537,1192.2
612.067,1177.5
612.598,1169.3
613.128,1172.5
613.659,1163.9
614.189,1155.7
614.719,1147.8
615.249,1136.6
615.779,1135.2
616.309,1128.4
616.839,1127.9
617.369,1120.7
617.899,1120.4
618.428,1112.0
618.958,1110.6
619.487,1105.0
620.017,1107.2
620.546,1099.9
621.076,1100.5
621.605,1110.9
622.134,1129.4
622.663,1124.1
623.193,1111.4
623.722,1092.8
624.251,1100.7
624.78,1097.9
625.308,1104.8
625.837,1112.5
626.366,1129.9
626.895,1353.5
627.423,1632.0
627.952,1446.5
628.48,1676.4
629.009,1497.4
629.537,1428.1
630.065,1350.5
630.594,1326.5
631.122,1231.9
631.65,1174.5
632.178,1153.8
632.706,1153.2
633.234,1147.1
633.762,1145.6
634.29,1143.1
634.818,1143.8
635.346,1142.8
635.873,1145.7
636.401,1148.2
636.929,1153.3
637.456,1149.1
637.984,1147.9
638.511,1155.2
639.039,1153.8
639.566,1154.0
640.093,1153.8
640.62,1165.0
641.148,1161.1
641.675,1171.3
642.202,1171.7
642.729,1164.6
643.256,1162.4
643.783,1167.9
644.31,1164.6
644.837,1166.6
645.364,1159.0
645.891,1162.9
646.417,1164.3
646.944,1171.3
647.471,1163.9
647.997,1158.9
648.524,1156.3
649.051,1161.2
649.577,1156.6
650.104,1151.5
650.63,1149.0
651.157,1147.5
651.683,1148.3
652.209,1142.0
652.736,1151.3
653.262,1143.2
653.788,1150.8
654.314,1143.7
654.84,1140.3
655.366,1139.5
655.893,1131.0
656.419,1129.1
656.945,1127.0
657.471,1115.5
657.997,1113.7
658.522,1108.4
659.048,1099.2
659.574,1094.6
660.1,1085.1
660.626,1076.1
661.152,1069.0
661.677,1057.3
662.203,1049.5
662.729,1042.9
663.123,1039.6