File: spectra/VLFR_02-HDPE_nobio_Raman_dc1c0b0b.csv
nm,Intensity
526.508,830.4
527.055,830.4
527.602,830.5
528.149,829.4
528.695,831.7
529.241,829.3
529.787,830.7
530.334,830.4
530.879,829.4
531.425,830.2
531.971,832.5
532.516,831.4
533.062,830.9
533.607,830.4
534.152,884.3
534.697,878.6
535.242,864.9
535.786,857.6
536.331,855.7
536.876,855.8
537.42,851.9
537.964,853.1
538.508,851.2
539.052,848.6
539.596,847.5
540.14,847.4
540.683,847.2
541.227,846.8
541.77,848.6
542.313,847.0
542.856,848.6
543.399,847.1
543.942,845.6
544.485,844.8
545.027,846.1
545.57,847.4
546.112,845.8
546.654,845.6
547.196,846.8
547.738,848.1
548.28,846.1
548.822,846.3
549.363,843.9
549.905,848.1
550.446,847.2
550.988,847.1
551.529,849.3
552.07,849.4
552.611,848.6
553.152,849.2
553.692,850.4
554.233,849.7
554.773,850.6
555.314,850.5
555.854,851.0
556.394,851.8
556.934,851.7
557.474,854.2
558.014,857.4
558.553,856.4
559.093,857.3
559.632,858.2
560.172,855.2
560.711,852.3
561.25,854.3
561.789,856.2
562.328,859.7
562.867,857.7
563.406,862.9
563.944,926.2
564.483,879.8
565.021,871.7
565.559,871.2
566.098,990.0
566.636,873.4
567.174,866.0
567.711,863.0
568.249,863.0
568.787,863.0
569.324,864.0
569.862,864.6
570.399,868.5
570.936,876.3
571.474,982.9
572.011,889.6
572.548,873.1
573.084,871.9
573.621,870.3
574.158,880.2
574.694,871.0
575.231,879.7
575.767,937.3
576.303,957.7
576.84,930.9
577.376,913.5
577.912,889.8
578.447,887.3
578.983,887.9
579.519,887.8
580.054,892.5
580.59,895.8
581.125,898.6
581.661,899.5
582.196,905.1
582.731,909.6
583.266,909.1
583.801,911.2
584.336,915.1
584.87,918.5
585.405,920.6
585.94,922.1
586.474,929.0
587.008,932.7
587.543,933.1
588.077,931.6
588.611,936.8
589.145,942.9
589.679,939.5
590.213,947.0
590.747,952.2
591.28,951.4
591.814,954.1
592.347,955.4
592.881,958.8
593.414,962.4
593.947,964.4
594.48,962.9
595.014,966.2
595.547,968.6
596.079,972.8
596.612,972.1
597.145,977.9
597.678,979.8
598.21,981.5
598.743,983.1
599.275,988.3
599.807,982.9
600.34,982.9
600.872,983.4
601.404,980.0
601.936,978.9
602.468,978.9
603.0,979.2
603.532,978.5
604.063,974.6
604.595,975.8
605.126,970.9
605.658,959.9
606.189,965.5
606.721,957.9
607.252,954.0
607.783,953.2
608.314,953.7
608.845,951.2
609.376,945.4
609.907,944.5
610.438,943.5
610.968,945.0
611.499,944.1
612.03,936.4
612.56,937.3
613.091,937.6
613.621,937.4
614.151,934.0
614.681,929.8
615.212,930.8
615.742,926.2
616.272,927.8
616.802,924.7
617.332,932.1
617.861,927.2
618.391,925.1
618.921,922.3
619.45,923.4
619.98,925.9
620.509,925.6
621.039,922.8
621.568,930.0
622.097,944.3
622.627,937.4
623.156,925.7
623.685,918.8
624.214,920.5
624.743,924.0
625.272,919.2
625.801,927.5
626.33,942.7
626.858,1090.6
627.387,1400.0
627.916,1194.6
628.444,1309.5
628.973,1231.6
629.501,1159.4
630.029,1090.1
630.558,1066.8
631.086,983.3
631.614,930.6
632.142,920.4
632.67,915.9
633.198,911.7
633.726,912.3
634.254,909.2
634.782,909.6
635.31,909.0
635.838,906.6
636.365,905.3
636.893,905.7
637.421,904.2
637.948,898.9
638.476,909.7
639.003,902.2
639.531,901.9
640.058,906.1
640.585,905.3
641.113,905.4
641.64,905.7
642.167,902.8
642.694,904.9
643.221,906.9
643.748,904.5
644.275,906.8
644.802,907.8
645.329,903.9
645.856,905.3
646.382,906.9
646.909,905.2
647.436,906.4
647.962,906.0
648.489,907.5
649.016,904.1
649.542,904.5
650.069,905.8
650.595,904.1
651.121,906.7
651.648,908.8
652.174,905.5
652.7,903.4
653.227,904.1
653.753,905.7
654.279,905.5
654.805,903.1
655.331,904.5
655.857,902.8
656.383,900.7
656.909,901.6
657.435,900.6
657.961,898.4
658.487,895.2
659.013,900.9
659.538,897.4
660.064,897.2
660.59,893.4
661.116,894.1
661.641,885.4
662.167,887.8
662.692,887.5
663.087,884.2