File: spectra/VLFR_08-PLA_bio_Raman_108fbacb.csv
nm,Intensity
528.65,1847.0
529.155,1848.3
529.66,1848.85
530.165,1848.75
530.67,1848.8
531.175,1849.0
531.68,1863.15
532.185,2430.95
532.69,1848.3
533.194,1847.95
533.699,1875.2
534.204,1962.05
534.708,1957.4
535.213,1959.3
535.717,1966.25
536.222,1956.0
536.726,1964.25
537.231,1961.25
537.735,1967.05
538.239,1968.55
538.743,1973.05
539.247,1976.6
539.751,1972.1
540.255,1976.2
540.759,1986.2
541.263,1985.8
541.767,1985.55
542.271,1986.3
542.775,1995.15
543.279,1998.4
543.782,2007.9
544.286,2004.2
544.789,2000.8
545.293,2012.1
545.796,2006.15
546.3,2010.75
546.803,2012.8
547.306,2022.1
547.81,2020.5
548.313,2020.15
548.816,2011.35
549.319,2024.8
549.822,2029.65
550.325,2028.25
550.828,2031.85
551.331,2035.3
551.834,2037.2
552.337,2033.65
552.839,2053.3
553.342,2039.25
553.844,2044.2
554.347,2045.95
554.849,2045.25
555.352,2048.1
555.854,2048.6
556.357,2049.6
556.859,2051.7
557.361,2060.45
557.863,2081.55
558.365,2063.5
558.867,2063.7
559.369,2067.85
559.871,2063.7
560.373,2060.85
560.875,2066.55
561.377,2066.55
561.878,2069.9
562.38,2075.3
562.881,2083.85
563.383,2084.75
563.884,2078.15
564.386,2080.0
564.887,2091.7
565.388,2085.35
565.89,2091.85
566.391,2100.15
566.892,2089.85
567.393,2085.9
567.894,2095.1
568.395,2087.6
568.896,2097.45
569.396,2094.15
569.897,2096.75
570.398,2093.55
570.898,2101.75
571.399,2105.95
571.9,2101.0
572.4,2095.45
572.9,2107.55
573.401,2110.25
573.901,2114.8
574.401,2113.05
574.901,2106.8
575.401,2103.55
575.901,2119.05
576.401,2112.5
576.901,2124.0
577.401,2108.8
577.901,2117.9
578.4,2093.8
578.9,2114.35
579.399,2107.5
579.899,2102.15
580.398,2109.25
580.898,2107.6
581.397,2106.2
581.896,2105.55
582.395,2118.15
582.895,2108.1
583.394,2122.45
583.893,2116.2
584.391,2108.65
584.89,2114.3
585.389,2111.95
585.888,2099.6
586.386,2121.7
586.885,2118.4
587.384,2128.05
587.882,2117.1
588.38,2111.05
588.879,2114.85
589.377,2098.95
589.875,2104.45
590.373,2107.45
590.871,2111.7
591.369,2112.6
591.867,2107.2
592.365,2110.9
592.863,2104.9
593.361,2106.35
593.858,2103.85
594.356,2111.1
594.853,2104.35
595.351,2103.6
595.848,2111.7
596.345,2107.2
596.843,2116.55
597.34,2110.85
597.837,2108.5
598.334,2113.8
598.831,2097.45
599.328,2105.8
599.824,2105.8
600.321,2103.25
600.818,2102.75
601.314,2106.25
601.811,2111.15
602.307,2100.7
602.804,2111.5
603.3,2106.0
603.796,2100.5
604.293,2108.8
604.789,2093.0
605.285,2092.8
605.781,2108.45
606.277,2098.45
606.772,2096.2
607.268,2107.3
607.764,2100.9
608.259,2087.55
608.755,2088.95
609.25,2090.75
609.746,2104.7
610.241,2098.15
610.736,2090.85
611.231,2102.05
611.727,2098.4
612.222,2089.95
612.716,2097.7
613.211,2087.75
613.706,2082.1
614.201,2086.95
614.695,2081.6
615.19,2088.4
615.684,2077.2
616.179,2086.35
616.673,2082.7
617.168,2089.0
617.662,2072.65
618.156,2090.45
618.65,2080.6
619.144,2075.0
619.638,2084.05
620.131,2073.0
620.625,2071.55
621.119,2075.5
621.612,2070.95
622.106,2071.15
622.599,2072.15
623.093,2073.5
623.586,2074.3
624.079,2060.25
624.572,2071.8
625.065,2075.25
625.558,2061.45
626.051,2059.0
626.544,2056.55
627.037,2058.6
627.529,2063.45
628.022,2078.0
628.514,2077.85
629.007,2070.2
629.499,2067.65
629.991,2064.5
630.483,2066.3
630.976,2147.7
631.468,2120.3
631.959,2075.1
632.451,2071.2
632.943,2075.9
633.435,2079.2
633.926,2070.45
634.418,2058.8
634.909,2046.2
635.401,2038.75
635.892,2040.15
636.383,2034.65
636.874,2031.7
637.365,2030.7
637.856,2028.5
638.347,2028.05
638.838,2031.7
639.329,2020.4
639.819,2023.3
640.31,2028.15
640.8,2012.85
641.291,2009.05
641.781,2012.9
642.271,2016.1
642.761,2009.8
643.251,2009.25
643.741,2009.7
644.231,2007.65
644.721,2003.45
645.211,2003.2
645.7,2000.4
646.19,2004.05
646.679,1997.3
647.169,2000.15
647.658,2004.45
648.147,1989.6
648.636,1993.35
649.125,1985.0
649.614,1992.95
650.103,1981.8
650.592,1990.05
651.08,1983.5
651.569,1992.35
652.058,1976.8
652.546,1987.2
653.034,1974.2
653.523,1970.05
654.011,1976.4
654.499,1969.1
654.987,1969.6
655.475,1967.7
655.963,1972.25
656.45,1965.5
656.938,1966.15
657.425,1967.5
657.913,1962.15
658.4,1953.9
658.888,1966.35
659.375,1960.1
659.862,1954.3
660.349,1950.35
660.836,1948.85
661.079,1946.75