File: spectra/VLFR_06-PET_nobio_Raman_c43b6a8d.csv
nm,Intensity
526.508,831.1
527.055,830.1
527.602,831.5
528.149,829.3
528.695,830.3
529.241,829.5
529.787,830.3
530.334,830.9
530.879,830.7
531.425,832.3
531.971,833.8
532.516,831.7
533.062,831.4
533.607,839.7
534.152,2205.1
534.697,1859.3
535.242,1478.1
535.786,1252.3
536.331,1111.9
536.876,1055.6
537.42,1036.6
537.964,1024.8
538.508,1035.4
539.052,1025.1
539.596,1048.8
540.14,1054.7
540.683,1014.0
541.227,999.8
541.77,1002.4
542.313,994.8
542.856,1002.0
543.399,1007.0
543.942,1019.0
544.485,1006.9
545.027,1015.4
545.57,1015.5
546.112,1026.0
546.654,1024.9
547.196,1031.0
547.738,1031.7
548.28,1029.5
548.822,1037.5
549.363,1041.9
549.905,1045.2
550.446,1068.0
550.988,1075.3
551.529,1057.1
552.07,1062.1
552.611,1070.0
553.152,1088.8
553.692,1081.9
554.233,1077.5
554.773,1081.5
555.314,1106.0
555.854,1156.6
556.394,1169.2
556.934,1182.7
557.474,1332.4
558.014,1216.5
558.553,1210.6
559.093,1164.9
559.632,1129.6
560.172,1136.0
560.711,1137.1
561.25,1150.3
561.789,1147.9
562.328,1177.1
562.867,1187.4
563.406,1193.8
563.944,1193.3
564.483,1203.4
565.021,1254.0
565.559,1325.4
566.098,1333.8
566.636,1230.3
567.174,1221.2
567.711,1319.1
568.249,1236.6
568.787,1230.5
569.324,1240.8
569.862,1273.0
570.399,1330.3
570.936,1478.6
571.474,1612.2
572.011,1442.1
572.548,1324.8
573.084,1298.1
573.621,1303.5
574.158,1340.0
574.694,1313.6
575.231,1352.7
575.767,1335.5
576.303,1365.8
576.84,1386.4
577.376,1354.0
577.912,1339.0
578.447,1356.1
578.983,1353.5
579.519,1364.4
580.054,1373.2
580.59,1378.6
581.125,1399.5
581.661,1496.4
582.196,2813.6
582.731,1473.9
583.266,1412.8
583.801,1418.4
584.336,1428.9
584.87,1458.9
585.405,1572.3
585.94,2168.2
586.474,1881.8
587.008,1518.8
587.543,1466.5
588.077,1466.1
588.611,1465.5
589.145,1470.0
589.679,1463.7
590.213,1459.0
590.747,1473.4
591.28,1483.0
591.814,1484.4
592.347,1478.8
592.881,1479.9
593.414,1481.1
593.947,1484.2
594.48,1496.1
595.014,1495.7
595.547,1504.9
596.079,1510.6
596.612,1507.7
597.145,1514.9
597.678,1520.9
598.21,1527.3
598.743,1531.9
599.275,1535.6
599.807,1539.5
600.34,1540.7
600.872,1539.9
601.404,1534.2
601.936,1538.3
602.468,1542.5
603.0,1540.5
603.532,1547.5
604.063,1549.2
604.595,1547.7
605.126,1538.3
605.658,1530.8
606.189,1533.8
606.721,1535.5
607.252,1531.4
607.783,1550.3
608.314,1550.3
608.845,1555.3
609.376,1548.2
609.907,1547.3
610.438,1550.6
610.968,1555.6
611.499,1562.7
612.03,1564.0
612.56,1577.8
613.091,1576.3
613.621,1592.3
614.151,1602.3
614.681,1601.6
615.212,1596.4
615.742,1599.9
616.272,1609.6
616.802,1610.3
617.332,1617.8
617.861,1625.2
618.391,1636.3
618.921,1628.7
619.45,1628.7
619.98,1622.5
620.509,1624.0
621.039,1641.0
621.568,1636.9
622.097,1642.2
622.627,1661.1
623.156,1664.3
623.685,1675.8
624.214,1674.5
624.743,1699.0
625.272,1702.3
625.801,1691.8
626.33,1697.4
626.858,1704.4
627.387,1701.5
627.916,1733.4
628.444,1748.2
628.973,1785.1
629.501,1785.2
630.029,1795.4
630.558,1801.4
631.086,1860.8
631.614,2030.6
632.142,2016.9
632.67,1920.7
633.198,1903.0
633.726,1896.2
634.254,1867.6
634.782,1857.2
635.31,1892.6
635.838,1960.7
636.365,2097.8
636.893,2110.5
637.421,1954.6
637.948,1931.1
638.476,1920.6
639.003,1931.8
639.531,1941.3
640.058,1943.6
640.585,1960.7
641.113,1970.6
641.64,1976.2
642.167,1996.8
642.694,1999.6
643.221,1998.4
643.748,1980.0
644.275,1982.1
644.802,1986.7
645.329,1989.2
645.856,1992.1
646.382,2023.0
646.909,2015.6
647.436,2035.8
647.962,2030.6
648.489,2029.0
649.016,2046.8
649.542,2032.4
650.069,2037.0
650.595,2031.1
651.121,2045.1
651.648,2039.9
652.174,2048.2
652.7,2066.0
653.227,2061.7
653.753,2062.2
654.279,2073.8
654.805,2064.6
655.331,2071.3
655.857,2058.9
656.383,2068.8
656.909,2079.7
657.435,2051.1
657.961,2074.6
658.487,2074.0
659.013,2062.9
659.538,2082.3
660.064,2081.9
660.59,2071.1
661.116,2071.3
661.641,2041.1
662.167,2047.2
662.692,2042.4
663.087,2044.6