File: spectra/VLFR_07-PET_bio_Raman_20da9aee.csv
nm,Intensity
791.75,8358.7
792.846,8087.9
793.942,7938.0
795.037,7816.15
796.133,7765.25
797.228,7780.65
798.324,7676.65
799.419,7629.3
800.514,7699.7
801.61,7626.75
802.705,7602.85
803.8,7537.95
804.894,7520.5
805.989,7434.0
807.084,7354.95
808.178,7372.75
809.273,7243.25
810.367,7237.5
811.461,7234.9
812.556,7150.5
813.65,7051.7
814.744,7028.65
815.837,6937.85
816.931,6841.35
818.025,6833.65
819.118,6764.55
820.212,6794.55
821.305,6703.3
822.398,6586.85
823.491,6630.85
824.585,6575.55
825.677,6640.65
826.77,6524.9
827.863,6469.3
828.956,6333.6
830.048,6356.1
831.14,6400.6
832.233,6327.35
833.325,6218.1
834.417,6277.2
835.509,6141.5
836.601,6193.95
837.692,6190.95
838.784,6194.8
839.876,6139.1
840.967,6203.25
842.058,6216.2
843.149,6052.3
844.24,6024.65
845.331,5968.7
846.422,5834.15
847.513,5871.6
848.604,5849.2
849.694,5818.75
850.784,5777.7
851.875,5815.65
852.965,5765.8
854.055,5742.7
855.145,5716.15
856.235,5704.7
857.324,5687.8
858.414,5708.85
859.503,5712.5
860.593,5703.6
861.682,5610.9
862.771,5593.7
863.86,5567.4
864.949,5563.2
866.038,5511.4
867.126,5468.75
868.215,5486.15
869.303,5510.9
870.391,5470.4
871.479,5504.7
872.567,5623.15
873.655,5568.95
874.743,5444.9
875.831,5411.0
876.918,5391.75
878.006,5354.4
879.093,5327.55
880.18,5283.2
881.267,5292.4
882.354,5286.7
883.441,5215.6
884.527,5227.0
885.614,5221.5
886.7,5221.65
887.786,5190.4
888.872,5134.5
889.958,5158.0
891.044,5059.4
892.13,5091.05
893.216,5063.05
894.301,5030.5
895.386,5012.2
896.472,4996.7
897.557,5094.85
898.642,5245.15
899.726,5078.55
900.811,4890.55
901.896,4842.55
902.98,4832.4
904.064,4824.95
905.148,4806.9
906.232,4905.7
907.316,4985.25
908.4,4981.45
909.484,4785.15
910.567,4713.55
911.65,4697.05
912.734,4604.7
913.817,4621.65
914.9,4598.35
915.982,4570.3
917.065,4546.1
918.147,4536.45
919.23,4535.0
920.312,4487.95
921.394,4469.7
922.476,4459.1
923.558,4434.35
924.639,4420.7
925.721,4389.15
926.802,4370.25
927.884,4343.45
928.965,4331.6
930.046,4295.65
931.126,4304.35
932.207,4276.8
933.288,4266.2
934.368,4246.45
935.448,4215.3
936.528,4206.3
937.608,4195.25
938.688,4183.55
939.767,4162.75
940.847,4155.6
941.926,4147.8
943.005,4124.05
944.084,4116.6
945.163,4102.65
946.242,4095.7
947.321,4084.95
948.399,4074.3
949.477,4066.55
950.556,4048.3
951.634,4040.75
952.711,4039.55
953.789,4022.25
954.867,4012.6
955.944,4007.85
957.021,4001.5
958.098,3985.55
959.175,3978.1
960.252,3968.85
961.328,3970.05
962.405,3961.7
963.481,3949.65
964.557,3947.55
965.633,3933.15
966.709,3929.9
967.785,3920.35
968.86,3920.45
969.936,3910.4
971.011,3905.9
972.086,3907.95
973.161,3896.9
974.235,3894.35
975.31,3891.9
976.384,3877.7
977.459,3878.35
978.533,3871.55
979.607,3868.7
980.68,3868.55
981.754,3859.65
982.827,3860.5
983.901,3850.3
984.974,3850.95
986.047,3847.2
987.119,3846.5
988.192,3839.3
989.264,3841.75
990.337,3829.95
991.409,3832.85
992.481,3826.5
993.553,3823.7
994.624,3817.45
995.696,3811.25
996.767,3815.55
997.838,3813.4
998.909,3807.85
999.98,3807.55
1001.05,3803.75
1002.12,3803.75
1003.19,3799.25
1004.26,3796.6
1005.33,3793.55
1006.4,3792.75
1007.47,3789.9
1008.54,3787.4
1009.61,3784.5
1010.68,3782.5
1011.75,3783.2
1012.82,3780.3
1013.88,3780.25
1014.95,3778.35
1016.02,3776.65
1017.09,3773.05
1018.16,3771.45
1019.22,3773.35
1020.29,3772.75
1021.36,3774.55
1022.43,3773.2
1023.49,3771.7
1024.56,3770.2
1025.63,3766.75
1026.69,3762.5
1027.76,3761.65
1028.83,3759.75
1029.89,3757.05
1030.96,3757.5
1032.02,3757.65
1033.09,3756.95
1034.15,3760.05
1035.22,3757.45
1036.28,3755.5
1037.35,3753.7
1038.41,3753.5
1039.48,3751.8
1040.54,3749.7
1041.6,3749.35
1042.67,3748.75
1043.73,3748.9
1044.79,3745.65
1045.86,3746.2
1046.92,3746.3
1047.98,3746.1
1049.05,3745.95
1050.11,3745.15
1051.17,3744.8
1052.23,3744.6
1053.29,3746.75
1054.36,3745.9
1055.42,3744.05
1056.48,3743.65
1057.54,3743.7
1058.6,3743.35
1059.66,3744.4
1060.72,3743.65
1061.78,3742.9
1062.84,3742.35
1063.9,3742.35
1064.96,3742.55
1066.02,3742.25
1067.08,3741.95
1067.88,3741.45