File: spectra/VLFR_07-PET_bio_Raman_8fb21af0.csv
nm,Intensity
791.377,15576.6
792.477,13829.8
793.576,12948.6
794.676,12477.8
795.775,12289.1
796.874,12370.4
797.973,12111.8
799.072,12179.3
800.171,12036.0
801.27,12009.4
802.368,11968.2
803.467,11839.3
804.565,11514.6
805.664,11457.3
806.762,11364.8
807.86,11176.7
808.958,10956.1
810.056,10995.3
811.153,11004.7
812.251,10916.3
813.349,10783.2
814.446,10666.6
815.543,10629.3
816.64,10604.0
817.737,10332.2
818.834,10280.8
819.931,10139.5
821.028,10102.2
822.125,9913.88
823.221,9914.72
824.317,9767.4
825.414,9816.56
826.51,9983.94
827.606,9480.38
828.702,9442.58
829.797,9484.9
830.893,9519.36
831.988,9110.9
833.084,8997.18
834.179,9112.1
835.274,8933.88
836.369,8810.14
837.464,9058.56
838.559,8869.4
839.654,8875.68
840.748,9016.5
841.843,9263.6
842.937,8618.42
844.031,8692.04
845.125,8416.92
846.219,8260.56
847.313,8247.62
848.407,8098.98
849.5,8139.96
850.593,8037.12
851.687,7991.3
852.78,8008.04
853.873,8004.56
854.966,7846.2
856.059,7655.22
857.151,7681.36
858.244,7835.5
859.336,7986.66
860.428,7967.02
861.52,7781.68
862.612,7466.68
863.704,7600.04
864.796,7510.2
865.888,7559.46
866.979,7314.68
868.07,7238.06
869.162,7231.24
870.253,7221.08
871.344,7541.12
872.434,7685.2
873.525,7765.74
874.615,7425.82
875.706,7204.7
876.796,7038.34
877.886,6966.26
878.976,6941.88
880.066,6854.82
881.156,6905.04
882.245,6789.38
883.335,6777.88
884.424,6733.4
885.513,6793.66
886.602,6632.7
887.691,6538.98
888.78,6498.04
889.868,6397.56
890.957,6528.36
892.045,6452.48
893.133,6354.86
894.221,6304.78
895.309,6239.24
896.397,6273.54
897.484,6499.42
898.571,7254.5
899.659,6771.82
900.746,6106.28
901.833,5937.5
902.92,5952.3
904.006,5952.14
905.093,5867.78
906.179,6004.02
907.266,6448.18
908.352,6591.76
909.438,6149.2
910.523,5755.7
911.609,5586.92
912.695,5524.76
913.78,5513.38
914.865,5452.74
915.95,5468.88
917.035,5370.5
918.12,5331.38
919.204,5283.06
920.289,5276.9
921.373,5210.74
922.457,5173.92
923.541,5117.28
924.625,5106.44
925.709,5037.16
926.792,5037.36
927.876,5036.04
928.959,4935.8
930.042,4903.4
931.125,4882.86
932.208,4876.1
933.29,4810.62
934.373,4790.76
935.455,4750.72
936.537,4749.68
937.619,4692.48
938.701,4679.96
939.782,4649.28
940.864,4635.24
941.945,4637.24
943.026,4572.88
944.107,4542.38
945.188,4534.22
946.269,4500.28
947.349,4458.42
948.43,4454.96
949.51,4456.32
950.59,4408.12
951.67,4398.98
952.75,4395.84
953.829,4352.5
954.909,4324.0
955.988,4335.3
957.067,4312.2
958.146,4288.56
959.224,4281.78
960.303,4265.72
961.381,4236.42
962.459,4240.1
963.537,4216.12
964.615,4208.74
965.693,4184.96
966.771,4180.24
967.848,4156.22
968.925,4159.58
970.002,4143.14
971.079,4116.14
972.156,4107.78
973.232,4120.22
974.309,4102.46
975.385,4083.54
976.461,4060.22
977.537,4058.9
978.612,4051.36
979.688,4049.78
980.763,4040.98
981.838,4020.74
982.913,4015.0
983.988,4009.46
985.063,4004.8
986.137,3991.08
987.211,3985.84
988.285,3985.18
989.359,3977.72
990.433,3966.26
991.506,3960.94
992.58,3948.68
993.653,3947.86
994.726,3938.0
995.799,3931.06
996.872,3925.68
997.944,3922.64
999.016,3909.96
1000.09,3911.3
1001.16,3905.52
1002.23,3907.66
1003.3,3891.52
1004.38,3891.22
1005.45,3889.3
1006.52,3880.76
1007.59,3876.44
1008.66,3873.22
1009.73,3870.4
1010.8,3867.38
1011.87,3860.64
1012.94,3859.48
1014.01,3860.54
1015.08,3853.76
1016.15,3857.08
1017.22,3851.68
1018.29,3845.42
1019.36,3843.62
1020.42,3844.6
1021.49,3848.46
1022.56,3852.94
1023.63,3853.08
1024.7,3845.48
1025.76,3838.6
1026.83,3829.16
1027.9,3827.04
1028.97,3821.36
1030.03,3817.44
1031.1,3814.96
1032.17,3814.88
1033.23,3814.74
1034.3,3820.7
1035.36,3823.56
1036.43,3819.24
1037.5,3813.0
1038.56,3805.72
1039.63,3804.06
1040.69,3800.32
1041.76,3800.94
1042.82,3798.54
1043.89,3796.9
1044.95,3794.96
1046.01,3793.96
1047.08,3793.58
1048.14,3793.18
1049.2,3793.04
1050.27,3791.68
1051.33,3792.64
1052.39,3791.34
1053.46,3790.78
1054.52,3789.08
1055.58,3789.9
1056.64,3788.82
1057.7,3789.58
1058.77,3787.68
1059.83,3788.72
1060.89,3788.08
1061.95,3788.02
1063.01,3787.88
1064.07,3787.52
1065.13,3787.06
1066.19,3786.36
1067.25,3786.28
1068.05,3785.82