File: spectra/VLFR_07-PET_nobio_Raman_0b0d1c7a.csv
nm,Intensity
791.377,11770.3
792.477,10778.0
793.576,10130.1
794.676,9841.76
795.775,9649.48
796.874,9591.28
797.973,9504.38
799.072,9540.64
800.171,9466.82
801.27,9400.42
802.368,9416.7
803.467,9148.32
804.565,9050.56
805.664,8997.96
806.762,8905.26
807.86,8922.6
808.958,8751.1
810.056,8677.98
811.153,8682.34
812.251,8681.44
813.349,8572.74
814.446,8432.12
815.543,8398.08
816.64,8292.0
817.737,8228.08
818.834,8149.2
819.931,8075.54
821.028,8069.44
822.125,7914.34
823.221,7778.66
824.317,7820.16
825.414,7907.36
826.51,7766.18
827.606,7605.76
828.702,7510.84
829.797,7468.6
830.893,7567.66
831.988,7368.1
833.084,7282.74
834.179,7233.26
835.274,7222.94
836.369,7214.14
837.464,7214.98
838.559,7273.64
839.654,7157.36
840.748,7252.36
841.843,7418.88
842.937,7037.74
844.031,6984.88
845.125,6757.06
846.219,6690.64
847.313,6715.16
848.407,6640.02
849.5,6569.42
850.593,6508.54
851.687,6581.12
852.78,6479.92
853.873,6532.1
854.966,6328.96
856.059,6327.28
857.151,6324.0
858.244,6439.98
859.336,6484.24
860.428,6559.5
861.52,6286.54
862.612,6162.62
863.704,6140.92
864.796,6294.94
865.888,6090.66
866.979,5990.4
868.07,6030.06
869.162,5999.68
870.253,6001.46
871.344,6120.14
872.434,6293.28
873.525,6345.36
874.615,6178.64
875.706,5910.64
876.796,5865.86
877.886,5817.58
878.976,5696.42
880.066,5686.28
881.156,5727.1
882.245,5644.44
883.335,5604.72
884.424,5607.94
885.513,5631.0
886.602,5602.62
887.691,5492.46
888.78,5454.76
889.868,5401.2
890.957,5415.94
892.045,5427.2
893.133,5352.46
894.221,5275.08
895.309,5278.12
896.397,5247.0
897.484,5473.74
898.571,6009.32
899.659,5601.66
900.746,5151.5
901.833,5078.84
902.92,5055.7
904.006,5094.18
905.093,5018.82
906.179,5143.86
907.266,5445.94
908.352,5492.4
909.438,5142.18
910.523,4964.26
911.609,4832.22
912.695,4824.12
913.78,4772.36
914.865,4748.92
915.95,4732.88
917.035,4698.18
918.12,4685.64
919.204,4692.08
920.289,4625.64
921.373,4625.46
922.457,4579.58
923.541,4547.72
924.625,4548.78
925.709,4523.7
926.792,4478.56
927.876,4469.78
928.959,4459.3
930.042,4404.08
931.125,4390.94
932.208,4357.98
933.29,4335.7
934.373,4322.5
935.455,4306.12
936.537,4298.56
937.619,4278.12
938.701,4260.12
939.782,4253.42
940.864,4233.86
941.945,4200.08
943.026,4200.08
944.107,4183.54
945.188,4161.6
946.269,4154.74
947.349,4143.4
948.43,4136.24
949.51,4121.78
950.59,4104.58
951.67,4094.82
952.75,4075.88
953.829,4076.82
954.909,4060.02
955.988,4061.66
957.067,4040.92
958.146,4034.98
959.224,4023.54
960.303,4010.44
961.381,4003.7
962.459,4002.0
963.537,3987.26
964.615,3980.04
965.693,3971.98
966.771,3965.28
967.848,3964.24
968.925,3951.46
970.002,3946.86
971.079,3941.2
972.156,3934.64
973.232,3925.56
974.309,3918.2
975.385,3910.96
976.461,3905.48
977.537,3893.54
978.612,3894.38
979.688,3884.0
980.763,3888.3
981.838,3882.68
982.913,3872.32
983.988,3866.74
985.063,3867.94
986.137,3862.3
987.211,3861.64
988.285,3851.42
989.359,3846.14
990.433,3846.84
991.506,3832.76
992.58,3831.98
993.653,3830.26
994.726,3825.78
995.799,3820.46
996.872,3821.76
997.944,3812.98
999.016,3812.7
1000.09,3811.76
1001.16,3802.84
1002.23,3803.1
1003.3,3796.72
1004.38,3796.34
1005.45,3792.58
1006.52,3791.26
1007.59,3786.68
1008.66,3784.24
1009.73,3782.4
1010.8,3779.84
1011.87,3779.2
1012.94,3778.2
1014.01,3774.76
1015.08,3773.88
1016.15,3774.52
1017.22,3770.54
1018.29,3767.98
1019.36,3766.56
1020.42,3766.92
1021.49,3772.04
1022.56,3773.56
1023.63,3771.86
1024.7,3767.28
1025.76,3762.18
1026.83,3756.58
1027.9,3755.28
1028.97,3752.42
1030.03,3749.88
1031.1,3747.98
1032.17,3747.82
1033.23,3749.0
1034.3,3750.6
1035.36,3752.98
1036.43,3750.76
1037.5,3746.44
1038.56,3742.06
1039.63,3741.66
1040.69,3740.3
1041.76,3737.68
1042.82,3735.9
1043.89,3736.64
1044.95,3735.36
1046.01,3734.2
1047.08,3734.64
1048.14,3733.68
1049.2,3732.62
1050.27,3733.38
1051.33,3732.86
1052.39,3732.7
1053.46,3731.44
1054.52,3730.22
1055.58,3732.3
1056.64,3730.44
1057.7,3730.9
1058.77,3730.56
1059.83,3731.5
1060.89,3730.64
1061.95,3730.02
1063.01,3729.18
1064.07,3730.18
1065.13,3729.26
1066.19,3728.7
1067.25,3728.6
1068.05,3728.1