File: spectra/VLFR_07-PET_nobio_Raman_91efb090.csv
cm-1,Intensity
109.24,8504.4
126.699,7926.65
144.108,7678.15
161.468,7450.2
178.779,7425.75
196.04,7448.8
213.253,7377.45
230.417,7372.0
247.532,7276.2
264.599,7299.9
281.618,7365.65
298.59,7119.4
315.513,7095.15
332.389,7061.35
349.218,6986.3
365.999,7006.5
382.734,6922.05
399.422,6915.15
416.064,6867.4
432.659,6808.15
449.208,6716.4
465.711,6657.8
482.168,6599.25
498.579,6537.55
514.946,6511.45
531.267,6512.35
547.542,6412.9
563.773,6379.6
579.96,6286.45
596.102,6305.05
612.199,6221.3
628.252,6366.65
644.261,6220.75
660.227,6156.1
676.149,6071.8
692.027,6086.35
707.862,6111.1
723.654,6009.05
739.403,5973.1
755.109,5942.25
770.773,5880.45
786.394,6007.05
801.973,5924.85
817.509,5943.25
833.004,5875.55
848.457,6106.3
863.868,5944.35
879.238,5887.1
894.567,5737.7
909.854,5675.65
925.1,5563.9
940.306,5599.35
955.471,5534.35
970.595,5562.8
985.679,5504.85
1000.72,5517.0
1015.73,5511.1
1030.69,5465.1
1045.61,5405.85
1060.5,5398.85
1075.34,5397.4
1090.15,5450.15
1104.92,5471.0
1119.64,5416.8
1134.33,5351.85
1148.98,5310.0
1163.6,5287.8
1178.17,5333.9
1192.7,5220.15
1207.2,5186.65
1221.66,5192.95
1236.08,5214.85
1250.46,5219.25
1264.81,5281.55
1279.12,5442.05
1293.39,5330.55
1307.62,5226.5
1321.82,5115.3
1335.98,5092.55
1350.11,5057.9
1364.19,5033.9
1378.24,5022.3
1392.26,5018.85
1406.24,5011.95
1420.18,4976.45
1434.08,4975.65
1447.96,4993.3
1461.79,4928.95
1475.59,4899.35
1489.35,4867.85
1503.08,4847.2
1516.78,4850.85
1530.44,4832.95
1544.06,4787.45
1557.65,4775.95
1571.2,4749.2
1584.72,4735.0
1598.21,5038.35
1611.66,5130.2
1625.08,4826.8
1638.46,4644.05
1651.81,4619.85
1665.13,4614.7
1678.41,4625.95
1691.66,4641.25
1704.88,4722.65
1718.06,4865.45
1731.21,4802.25
1744.32,4639.1
1757.41,4521.4
1770.46,4455.55
1783.48,4423.1
1796.46,4415.4
1809.42,4405.35
1822.34,4391.55
1835.23,4367.1
1848.08,4360.7
1860.91,4358.5
1873.7,4337.35
1886.46,4309.3
1899.19,4289.75
1911.89,4295.9
1924.56,4253.6
1937.19,4247.2
1949.8,4231.25
1962.37,4210.75
1974.91,4192.3
1987.42,4164.25
1999.9,4153.3
2012.36,4130.55
2024.78,4117.45
2037.16,4106.0
2049.52,4098.2
2061.85,4093.25
2074.15,4072.45
2086.42,4076.5
2098.66,4061.05
2110.87,4047.6
2123.05,4027.45
2135.2,4032.7
2147.32,4021.7
2159.41,4023.0
2171.47,4002.15
2183.51,3975.8
2195.51,3992.6
2207.49,3981.65
2219.43,3968.45
2231.35,3963.55
2243.24,3952.05
2255.1,3944.6
2266.93,3941.8
2278.73,3935.5
2290.51,3928.65
2302.26,3914.15
2313.97,3915.1
2325.67,3909.9
2337.33,3908.85
2348.96,3905.65
2360.57,3893.0
2372.15,3890.4
2383.7,3881.45
2395.23,3885.9
2406.73,3881.55
2418.2,3873.95
2429.64,3876.15
2441.06,3862.0
2452.45,3857.55
2463.81,3856.95
2475.15,3852.45
2486.46,3850.25
2497.74,3846.75
2509.0,3843.65
2520.23,3839.05
2531.43,3834.4
2542.61,3835.3
2553.76,3831.05
2564.88,3828.05
2575.98,3823.05
2587.06,3826.2
2598.1,3820.2
2609.13,3819.55
2620.12,3817.05
2631.09,3812.65
2642.04,3808.85
2652.96,3805.75
2663.85,3804.0
2674.72,3800.15
2685.57,3799.15
2696.39,3795.3
2707.18,3794.35
2717.95,3793.05
2728.69,3788.6
2739.41,3787.75
2750.11,3787.1
2760.78,3782.55
2771.43,3784.9
2782.05,3779.4
2792.65,3777.8
2803.22,3776.4
2813.77,3777.45
2824.3,3771.8
2834.8,3768.75
2845.27,3767.85
2855.73,3770.3
2866.16,3766.9
2876.56,3765.35
2886.95,3764.0
2897.3,3765.25
2907.64,3765.05
2917.95,3762.0
2928.24,3760.15
2938.51,3762.65
2948.75,3762.85
2958.97,3765.65
2969.17,3761.9
2979.34,3760.3
2989.49,3758.0
2999.62,3752.9
3009.72,3752.9
3019.81,3751.05
3029.87,3748.9
3039.9,3750.3
3049.92,3748.65
3059.91,3747.95
3069.88,3753.05
3079.83,3753.1
3089.76,3749.9
3099.66,3749.0
3109.54,3744.75
3119.4,3743.6
3129.24,3742.15
3139.06,3741.45
3148.85,3743.15
3158.62,3740.7
3168.38,3738.4
3178.11,3737.6
3187.81,3738.95
3197.5,3738.55
3207.17,3738.4
3216.81,3736.95
3226.44,3738.0
3236.04,3737.65
3245.62,3737.55
3255.18,3737.2
3264.72,3737.25
3274.24,3735.8
3283.73,3737.5
3293.21,3735.65
3302.67,3737.1
3312.1,3735.1
3321.52,3735.7
3330.91,3735.5
3340.29,3737.0
3349.64,3735.5
3358.97,3735.85
3368.29,3736.05
3375.26,3733.55