File: spectra/VLFR_07-PET_bio_Raman_61857a49.csv
nm,Intensity
791.588,9393.4
792.685,8916.6
793.781,8738.3
794.878,8607.9
795.975,8550.0
797.071,8555.1
798.168,8558.7
799.264,8599.5
800.36,8623.9
801.456,8557.9
802.552,8538.9
803.648,8428.3
804.744,8417.0
805.84,8342.0
806.936,8235.7
808.031,8183.2
809.127,8114.9
810.222,7961.0
811.317,7985.4
812.412,7911.0
813.507,7784.7
814.602,7805.5
815.697,7616.7
816.792,7595.2
817.887,7570.1
818.981,7459.9
820.076,7533.7
821.17,7442.9
822.265,7391.5
823.359,7288.7
824.453,7346.3
825.547,7231.2
826.641,7292.1
827.735,7180.5
828.828,7116.2
829.922,7043.6
831.016,7033.0
832.109,6968.8
833.202,6863.4
834.295,6825.1
835.388,6755.2
836.481,6800.6
837.574,6709.1
838.667,6686.0
839.76,6686.4
840.852,6688.9
841.945,6738.8
843.037,6584.1
844.129,6471.6
845.221,6382.7
846.314,6299.4
847.405,6270.9
848.497,6212.4
849.589,6231.4
850.68,6189.9
851.772,6183.2
852.863,6126.6
853.955,6082.0
855.046,6024.5
856.137,6024.2
857.228,5995.5
858.318,6052.0
859.409,6068.0
860.5,6049.9
861.59,5963.5
862.681,5915.4
863.771,5881.5
864.861,5920.0
865.951,5788.2
867.041,5805.1
868.131,5777.2
869.22,5771.7
870.31,5776.1
871.399,5811.4
872.488,5897.3
873.578,5955.8
874.667,5768.0
875.756,5729.5
876.845,5670.1
877.933,5633.2
879.022,5586.7
880.11,5616.8
881.199,5603.3
882.287,5587.4
883.375,5513.5
884.463,5521.0
885.551,5528.6
886.639,5441.5
887.726,5427.7
888.814,5411.4
889.901,5393.1
890.988,5338.7
892.075,5329.8
893.162,5301.7
894.249,5241.5
895.336,5226.5
896.423,5181.7
897.509,5313.0
898.595,5470.9
899.682,5271.8
900.768,5072.2
901.854,5040.3
902.94,5034.8
904.025,4990.9
905.111,4982.4
906.196,5015.5
907.282,5128.7
908.367,5134.0
909.452,4960.3
910.537,4860.0
911.622,4794.6
912.706,4795.9
913.791,4742.0
914.875,4724.8
915.959,4670.3
917.044,4662.2
918.128,4628.4
919.211,4604.2
920.295,4588.6
921.379,4589.8
922.462,4546.7
923.546,4507.7
924.629,4478.7
925.712,4461.8
926.795,4469.4
927.877,4406.5
928.96,4399.5
930.043,4364.2
931.125,4358.9
932.207,4323.9
933.289,4299.3
934.371,4292.6
935.453,4275.8
936.535,4252.1
937.616,4227.1
938.697,4228.9
939.779,4221.4
940.86,4198.4
941.941,4190.8
943.022,4163.8
944.102,4150.1
945.183,4126.0
946.263,4119.1
947.343,4117.8
948.423,4120.0
949.503,4083.4
950.583,4075.0
951.663,4070.9
952.742,4056.5
953.822,4060.3
954.901,4027.4
955.98,4024.9
957.059,4021.6
958.137,4002.1
959.216,4011.9
960.294,3996.8
961.373,3987.5
962.451,3982.6
963.529,3976.2
964.607,3968.2
965.684,3957.0
966.762,3949.0
967.839,3954.2
968.917,3950.9
969.994,3941.1
971.071,3932.7
972.147,3926.3
973.224,3922.4
974.3,3910.1
975.377,3906.3
976.453,3901.1
977.529,3897.4
978.605,3903.4
979.68,3877.1
980.756,3884.2
981.831,3878.8
982.907,3873.9
983.982,3865.8
985.057,3871.7
986.131,3860.7
987.206,3857.8
988.28,3856.6
989.355,3853.3
990.429,3849.2
991.503,3842.8
992.576,3838.0
993.65,3838.9
994.723,3834.5
995.797,3830.8
996.87,3828.7
997.943,3824.9
999.016,3822.0
1000.09,3819.2
1001.16,3811.4
1002.23,3810.3
1003.31,3814.9
1004.38,3806.4
1005.45,3800.1
1006.52,3802.6
1007.59,3798.1
1008.66,3795.8
1009.73,3794.1
1010.81,3790.5
1011.88,3795.3
1012.95,3786.1
1014.02,3788.4
1015.09,3790.4
1016.16,3783.1
1017.23,3784.6
1018.3,3778.7
1019.37,3777.6
1020.44,3779.0
1021.51,3778.5
1022.58,3777.4
1023.64,3777.5
1024.71,3774.0
1025.78,3773.2
1026.85,3769.6
1027.92,3767.6
1028.99,3766.3
1030.05,3764.0
1031.12,3761.9
1032.19,3764.3
1033.26,3761.5
1034.32,3763.0
1035.39,3762.3
1036.46,3761.2
1037.52,3757.5
1038.59,3759.3
1039.66,3755.7
1040.72,3755.7
1041.79,3754.0
1042.86,3755.8
1043.92,3754.7
1044.99,3753.8
1046.05,3753.6
1047.12,3750.2
1048.18,3752.2
1049.25,3753.9
1050.31,3751.3
1051.37,3750.3
1052.44,3752.7
1053.5,3751.1
1054.57,3749.3
1055.63,3752.9
1056.69,3750.5
1057.76,3748.3
1058.82,3747.8
1059.88,3751.2
1060.95,3751.3
1062.01,3748.9
1063.07,3747.5
1064.13,3749.9
1065.19,3749.2
1066.26,3748.6
1067.32,3746.0
1068.11,3746.4