File: spectra/VLFR_06-PET_nobio_Raman_18f80816.csv
nm,Intensity
526.5,828.7
527.047,828.5
527.594,829.2
528.14,829.7
528.687,828.9
529.233,828.8
529.779,829.6
530.325,828.5
530.871,828.1
531.417,827.9
531.962,838.4
532.508,831.8
533.053,828.8
533.599,829.2
534.144,1005.5
534.689,973.1
535.234,942.9
535.778,931.1
536.323,915.3
536.867,913.7
537.412,912.3
537.956,911.4
538.5,913.0
539.044,912.6
539.588,917.5
540.132,918.6
540.675,921.1
541.219,919.0
541.762,916.8
542.305,917.6
542.848,923.7
543.391,924.8
543.934,927.0
544.477,927.4
545.02,928.9
545.562,930.6
546.105,934.2
546.647,931.3
547.189,937.1
547.731,932.1
548.273,940.3
548.815,939.3
549.356,938.9
549.898,941.1
550.439,946.6
550.981,951.3
551.522,943.5
552.063,946.3
552.604,946.4
553.145,955.1
553.686,951.6
554.226,952.7
554.767,955.3
555.307,956.8
555.848,960.4
556.388,961.3
556.928,963.9
557.468,982.2
558.008,965.3
558.547,973.3
559.087,970.4
559.626,969.5
560.166,969.1
560.705,972.7
561.244,972.7
561.783,968.3
562.322,973.8
562.861,980.8
563.4,985.4
563.939,985.9
564.477,989.4
565.015,1004.4
565.554,1006.8
566.092,1004.3
566.63,993.0
567.168,992.4
567.706,994.6
568.244,993.7
568.781,994.7
569.319,998.9
569.857,1000.3
570.394,1013.3
570.931,1021.9
571.468,1037.5
572.005,1018.7
572.542,1014.4
573.079,1015.9
573.616,1013.7
574.153,1021.3
574.689,1019.2
575.226,1024.8
575.762,1022.3
576.298,1029.4
576.834,1023.6
577.371,1028.0
577.907,1020.1
578.442,1024.6
578.978,1021.3
579.514,1030.4
580.049,1031.0
580.585,1030.3
581.12,1029.4
581.656,1043.3
582.191,1160.4
582.726,1041.2
583.261,1043.1
583.796,1043.5
584.331,1048.7
584.865,1040.6
585.4,1059.2
585.935,1105.4
586.469,1085.5
587.004,1056.8
587.538,1055.0
588.072,1053.6
588.606,1055.0
589.14,1051.6
589.674,1052.1
590.208,1050.3
590.742,1058.2
591.275,1056.8
591.809,1063.2
592.342,1053.1
592.876,1055.8
593.409,1063.1
593.942,1056.0
594.476,1056.5
595.009,1057.3
595.542,1066.3
596.075,1062.6
596.607,1063.4
597.14,1061.9
597.673,1066.8
598.205,1064.8
598.738,1064.2
599.27,1076.0
599.803,1071.2
600.335,1064.7
600.867,1070.5
601.399,1073.1
601.931,1064.6
602.463,1074.0
602.995,1065.8
603.527,1075.6
604.058,1077.9
604.59,1071.0
605.122,1071.5
605.653,1069.2
606.184,1063.5
606.716,1071.0
607.247,1069.9
607.778,1067.0
608.309,1074.9
608.84,1079.8
609.371,1076.1
609.902,1073.7
610.433,1072.2
610.964,1070.7
611.494,1074.0
612.025,1073.8
612.556,1069.8
613.086,1080.7
613.616,1078.2
614.147,1086.2
614.677,1080.5
615.207,1080.4
615.737,1087.9
616.267,1084.9
616.797,1082.0
617.327,1086.3
617.857,1085.9
618.387,1085.2
618.917,1091.8
619.446,1088.6
619.976,1085.9
620.505,1087.4
621.035,1086.2
621.564,1089.8
622.093,1087.4
622.623,1087.6
623.152,1092.1
623.681,1096.9
624.21,1092.7
624.739,1101.5
625.268,1102.7
625.797,1100.7
626.326,1104.2
626.855,1102.3
627.383,1111.0
627.912,1114.6
628.441,1117.0
628.969,1123.3
629.498,1122.6
630.026,1127.5
630.554,1121.4
631.083,1129.3
631.611,1145.1
632.139,1146.2
632.667,1132.5
633.195,1131.8
633.724,1129.4
634.252,1129.1
634.779,1127.8
635.307,1129.0
635.835,1139.5
636.363,1156.4
636.891,1158.8
637.418,1142.1
637.946,1140.2
638.474,1137.2
639.001,1136.7
639.529,1141.6
640.056,1142.0
640.583,1140.3
641.111,1149.6
641.638,1150.6
642.165,1148.8
642.692,1153.1
643.22,1150.7
643.747,1147.8
644.274,1145.0
644.801,1142.5
645.328,1145.6
645.854,1148.9
646.381,1149.8
646.908,1155.6
647.435,1156.5
647.962,1160.2
648.488,1154.2
649.015,1160.2
649.542,1156.7
650.068,1148.7
650.595,1159.7
651.121,1153.9
651.648,1160.8
652.174,1155.4
652.7,1159.3
653.227,1163.4
653.753,1170.0
654.279,1159.3
654.805,1161.1
655.331,1154.8
655.858,1161.8
656.384,1164.2
656.91,1161.4
657.436,1163.6
657.962,1157.5
658.488,1161.5
659.013,1168.3
659.539,1162.9
660.065,1162.7
660.591,1162.6
661.117,1156.7
661.642,1156.7
662.168,1157.8
662.694,1152.7
663.088,1155.3