File: spectra/VLFR_07-PET_bio_Raman_b401a67c.csv
nm,Intensity
791.75,5614.15
792.846,5540.5
793.942,5527.9
795.037,5546.15
796.133,5487.95
797.228,5481.55
798.324,5518.8
799.419,5488.6
800.514,5476.75
801.61,5467.45
802.705,5451.75
803.8,5400.35
804.894,5441.65
805.989,5416.55
807.084,5368.45
808.178,5334.25
809.273,5330.0
810.367,5288.85
811.461,5272.35
812.556,5241.25
813.65,5196.9
814.744,5169.5
815.837,5122.0
816.931,5129.45
818.025,5074.05
819.118,5063.7
820.212,5082.85
821.305,5039.0
822.398,4995.2
823.491,4980.95
824.585,5021.7
825.677,4990.35
826.77,4976.05
827.863,4909.4
828.956,4897.45
830.048,4895.55
831.14,4863.65
832.233,4834.1
833.325,4820.5
834.417,4806.75
835.509,4812.9
836.601,4783.25
837.692,4786.35
838.784,4785.75
839.876,4760.95
840.967,4770.3
842.058,4755.5
843.149,4714.65
844.24,4689.75
845.331,4694.6
846.422,4683.4
847.513,4658.45
848.604,4645.75
849.694,4604.95
850.784,4627.7
851.875,4651.2
852.965,4611.0
854.055,4564.0
855.145,4556.9
856.235,4552.0
857.324,4550.95
858.414,4543.95
859.503,4561.2
860.593,4544.3
861.682,4517.3
862.771,4503.5
863.86,4518.75
864.949,4488.1
866.038,4473.35
867.126,4461.8
868.215,4459.9
869.303,4439.2
870.391,4453.25
871.479,4454.2
872.567,4462.2
873.655,4444.0
874.743,4421.1
875.831,4407.35
876.918,4408.3
878.006,4402.8
879.093,4375.15
880.18,4371.05
881.267,4354.7
882.354,4378.3
883.441,4362.85
884.527,4348.8
885.614,4328.95
886.7,4316.45
887.786,4311.75
888.872,4317.0
889.958,4282.05
891.044,4277.0
892.13,4266.2
893.216,4240.55
894.301,4237.6
895.386,4215.5
896.472,4188.7
897.557,4213.9
898.642,4217.35
899.726,4179.4
900.811,4146.6
901.896,4129.95
902.98,4153.5
904.064,4153.4
905.148,4139.9
906.232,4136.1
907.316,4137.4
908.4,4121.55
909.484,4100.7
910.567,4089.95
911.65,4074.15
912.734,4059.05
913.817,4052.75
914.9,4041.05
915.982,4026.75
917.065,4034.2
918.147,4024.4
919.23,4024.35
920.312,4012.8
921.394,4011.7
922.476,3993.1
923.558,3988.95
924.639,3977.4
925.721,3983.2
926.802,3963.4
927.884,3952.55
928.965,3938.0
930.046,3925.7
931.126,3920.35
932.207,3912.15
933.288,3906.2
934.368,3899.4
935.448,3894.45
936.528,3888.5
937.608,3885.25
938.688,3884.2
939.767,3879.45
940.847,3873.8
941.926,3864.85
943.005,3868.25
944.084,3861.8
945.163,3858.0
946.242,3852.65
947.321,3850.9
948.399,3844.3
949.477,3839.7
950.556,3837.55
951.634,3837.1
952.711,3836.6
953.789,3832.5
954.867,3826.6
955.944,3823.2
957.021,3823.2
958.098,3818.8
959.175,3815.6
960.252,3815.6
961.328,3813.65
962.405,3812.4
963.481,3810.8
964.557,3808.05
965.633,3809.4
966.709,3807.4
967.785,3804.05
968.86,3804.25
969.936,3802.15
971.011,3800.2
972.086,3800.05
973.161,3796.8
974.235,3790.2
975.31,3791.6
976.384,3790.25
977.459,3791.1
978.533,3786.55
979.607,3786.95
980.68,3784.9
981.754,3785.4
982.827,3783.5
983.901,3782.35
984.974,3780.95
986.047,3782.45
987.119,3782.95
988.192,3777.35
989.264,3776.1
990.337,3776.2
991.409,3774.9
992.481,3774.0
993.553,3773.6
994.624,3772.8
995.696,3773.3
996.767,3771.15
997.838,3769.8
998.909,3771.2
999.98,3768.55
1001.05,3766.7
1002.12,3766.65
1003.19,3763.85
1004.26,3763.95
1005.33,3761.7
1006.4,3761.15
1007.47,3761.0
1008.54,3760.6
1009.61,3761.15
1010.68,3759.65
1011.75,3759.1
1012.82,3758.15
1013.88,3756.95
1014.95,3756.2
1016.02,3757.0
1017.09,3755.25
1018.16,3754.3
1019.22,3754.3
1020.29,3753.8
1021.36,3753.45
1022.43,3752.15
1023.49,3750.15
1024.56,3752.35
1025.63,3752.9
1026.69,3749.4
1027.76,3749.55
1028.83,3748.9
1029.89,3748.7
1030.96,3747.45
1032.02,3748.65
1033.09,3748.25
1034.15,3748.0
1035.22,3748.75
1036.28,3747.75
1037.35,3747.85
1038.41,3746.75
1039.48,3747.2
1040.54,3745.2
1041.6,3746.2
1042.67,3746.5
1043.73,3745.35
1044.79,3744.85
1045.86,3744.25
1046.92,3745.3
1047.98,3744.35
1049.05,3743.45
1050.11,3743.0
1051.17,3743.7
1052.23,3743.4
1053.29,3744.2
1054.36,3742.65
1055.42,3742.75
1056.48,3743.95
1057.54,3742.6
1058.6,3743.1
1059.66,3743.15
1060.72,3742.1
1061.78,3741.25
1062.84,3743.1
1063.9,3743.3
1064.96,3741.9
1066.02,3740.9
1067.08,3741.4
1067.88,3740.35