File: spectra/VLFR_01-LDPE_bio_Raman_d81c62ec.csv
nm,Intensity
526.495,829.48
527.042,829.0
527.589,829.54
528.136,829.34
528.682,829.86
529.229,829.1
529.775,829.82
530.321,829.0
530.867,829.18
531.413,828.74
531.959,831.52
532.505,830.4
533.051,829.14
533.596,829.6
534.141,892.72
534.687,889.2
535.232,880.22
535.777,874.1
536.321,867.1
536.866,866.06
537.41,863.96
537.955,862.6
538.499,862.92
539.043,861.24
539.587,860.34
540.131,859.76
540.675,859.44
541.219,861.36
541.762,860.5
542.305,859.22
542.849,859.64
543.392,860.3
543.935,860.36
544.478,861.7
545.02,861.26
545.563,861.26
546.106,861.68
546.648,861.76
547.19,862.7
547.732,863.3
548.274,863.68
548.816,864.22
549.358,863.34
549.9,863.6
550.441,864.42
550.983,863.34
551.524,864.26
552.065,864.6
552.606,864.04
553.147,865.2
553.688,866.1
554.229,866.7
554.769,867.32
555.31,865.86
555.85,867.18
556.391,868.06
556.931,868.62
557.471,869.26
558.011,870.88
558.551,869.74
559.09,869.0
559.63,870.62
560.169,870.98
560.709,871.52
561.248,872.72
561.787,872.78
562.326,873.0
562.865,872.98
563.404,875.44
563.943,882.36
564.481,879.8
565.02,879.26
565.558,878.74
566.096,884.36
566.634,877.9
567.172,877.48
567.71,877.92
568.248,876.86
568.786,879.68
569.324,879.9
569.861,882.22
570.399,882.7
570.936,885.36
571.473,892.94
572.01,890.46
572.547,886.96
573.084,887.88
573.621,888.8
574.158,889.28
574.694,887.72
575.231,887.52
575.767,892.12
576.303,908.18
576.84,902.94
577.376,896.46
577.912,891.72
578.448,893.76
578.984,893.64
579.519,895.94
580.055,896.46
580.59,900.76
581.126,900.64
581.661,902.44
582.196,905.5
582.731,907.06
583.267,908.2
583.801,909.84
584.336,911.52
584.871,911.06
585.406,914.08
585.94,914.82
586.475,919.72
587.009,924.16
587.543,928.66
588.078,927.98
588.612,932.86
589.146,938.64
589.68,939.76
590.214,943.06
590.747,947.56
591.281,953.8
591.815,955.0
592.348,960.62
592.881,961.04
593.415,963.94
593.948,965.96
594.481,972.02
595.014,974.84
595.547,979.14
596.08,982.14
596.613,988.26
597.146,993.3
597.678,996.8
598.211,1004.0
598.743,1007.34
599.276,1012.5
599.808,1012.54
600.34,1014.9
600.872,1011.98
601.404,1009.26
601.936,1011.58
602.468,1010.58
603.0,1008.5
603.532,1005.56
604.064,999.62
604.595,996.6
605.127,988.62
605.658,983.28
606.189,977.92
606.721,971.22
607.252,970.82
607.783,968.64
608.314,966.42
608.845,964.16
609.376,960.32
609.907,957.12
610.438,954.06
610.968,954.32
611.499,952.2
612.029,949.1
612.56,951.08
613.09,947.64
613.621,948.38
614.151,945.3
614.681,946.06
615.211,943.42
615.741,945.02
616.271,941.02
616.801,941.98
617.331,940.54
617.861,938.54
618.39,939.12
618.92,936.3
619.45,937.48
619.979,937.58
620.509,935.14
621.038,934.3
621.567,935.36
622.096,938.34
622.626,936.54
623.155,933.4
623.684,933.38
624.213,930.9
624.742,931.7
625.271,930.58
625.799,931.16
626.328,935.68
626.857,967.38
627.386,1034.0
627.914,999.2
628.443,1027.02
628.971,1008.3
629.5,996.76
630.028,985.7
630.556,985.52
631.084,962.94
631.613,950.46
632.141,942.88
632.669,936.48
633.197,933.26
633.725,931.28
634.253,929.26
634.781,928.8
635.308,929.98
635.836,930.0
636.364,929.14
636.891,929.72
637.419,929.28
637.947,928.2
638.474,931.44
639.002,931.2
639.529,932.62
640.056,933.08
640.584,936.62
641.111,936.38
641.638,939.28
642.165,937.98
642.692,939.2
643.219,939.84
643.746,938.82
644.273,939.96
644.8,941.62
645.327,940.58
645.854,943.56
646.381,942.28
646.908,943.4
647.434,946.02
647.961,947.2
648.488,945.26
649.014,945.64
649.541,947.68
650.067,948.14
650.594,947.26
651.12,948.64
651.646,949.82
652.173,948.5
652.699,952.62
653.225,952.0
653.752,952.24
654.278,952.22
654.804,950.74
655.33,950.84
655.856,951.14
656.382,949.64
656.908,948.54
657.434,949.76
657.96,945.6
658.486,944.14
659.012,944.64
659.538,944.38
660.064,940.78
660.589,937.2
661.115,934.96
661.641,935.64
662.166,930.64
662.692,932.06
663.086,928.86