File: spectra/VLFR_08-PLA_bio_Raman_65a394bd.csv
nm,Intensity
526.495,829.6
527.042,829.1
527.589,828.2
528.136,828.6
528.682,828.0
529.229,829.1
529.775,829.4
530.321,829.6
530.867,828.5
531.413,829.1
531.959,832.3
532.505,828.9
533.051,828.4
533.596,830.6
534.141,1082.3
534.687,1037.1
535.232,998.0
535.777,984.0
536.321,981.2
536.866,986.6
537.41,975.3
537.955,981.7
538.499,970.8
539.043,966.3
539.587,962.3
540.131,957.2
540.675,976.6
541.219,981.1
541.762,964.4
542.305,966.6
542.849,970.8
543.392,991.8
543.935,1003.5
544.478,982.5
545.02,976.3
545.563,974.3
546.106,970.2
546.648,980.9
547.19,976.4
547.732,980.8
548.274,983.1
548.816,988.6
549.358,982.9
549.9,983.6
550.441,989.7
550.983,993.0
551.524,994.2
552.065,998.1
552.606,1002.4
553.147,1002.9
553.688,1001.9
554.229,1012.4
554.769,1007.5
555.31,1002.5
555.85,995.1
556.391,998.1
556.931,1000.6
557.471,1019.5
558.011,1135.4
558.551,1037.9
559.09,1015.9
559.63,1012.5
560.169,1015.5
560.709,1016.3
561.248,1010.0
561.787,1012.0
562.326,1010.4
562.865,1026.2
563.404,1052.2
563.943,1039.0
564.481,1035.0
565.02,1049.0
565.558,1047.9
566.096,1078.2
566.634,1045.4
567.172,1027.4
567.71,1030.1
568.248,1032.5
568.786,1034.9
569.324,1039.3
569.861,1037.4
570.399,1033.5
570.936,1038.1
571.473,1051.3
572.01,1056.4
572.547,1053.9
573.084,1055.9
573.621,1061.5
574.158,1059.7
574.694,1068.6
575.231,1046.5
575.767,1052.1
576.303,1068.7
576.84,1119.7
577.376,1072.7
577.912,1052.4
578.448,1054.9
578.984,1056.0
579.519,1048.5
580.055,1052.2
580.59,1055.9
581.126,1058.8
581.661,1060.5
582.196,1057.0
582.731,1058.9
583.267,1064.6
583.801,1065.6
584.336,1059.8
584.871,1062.9
585.406,1071.5
585.94,1059.5
586.475,1086.7
587.009,1109.6
587.543,1136.1
588.078,1088.3
588.612,1068.2
589.146,1063.7
589.68,1061.2
590.214,1070.2
590.747,1063.2
591.281,1062.2
591.815,1062.7
592.348,1062.5
592.881,1061.9
593.415,1058.6
593.948,1062.8
594.481,1062.8
595.014,1067.6
595.547,1067.0
596.08,1063.6
596.613,1069.1
597.146,1067.3
597.678,1063.4
598.211,1068.9
598.743,1074.9
599.276,1072.1
599.808,1070.8
600.34,1070.8
600.872,1068.8
601.404,1069.9
601.936,1067.2
602.468,1066.7
603.0,1065.0
603.532,1072.0
604.064,1069.6
604.595,1065.4
605.127,1062.4
605.658,1055.0
606.189,1061.8
606.721,1058.8
607.252,1057.8
607.783,1060.8
608.314,1057.0
608.845,1059.7
609.376,1059.5
609.907,1054.6
610.438,1052.7
610.968,1054.2
611.499,1058.6
612.029,1059.8
612.56,1064.0
613.09,1061.6
613.621,1063.1
614.151,1067.4
614.681,1067.2
615.211,1065.1
615.741,1059.5
616.271,1057.4
616.801,1060.4
617.331,1062.1
617.861,1062.6
618.39,1063.3
618.92,1060.0
619.45,1056.2
619.979,1055.7
620.509,1054.2
621.038,1060.4
621.567,1059.0
622.096,1059.8
622.626,1065.1
623.155,1069.4
623.684,1064.0
624.213,1062.1
624.742,1058.1
625.271,1058.0
625.799,1057.3
626.328,1057.2
626.857,1055.2
627.386,1052.3
627.914,1066.4
628.443,1133.8
628.971,1122.4
629.5,1123.7
630.028,1127.1
630.556,1189.1
631.084,1597.7
631.613,1332.9
632.141,1197.1
632.669,1167.3
633.197,1262.6
633.725,1224.0
634.253,1124.4
634.781,1069.5
635.308,1056.2
635.836,1047.6
636.364,1050.2
636.891,1043.4
637.419,1037.0
637.947,1040.3
638.474,1039.6
639.002,1034.3
639.529,1034.5
640.056,1028.5
640.584,1035.9
641.111,1036.7
641.638,1036.6
642.165,1031.3
642.692,1034.7
643.219,1031.7
643.746,1024.8
644.273,1021.6
644.8,1021.0
645.327,1016.8
645.854,1023.6
646.381,1019.2
646.908,1018.9
647.434,1019.0
647.961,1017.3
648.488,1017.6
649.014,1019.1
649.541,1014.3
650.067,1009.3
650.594,1011.4
651.12,1008.6
651.646,1012.6
652.173,1007.5
652.699,1006.7
653.225,1005.9
653.752,1006.6
654.278,1006.6
654.804,1005.3
655.33,1003.9
655.856,1004.4
656.382,1006.0
656.908,1004.8
657.434,1001.9
657.96,1001.1
658.486,1004.6
659.012,1000.0
659.538,1002.3
660.064,999.7
660.589,1000.7
661.115,995.0
661.641,992.2
662.166,996.2
662.692,992.5
663.086,992.4