File: spectra/VLFR_08-PLA_bio_Raman_f8b94d81.csv
nm,Intensity
526.508,830.5
527.055,829.6
527.602,830.0
528.149,830.5
528.695,828.8
529.241,829.9
529.787,830.9
530.334,829.3
530.879,830.0
531.425,829.8
531.971,832.5
532.516,830.8
533.062,829.7
533.607,832.0
534.152,1021.8
534.697,980.1
535.242,943.8
535.786,926.6
536.331,915.9
536.876,918.1
537.42,901.9
537.964,903.3
538.508,893.2
539.052,893.2
539.596,889.8
540.14,884.6
540.683,901.7
541.227,902.7
541.77,892.4
542.313,889.3
542.856,889.1
543.399,907.8
543.942,926.2
544.485,899.0
545.027,885.7
545.57,881.7
546.112,879.2
546.654,883.5
547.196,882.5
547.738,883.0
548.28,882.4
548.822,882.1
549.363,886.4
549.905,886.4
550.446,889.7
550.988,890.8
551.529,894.0
552.07,893.6
552.611,898.5
553.152,898.3
553.692,894.5
554.233,900.7
554.773,892.2
555.314,886.6
555.854,884.6
556.394,888.1
556.934,888.5
557.474,902.5
558.014,1010.4
558.553,925.5
559.093,901.7
559.632,898.5
560.172,893.5
560.711,893.5
561.25,888.5
561.789,887.2
562.328,891.5
562.867,902.7
563.406,931.6
563.944,912.4
564.483,900.8
565.021,923.3
565.559,916.9
566.098,949.5
566.636,916.7
567.174,895.0
567.711,900.7
568.249,903.9
568.787,904.2
569.324,903.9
569.862,901.5
570.399,899.4
570.936,903.2
571.474,920.9
572.011,918.5
572.548,916.4
573.084,914.1
573.621,915.9
574.158,912.0
574.694,925.2
575.231,901.8
575.767,902.6
576.303,919.4
576.84,981.6
577.376,924.2
577.912,903.1
578.447,902.8
578.983,901.5
579.519,904.2
580.054,904.0
580.59,902.5
581.125,902.3
581.661,901.7
582.196,902.6
582.731,905.4
583.266,904.0
583.801,906.7
584.336,906.2
584.87,909.3
585.405,903.5
585.94,908.6
586.474,915.4
587.008,957.7
587.543,983.6
588.077,930.9
588.611,906.2
589.145,904.2
589.679,908.0
590.213,905.2
590.747,903.7
591.28,906.2
591.814,902.7
592.347,903.9
592.881,899.7
593.414,905.2
593.947,904.2
594.48,903.4
595.014,901.5
595.547,905.5
596.079,907.1
596.612,905.8
597.145,904.4
597.678,902.7
598.21,906.1
598.743,904.8
599.275,909.0
599.807,904.7
600.34,907.7
600.872,905.9
601.404,901.5
601.936,904.4
602.468,904.4
603.0,903.6
603.532,903.9
604.063,905.2
604.595,903.4
605.126,901.8
605.658,901.1
606.189,899.1
606.721,904.0
607.252,901.0
607.783,901.3
608.314,900.9
608.845,902.6
609.376,901.8
609.907,900.6
610.438,903.9
610.968,904.8
611.499,897.6
612.03,898.3
612.56,899.9
613.091,906.0
613.621,904.4
614.151,903.6
614.681,905.0
615.212,901.8
615.742,903.4
616.272,904.0
616.802,905.3
617.332,906.9
617.861,903.8
618.391,903.1
618.921,901.7
619.45,903.6
619.98,900.0
620.509,898.5
621.039,902.8
621.568,903.5
622.097,903.4
622.627,910.2
623.156,916.3
623.685,916.7
624.214,911.5
624.743,908.0
625.272,903.8
625.801,904.6
626.33,903.5
626.858,905.0
627.387,907.6
627.916,913.8
628.444,982.9
628.973,976.5
629.501,969.8
630.029,979.0
630.558,1033.3
631.086,1437.7
631.614,1195.6
632.142,1042.3
632.67,1012.4
633.198,1106.2
633.726,1079.5
634.254,974.1
634.782,922.8
635.31,906.1
635.838,905.0
636.365,899.9
636.893,900.1
637.421,895.6
637.948,896.9
638.476,895.8
639.003,896.1
639.531,896.3
640.058,893.4
640.585,893.3
641.113,894.8
641.64,897.7
642.167,895.8
642.694,895.3
643.221,894.8
643.748,892.0
644.275,887.9
644.802,889.0
645.329,887.8
645.856,889.7
646.382,890.9
646.909,889.1
647.436,887.4
647.962,886.8
648.489,886.1
649.016,888.6
649.542,885.9
650.069,885.3
650.595,884.4
651.121,884.9
651.648,884.2
652.174,885.4
652.7,883.7
653.227,884.3
653.753,884.2
654.279,881.7
654.805,882.1
655.331,883.5
655.857,882.3
656.383,882.7
656.909,884.6
657.435,885.6
657.961,885.6
658.487,883.9
659.013,881.7
659.538,882.2
660.064,880.7
660.59,881.5
661.116,880.2
661.641,880.2
662.167,880.8
662.692,879.4
663.087,876.0