File: spectra/VLFR_08-PLA_nobio_Raman_bd43d0c9.csv
nm,Intensity
526.486,830.4
527.033,829.2
527.579,830.5
528.126,828.8
528.672,828.9
529.219,830.0
529.765,828.5
530.311,830.1
530.857,830.0
531.403,829.3
531.948,831.0
532.494,830.8
533.039,830.0
533.585,829.7
534.13,1019.8
534.675,987.2
535.22,952.5
535.764,935.6
536.309,926.5
536.854,929.8
537.398,921.2
537.942,920.1
538.486,912.4
539.03,910.6
539.574,906.8
540.118,900.6
540.662,916.2
541.205,917.0
541.749,911.6
542.292,903.9
542.835,905.5
543.378,926.9
543.921,935.0
544.464,915.6
545.006,909.1
545.549,905.7
546.091,905.1
546.634,904.8
547.176,909.3
547.718,907.5
548.26,903.5
548.802,909.0
549.343,914.6
549.885,911.3
550.426,911.6
550.968,916.0
551.509,917.9
552.05,919.7
552.591,918.8
553.132,924.7
553.673,922.9
554.214,932.6
554.754,924.8
555.295,914.5
555.835,913.7
556.375,915.3
556.915,920.6
557.455,935.4
557.995,1025.3
558.535,953.2
559.075,930.0
559.614,928.8
560.154,927.9
560.693,920.8
561.232,924.2
561.772,916.9
562.311,924.8
562.85,937.0
563.388,961.5
563.927,942.4
564.466,933.8
565.004,957.0
565.543,948.1
566.081,974.4
566.619,950.0
567.157,931.3
567.695,932.3
568.233,937.7
568.771,938.4
569.309,938.2
569.846,938.5
570.384,936.5
570.921,935.5
571.458,950.8
571.995,960.1
572.532,949.6
573.069,950.6
573.606,954.7
574.143,950.2
574.68,966.5
575.216,946.7
575.753,942.5
576.289,958.3
576.825,1012.5
577.361,966.8
577.897,951.1
578.433,944.2
578.969,940.8
579.505,948.0
580.041,944.6
580.576,945.1
581.112,943.5
581.647,951.9
582.183,945.0
582.718,951.3
583.253,952.4
583.788,948.4
584.323,949.8
584.858,953.4
585.392,948.1
585.927,956.0
586.462,962.7
586.996,993.0
587.53,1014.5
588.065,976.6
588.599,961.5
589.133,953.2
589.667,951.5
590.201,953.7
590.735,953.8
591.268,949.7
591.802,951.5
592.335,951.2
592.869,950.2
593.402,952.3
593.936,951.9
594.469,951.7
595.002,951.5
595.535,953.5
596.068,950.4
596.601,957.4
597.133,951.7
597.666,948.9
598.199,956.6
598.731,955.5
599.264,955.4
599.796,950.1
600.328,955.5
600.86,951.9
601.393,952.9
601.925,955.2
602.457,952.0
602.988,955.5
603.52,955.9
604.052,956.8
604.583,955.1
605.115,951.4
605.646,949.5
606.178,948.3
606.709,951.6
607.24,952.4
607.771,947.7
608.302,952.1
608.833,950.1
609.364,951.4
609.895,953.4
610.426,951.2
610.957,952.0
611.487,951.4
612.018,952.7
612.548,955.4
613.078,954.9
613.609,953.6
614.139,954.0
614.669,955.7
615.199,956.2
615.729,953.9
616.259,955.1
616.789,960.5
617.319,956.5
617.849,959.0
618.378,959.4
618.908,957.2
619.437,956.4
619.967,953.0
620.496,951.4
621.025,955.3
621.555,953.1
622.084,955.8
622.613,964.4
623.142,971.2
623.671,968.6
624.2,960.8
624.729,954.3
625.258,957.2
625.786,956.5
626.315,956.9
626.844,954.0
627.372,957.5
627.901,962.6
628.429,1025.3
628.957,1022.0
629.486,1013.9
630.014,1024.1
630.542,1072.9
631.07,1439.7
631.598,1225.3
632.126,1081.2
632.654,1061.9
633.182,1144.0
633.71,1122.2
634.237,1022.8
634.765,972.5
635.293,954.4
635.82,949.8
636.348,948.0
636.875,944.4
637.403,944.5
637.93,943.8
638.458,940.9
638.985,942.1
639.512,940.7
640.039,940.9
640.566,941.5
641.093,942.1
641.62,942.5
642.147,936.8
642.674,938.5
643.201,932.2
643.728,935.4
644.255,934.3
644.781,936.6
645.308,925.9
645.835,928.9
646.361,930.2
646.888,926.0
647.414,929.4
647.941,927.0
648.467,931.3
648.993,925.3
649.52,926.9
650.046,924.1
650.572,924.6
651.098,924.9
651.625,925.1
652.151,926.8
652.677,922.9
653.203,921.3
653.729,923.3
654.255,922.0
654.78,917.0
655.306,919.8
655.832,922.4
656.358,922.3
656.884,923.5
657.409,925.4
657.935,922.6
658.461,917.4
658.986,921.0
659.512,919.6
660.037,917.8
660.563,916.9
661.088,916.5
661.614,916.2
662.139,914.4
662.664,913.2
663.058,909.7