File: spectra/VLFR_06-PET_nobio_Raman_7d1570de.csv
cm-1,Intensity
-123.878,1851.5
-105.821,1851.75
-87.8007,1851.3
-69.8161,1850.8
-51.8675,1853.05
-33.9547,1853.85
-16.0776,1874.15
1.76388,3040.75
19.5698,1853.9
37.3403,1855.9
55.0755,2156.55
72.7754,2838.85
90.4402,2710.7
108.07,2593.7
125.665,2472.8
143.225,2417.0
160.75,2391.15
178.241,2406.85
195.697,2433.8
213.119,2429.35
230.506,2448.85
247.859,2471.45
265.178,2488.35
282.463,2486.05
299.713,2489.75
316.93,2487.15
334.113,2497.55
351.263,2489.8
368.379,2531.05
385.461,2528.0
402.51,2560.6
419.526,2520.65
436.508,2568.75
453.458,2544.15
470.374,2547.35
487.257,2582.4
504.107,2607.55
520.925,2599.15
537.71,2590.45
554.462,2613.65
571.182,2645.2
587.87,2634.8
604.525,2643.9
621.148,2630.3
637.739,2726.35
654.297,2636.4
670.824,2667.2
687.319,2662.45
703.782,2706.35
720.213,2660.65
736.613,2685.3
752.981,2677.95
769.317,2714.95
785.623,2712.6
801.897,2770.4
818.139,2775.9
834.351,2788.2
850.532,2898.75
866.681,2861.75
882.8,2824.15
898.888,2817.75
914.945,2781.45
930.972,2799.25
946.968,2799.9
962.934,2837.95
978.869,2810.2
994.774,2884.65
1010.65,2903.7
1026.49,2937.2
1042.31,2921.7
1058.09,2897.95
1073.85,2944.95
1089.57,3003.85
1105.27,3044.55
1120.93,3159.55
1136.57,3027.0
1152.18,3048.05
1167.75,3035.0
1183.3,3114.0
1198.82,3086.75
1214.31,3129.4
1229.77,3142.7
1245.2,3162.1
1260.6,3264.2
1275.97,3384.05
1291.32,3487.8
1306.63,3368.65
1321.92,3316.45
1337.18,3269.3
1352.41,3286.9
1367.61,3310.3
1382.78,3311.35
1397.93,3371.2
1413.05,3403.4
1428.14,3404.3
1443.2,3453.15
1458.23,3414.05
1473.23,3461.25
1488.21,3466.5
1503.16,3458.95
1518.08,3460.15
1532.97,3523.05
1547.84,3502.0
1562.68,3530.65
1577.49,3584.55
1592.27,3611.05
1607.03,4158.7
1621.76,4034.05
1636.46,3572.5
1651.14,3602.65
1665.78,3640.55
1680.41,3658.0
1695.0,3619.3
1709.57,3819.4
1724.11,4278.05
1738.62,4016.95
1753.11,3700.15
1767.57,3661.5
1782.01,3704.3
1796.41,3676.9
1810.8,3681.75
1825.15,3619.4
1839.48,3741.7
1853.79,3678.9
1868.06,3670.45
1882.31,3760.4
1896.54,3751.55
1910.74,3733.65
1924.91,3724.6
1939.06,3725.55
1953.19,3723.7
1967.28,3748.85
1981.35,3718.1
1995.4,3737.25
2009.42,3780.65
2023.42,3780.15
2037.39,3793.25
2051.33,3794.85
2065.25,3790.3
2079.15,3778.75
2093.01,3764.9
2106.86,3790.4
2120.68,3803.8
2134.47,3777.35
2148.24,3841.65
2161.99,3853.75
2175.71,3740.35
2189.41,3927.2
2203.08,3840.75
2216.73,3841.25
2230.35,3811.3
2243.95,3871.05
2257.52,3813.65
2271.07,3848.55
2284.6,3846.2
2298.1,3839.5
2311.58,3907.7
2325.03,3870.9
2338.46,3903.1
2351.87,3760.0
2365.25,3867.65
2378.61,3843.45
2391.94,3862.65
2405.26,3949.35
2418.54,3909.3
2431.81,3943.6
2445.05,3916.65
2458.27,3909.4
2471.46,3857.95
2484.63,3887.9
2497.78,3921.2
2510.9,3967.85
2524.0,3864.55
2537.08,3919.4
2550.14,3915.65
2563.17,3943.2
2576.18,3886.3
2589.17,3912.9
2602.13,3878.5
2615.07,4012.35
2627.99,3884.7
2640.89,3914.35
2653.76,3974.4
2666.61,3918.65
2679.44,3897.05
2692.25,3982.8
2705.03,4031.55
2717.79,3986.95
2730.53,3943.9
2743.25,3986.75
2755.94,4031.8
2768.61,3936.8
2781.27,4005.25
2793.89,4049.2
2806.5,4058.8
2819.09,4041.9
2831.65,4057.85
2844.19,3995.65
2856.71,4122.2
2869.21,4097.8
2881.69,4107.9
2894.14,4049.25
2906.58,4234.2
2918.99,4125.45
2931.38,4143.5
2943.75,4170.65
2956.1,4408.55
2968.42,4432.85
2980.73,4369.75
2993.01,4304.85
3005.28,4347.25
3017.52,4296.8
3029.74,4282.8
3041.94,4310.6
3054.12,4213.8
3066.28,4310.6
3078.42,4521.55
3090.54,4461.2
3102.63,4283.0
3114.71,4292.2
3126.77,4301.55
3138.8,4221.4
3150.82,4264.7
3162.81,4333.45
3174.78,4263.55
3186.74,4261.15
3198.67,4327.9
3210.58,4316.2
3222.47,4266.8
3234.35,4354.8
3246.2,4241.9
3258.03,4275.5
3269.84,4313.3
3281.64,4250.1
3293.41,4313.35
3305.16,4291.3
3316.89,4239.5
3328.61,4223.05
3340.3,4235.0
3351.97,4296.6
3363.63,4271.25
3375.26,4230.75
3386.88,4150.8
3398.47,4192.45
3410.05,4202.4
3421.6,4206.6
3433.14,4215.25
3444.66,4128.65
3456.15,4233.0
3467.63,4084.25
3479.09,4078.4
3490.53,4101.05
3501.96,4156.6
3513.36,4030.4
3524.74,4047.6
3536.11,4052.9
3547.45,4048.65
3558.78,4024.45
3570.09,3943.05
3581.37,4034.55
3592.64,3960.05
3603.9,3911.5
3615.13,3890.3
3626.34,3864.1
3637.54,3849.6
3648.72,3873.95
3659.87,3861.3
3665.45,3736.9