File: spectra/VLFR_06-PET_nobio_Raman_9666e84d.csv
nm,Intensity
526.532,834.15
527.079,833.4
527.625,834.0
528.172,832.85
528.718,833.95
529.265,832.7
529.811,834.35
530.357,833.25
530.903,834.1
531.449,833.85
531.994,842.95
532.54,834.1
533.085,833.15
533.63,846.7
534.176,1651.85
534.721,1409.9
535.266,1200.25
535.81,1078.9
536.355,1006.2
536.9,977.0
537.444,962.95
537.988,960.1
538.533,968.0
539.077,965.15
539.621,979.3
540.165,978.25
540.708,957.1
541.252,949.5
541.795,950.65
542.339,950.95
542.882,950.0
543.425,953.65
543.968,961.15
544.511,958.65
545.054,963.55
545.597,960.75
546.139,965.6
546.682,966.65
547.224,971.1
547.766,973.3
548.308,975.0
548.85,977.75
549.392,981.3
549.934,983.0
550.475,1001.3
551.017,998.1
551.558,990.0
552.1,996.15
552.641,1005.8
553.182,1014.45
553.723,1008.15
554.264,1008.8
554.804,1010.5
555.345,1019.5
555.885,1051.1
556.426,1060.65
556.966,1069.45
557.506,1170.75
558.046,1082.3
558.586,1089.0
559.126,1054.35
559.665,1044.1
560.205,1048.95
560.745,1050.3
561.284,1049.6
561.823,1058.5
562.362,1070.75
562.901,1083.6
563.44,1088.85
563.979,1079.15
564.518,1091.2
565.056,1125.9
565.595,1175.85
566.133,1167.15
566.671,1110.6
567.21,1107.25
567.748,1163.45
568.285,1116.0
568.823,1119.7
569.361,1128.0
569.899,1148.15
570.436,1180.7
570.974,1268.6
571.511,1332.7
572.048,1237.45
572.585,1173.5
573.122,1162.2
573.659,1169.25
574.196,1189.9
574.733,1184.5
575.269,1210.3
575.806,1191.05
576.342,1217.8
576.878,1228.55
577.414,1208.7
577.951,1202.55
578.486,1207.3
579.022,1211.25
579.558,1213.2
580.094,1219.25
580.629,1226.55
581.165,1242.65
581.7,1309.6
582.236,2099.0
582.771,1271.8
583.306,1256.0
583.841,1254.4
584.376,1267.85
584.911,1276.05
585.445,1371.0
585.98,1709.3
586.514,1500.95
587.049,1310.2
587.583,1292.4
588.117,1287.8
588.651,1284.25
589.186,1285.4
589.72,1286.9
590.253,1290.4
590.787,1301.35
591.321,1301.0
591.854,1298.5
592.388,1302.15
592.921,1303.45
593.455,1300.5
593.988,1303.25
594.521,1312.0
595.054,1313.55
595.587,1324.6
596.12,1324.5
596.653,1321.95
597.186,1329.0
597.718,1330.3
598.251,1333.15
598.783,1340.25
599.316,1345.95
599.848,1341.95
600.38,1343.55
600.912,1344.55
601.444,1344.85
601.976,1344.1
602.508,1341.05
603.04,1354.3
603.572,1349.95
604.103,1361.5
604.635,1354.35
605.167,1351.7
605.698,1348.5
606.229,1347.95
606.761,1350.55
607.292,1359.25
607.823,1357.3
608.354,1357.5
608.885,1362.75
609.416,1365.3
609.947,1371.4
610.477,1375.25
611.008,1371.45
611.539,1376.55
612.069,1377.8
612.6,1384.25
613.13,1401.5
613.66,1406.55
614.19,1407.25
614.721,1408.75
615.251,1409.5
615.781,1406.8
616.311,1416.15
616.841,1422.1
617.37,1427.4
617.9,1434.05
618.43,1440.95
618.96,1437.55
619.489,1435.05
620.019,1441.35
620.548,1434.15
621.077,1453.15
621.607,1450.5
622.136,1455.3
622.665,1470.25
623.194,1466.15
623.723,1479.7
624.252,1486.4
624.781,1495.6
625.31,1505.2
625.839,1500.1
626.368,1505.05
626.896,1508.1
627.425,1519.7
627.953,1526.45
628.482,1539.4
629.01,1567.75
629.539,1568.15
630.067,1565.2
630.596,1577.6
631.124,1638.6
631.652,1740.75
632.18,1724.1
632.708,1663.9
633.236,1658.1
633.764,1643.3
634.292,1630.4
634.82,1626.3
635.348,1643.8
635.876,1693.4
636.403,1815.65
636.931,1777.85
637.459,1685.65
637.986,1668.75
638.514,1667.5
639.041,1665.45
639.568,1673.65
640.096,1680.7
640.623,1684.8
641.15,1696.85
641.678,1695.65
642.205,1712.8
642.732,1708.9
643.259,1712.3
643.786,1707.15
644.313,1705.55
644.84,1709.8
645.367,1711.5
645.894,1721.5
646.421,1723.95
646.948,1733.45
647.474,1737.7
648.001,1735.85
648.528,1729.6
649.054,1733.15
649.581,1735.95
650.108,1737.3
650.634,1745.25
651.161,1744.9
651.687,1753.2
652.214,1749.65
652.74,1749.75
653.266,1758.2
653.793,1769.75
654.319,1766.35
654.845,1759.2
655.371,1757.1
655.897,1757.9
656.424,1766.9
656.95,1773.1
657.476,1767.3
658.002,1764.0
658.528,1776.35
659.054,1779.1
659.58,1775.95
660.106,1773.15
660.631,1772.7
661.157,1763.1
661.683,1751.3
662.209,1755.9
662.735,1762.7
663.129,1752.25