File: spectra/VLFR_08-PLA_nobio_Raman_16a106e1.csv
nm,Intensity
526.5,829.6
527.047,830.3
527.594,828.7
528.14,829.1
528.687,829.8
529.233,830.2
529.779,828.4
530.325,829.3
530.871,829.7
531.417,830.0
531.962,836.5
532.508,830.2
533.053,828.4
533.599,830.0
534.144,866.8
534.689,861.1
535.234,857.4
535.778,857.2
536.323,854.4
536.867,857.1
537.412,854.8
537.956,854.9
538.5,856.1
539.044,855.7
539.588,853.4
540.132,853.1
540.675,856.3
541.219,856.7
541.762,854.5
542.305,856.9
542.848,855.8
543.391,860.2
543.934,862.8
544.477,858.0
545.02,858.0
545.562,858.6
546.105,858.7
546.647,858.4
547.189,858.1
547.731,859.2
548.273,858.7
548.815,859.6
549.356,861.0
549.898,859.5
550.439,859.7
550.981,861.4
551.522,862.0
552.063,861.4
552.604,864.6
553.145,863.2
553.686,861.3
554.226,865.0
554.767,860.3
555.307,861.5
555.848,863.3
556.388,862.5
556.928,860.7
557.468,861.9
558.008,879.9
558.547,866.1
559.087,863.0
559.626,864.5
560.166,867.9
560.705,863.3
561.244,863.9
561.783,864.6
562.322,866.5
562.861,865.3
563.4,873.1
563.939,866.8
564.477,867.4
565.015,871.2
565.554,872.7
566.092,875.7
566.63,870.4
567.168,868.1
567.706,867.1
568.244,870.0
568.781,869.3
569.319,870.9
569.857,871.0
570.394,869.7
570.931,869.3
571.468,871.3
572.005,871.3
572.542,872.6
573.079,872.6
573.616,875.2
574.153,875.1
574.689,873.9
575.226,875.3
575.762,871.3
576.298,876.1
576.834,881.7
577.371,874.8
577.907,869.8
578.442,873.0
578.978,873.0
579.514,873.9
580.049,871.8
580.585,872.3
581.12,873.6
581.656,874.1
582.191,875.9
582.726,874.2
583.261,871.0
583.796,874.9
584.331,876.7
584.865,873.7
585.4,876.0
585.935,874.4
586.469,875.1
587.004,883.5
587.538,886.8
588.072,878.6
588.606,873.5
589.14,870.0
589.674,875.4
590.208,877.6
590.742,874.7
591.275,875.1
591.809,877.6
592.342,876.3
592.876,874.8
593.409,877.1
593.942,874.4
594.476,875.2
595.009,874.0
595.542,876.7
596.075,875.0
596.607,874.9
597.14,875.4
597.673,879.1
598.205,877.4
598.738,874.3
599.27,879.2
599.803,874.0
600.335,878.2
600.867,878.7
601.399,875.8
601.931,876.6
602.463,873.4
602.995,875.3
603.527,874.9
604.058,875.1
604.59,873.1
605.122,875.1
605.653,875.2
606.184,875.9
606.716,872.1
607.247,875.4
607.778,875.8
608.309,874.3
608.84,872.8
609.371,875.7
609.902,875.0
610.433,873.8
610.964,871.5
611.494,873.2
612.025,872.5
612.556,871.1
613.086,872.5
613.616,872.6
614.147,871.6
614.677,875.5
615.207,875.4
615.737,874.2
616.267,871.5
616.797,872.1
617.327,867.2
617.857,873.2
618.387,872.7
618.917,872.9
619.446,870.5
619.976,870.9
620.505,869.3
621.035,873.2
621.564,871.0
622.093,871.3
622.623,873.2
623.152,873.5
623.681,872.8
624.21,872.3
624.739,870.7
625.268,872.1
625.797,869.5
626.326,868.8
626.855,872.4
627.383,872.5
627.912,876.1
628.441,885.7
628.969,882.6
629.498,884.3
630.026,883.4
630.554,890.7
631.083,938.3
631.611,905.8
632.139,889.7
632.667,886.4
633.195,896.4
633.724,892.6
634.252,879.0
634.779,872.0
635.307,869.6
635.835,869.1
636.363,868.3
636.891,869.5
637.418,869.7
637.946,867.0
638.474,868.5
639.001,867.5
639.529,869.2
640.056,864.2
640.583,867.0
641.111,867.9
641.638,867.5
642.165,869.5
642.692,866.8
643.22,866.7
643.747,864.2
644.274,866.0
644.801,863.9
645.328,863.8
645.854,865.9
646.381,865.2
646.908,865.9
647.435,866.3
647.962,866.6
648.488,863.5
649.015,866.0
649.542,863.8
650.068,864.3
650.595,862.8
651.121,864.3
651.648,862.6
652.174,864.3
652.7,864.2
653.227,859.6
653.753,863.8
654.279,860.0
654.805,859.6
655.331,858.9
655.858,861.1
656.384,860.6
656.91,861.7
657.436,858.8
657.962,859.2
658.488,860.4
659.013,861.1
659.539,861.5
660.065,862.0
660.591,859.6
661.117,858.1
661.642,859.8
662.168,860.8
662.694,857.4
663.088,860.3