File: spectra/VLFR_01-LDPE_bio_Raman_f2eb6aca.csv
nm,Intensity
528.65,1842.0
529.155,1842.15
529.66,1843.35
530.165,1843.3
530.67,1843.0
531.175,1846.6
531.68,1873.1
532.185,3798.95
532.69,1848.45
533.194,1850.25
533.699,2391.8
534.204,4693.05
534.708,4843.1
535.213,5110.5
535.717,5365.9
536.222,5234.4
536.726,5327.15
537.231,5470.25
537.735,5620.55
538.239,5612.5
538.743,5572.9
539.247,5804.3
539.751,5882.2
540.255,5956.95
540.759,6016.65
541.263,6072.75
541.767,6028.4
542.271,6157.65
542.775,6217.2
543.279,6435.45
543.782,6344.35
544.286,6381.45
544.789,6486.35
545.293,6573.25
545.796,6598.8
546.3,6809.15
546.803,6795.85
547.306,6836.8
547.81,6905.0
548.313,7000.8
548.816,6982.75
549.319,7230.95
549.822,7037.15
550.325,7235.2
550.828,7233.1
551.331,7368.6
551.834,7561.3
552.337,7666.6
552.839,7549.55
553.342,7646.7
553.844,7803.2
554.347,7958.7
554.849,7921.35
555.352,7932.95
555.854,8072.1
556.357,8023.6
556.859,8247.45
557.361,8139.95
557.863,8230.1
558.365,8370.7
558.867,8423.55
559.369,8489.65
559.871,8653.25
560.373,8541.95
560.875,8725.15
561.377,8741.0
561.878,8944.8
562.38,8902.15
562.881,8873.25
563.383,8962.55
563.884,9196.85
564.386,9175.0
564.887,9228.8
565.388,9300.55
565.89,9304.3
566.391,9474.15
566.892,9355.6
567.393,9441.65
567.894,9660.3
568.395,9711.1
568.896,9633.25
569.396,9891.55
569.897,9907.2
570.398,9836.65
570.898,9968.45
571.399,10153.7
571.9,10299.8
572.4,10366.3
572.9,10306.6
573.401,10331.3
573.901,10332.8
574.401,10303.3
574.901,10306.3
575.401,10666.6
575.901,10557.3
576.401,10904.3
576.901,10715.8
577.401,10807.1
577.901,10837.5
578.4,10687.2
578.9,10701.6
579.399,10983.8
579.899,11027.7
580.398,11408.0
580.898,11155.2
581.397,11206.8
581.896,11198.5
582.395,11257.1
582.895,11236.5
583.394,11381.2
583.893,11565.0
584.391,11371.5
584.89,11521.2
585.389,11586.9
585.888,11218.8
586.386,11665.5
586.885,11509.2
587.384,11939.4
587.882,11888.8
588.38,11632.3
588.879,11869.9
589.377,11888.8
589.875,11968.0
590.373,11955.5
590.871,11851.1
591.369,12012.3
591.867,12225.9
592.365,12394.5
592.863,11986.5
593.361,12404.5
593.858,12382.0
594.356,12202.7
594.853,12423.7
595.351,12549.0
595.848,12685.5
596.345,12847.2
596.843,12998.2
597.34,12860.8
597.837,12946.3
598.334,12787.2
598.831,13138.8
599.328,12998.5
599.824,13007.6
600.321,12862.5
600.818,13067.0
601.314,13251.6
601.811,13437.8
602.307,13270.3
602.804,13263.8
603.3,13391.2
603.796,13463.0
604.293,13618.5
604.789,13483.8
605.285,13609.7
605.781,14084.7
606.277,13642.8
606.772,13731.1
607.268,13711.2
607.764,13815.0
608.259,14097.5
608.755,14139.3
609.25,14038.2
609.746,13960.3
610.241,14242.5
610.736,14070.3
611.231,14265.4
611.727,14360.3
612.222,14043.9
612.716,14328.2
613.211,14337.7
613.706,14755.2
614.201,14581.7
614.695,14456.0
615.19,14670.2
615.684,14523.4
616.179,14500.3
616.673,14750.5
617.168,14594.2
617.662,14747.0
618.156,14751.0
618.65,14839.5
619.144,14881.0
619.638,15113.3
620.131,15200.0
620.625,15142.0
621.119,15157.0
621.612,14963.1
622.106,15241.1
622.599,14999.6
623.093,15357.2
623.586,15465.5
624.079,15378.1
624.572,15428.5
625.065,15368.7
625.558,15112.7
626.051,15085.0
626.544,15291.0
627.037,15280.8
627.529,15429.4
628.022,15477.8
628.514,15100.0
629.007,15563.0
629.499,15547.3
629.991,15524.7
630.483,15326.3
630.976,15563.8
631.468,15759.1
631.959,15284.8
632.451,15697.8
632.943,15640.5
633.435,15446.3
633.926,15757.5
634.418,15584.9
634.909,15540.5
635.401,15258.2
635.892,15721.1
636.383,15317.5
636.874,15433.7
637.365,15565.1
637.856,15641.1
638.347,15638.8
638.838,15162.2
639.329,15589.8
639.819,15592.0
640.31,15227.5
640.8,15477.8
641.291,15293.5
641.781,15263.5
642.271,15380.2
642.761,15440.2
643.251,15402.3
643.741,15648.1
644.231,15307.2
644.721,14866.2
645.211,15432.0
645.7,15285.5
646.19,15072.4
646.679,15442.5
647.169,15157.2
647.658,15227.8
648.147,14970.4
648.636,14822.6
649.125,14551.5
649.614,14743.5
650.103,14448.0
650.592,14797.7
651.08,14622.0
651.569,14934.7
652.058,14303.8
652.546,14408.0
653.034,14263.4
653.523,14496.2
654.011,13589.2
654.499,14010.0
654.987,13806.6
655.475,13900.8
655.963,14078.4
656.45,14537.8
656.938,13163.6
657.425,13864.5
657.913,13537.1
658.4,13162.5
658.888,13408.3
659.375,13450.3
659.862,12775.4
660.349,12860.0
660.836,13091.5
661.079,12724.1