File: spectra/VLFR_08-PLA_bio_Raman_d43f5bcc.csv
nm,Intensity
526.547,833.85
527.095,832.8
527.642,833.3
528.189,832.25
528.736,832.05
529.283,832.7
529.829,832.55
530.376,832.6
530.922,832.95
531.468,831.85
532.014,833.5
532.56,833.0
533.106,832.55
533.651,835.25
534.196,997.25
534.742,970.9
535.287,953.95
535.832,941.95
536.376,937.85
536.921,941.2
537.465,933.6
538.01,934.75
538.554,929.8
539.098,928.7
539.642,926.6
540.186,928.1
540.729,938.6
541.273,938.5
541.816,936.1
542.36,931.95
542.903,936.2
543.446,951.0
543.988,960.65
544.531,942.25
545.074,940.25
545.616,936.4
546.158,938.1
546.701,939.3
547.243,938.85
547.785,942.65
548.326,943.25
548.868,940.85
549.41,947.2
549.951,946.85
550.492,946.55
551.034,951.3
551.575,953.95
552.116,955.6
552.656,957.55
553.197,956.65
553.738,958.2
554.278,960.05
554.819,959.3
555.359,954.6
555.899,953.8
556.439,951.45
556.979,956.2
557.519,962.1
558.058,1044.95
558.598,975.65
559.137,965.7
559.677,969.15
560.216,964.65
560.755,963.9
561.294,961.85
561.833,960.75
562.371,966.55
562.91,967.6
563.449,996.25
563.987,980.5
564.525,974.1
565.064,987.65
565.602,984.6
566.14,1004.85
566.678,985.15
567.216,972.85
567.753,977.35
568.291,976.7
568.828,978.7
569.366,979.05
569.903,976.6
570.44,979.75
570.977,979.65
571.514,991.15
572.051,990.15
572.588,987.65
573.125,989.45
573.661,994.8
574.198,992.25
574.734,999.95
575.271,987.15
575.807,990.55
576.343,999.45
576.879,1034.35
577.415,996.45
577.951,992.45
578.486,988.1
579.022,989.45
579.557,992.5
580.093,986.5
580.628,988.0
581.164,988.5
581.699,989.15
582.234,986.9
582.769,993.45
583.304,992.75
583.838,992.9
584.373,989.6
584.908,992.45
585.442,995.15
585.977,996.9
586.511,1004.95
587.045,1026.85
587.58,1045.6
588.114,1007.95
588.648,996.55
589.182,993.55
589.715,992.6
590.249,993.1
590.783,996.15
591.316,994.95
591.85,992.7
592.383,990.3
592.917,991.75
593.45,991.45
593.983,991.75
594.516,989.45
595.049,990.25
595.582,993.4
596.115,994.25
596.648,995.05
597.18,996.5
597.713,994.45
598.245,994.45
598.778,989.8
599.31,994.05
599.842,990.75
600.375,991.1
600.907,990.1
601.439,990.4
601.971,988.65
602.503,987.2
603.034,990.65
603.566,989.2
604.098,988.7
604.629,985.75
605.161,984.85
605.692,981.05
606.224,981.95
606.755,977.55
607.286,981.85
607.817,985.95
608.348,982.55
608.879,979.85
609.41,984.1
609.941,978.3
610.472,979.65
611.002,976.45
611.533,978.0
612.063,976.8
612.594,977.35
613.124,983.8
613.655,981.9
614.185,984.35
614.715,982.9
615.245,979.15
615.775,980.5
616.305,979.4
616.835,980.9
617.365,979.85
617.895,980.1
618.425,978.3
618.954,977.35
619.484,978.05
620.013,976.1
620.543,973.7
621.072,973.2
621.602,971.45
622.131,977.75
622.66,983.5
623.189,986.1
623.718,978.7
624.247,977.85
624.776,975.45
625.305,977.55
625.834,971.95
626.363,972.45
626.891,972.15
627.42,973.65
627.949,981.45
628.477,1028.7
629.006,1012.95
629.534,1011.95
630.062,1016.4
630.591,1059.7
631.119,1318.65
631.647,1139.75
632.175,1056.9
632.703,1047.25
633.231,1099.5
633.759,1074.95
634.287,1009.25
634.815,978.0
635.343,967.2
635.871,963.1
636.398,959.6
636.926,957.35
637.454,959.5
637.981,956.85
638.509,953.1
639.036,953.15
639.564,953.4
640.091,952.85
640.618,952.65
641.146,950.7
641.673,953.3
642.2,951.35
642.727,950.85
643.254,948.55
643.781,950.5
644.308,945.25
644.835,943.7
645.362,940.9
645.889,939.3
646.416,939.55
646.942,942.35
647.469,941.2
647.996,937.4
648.522,937.65
649.049,936.5
649.576,935.05
650.102,935.85
650.629,936.4
651.155,930.9
651.682,932.05
652.208,934.4
652.734,934.95
653.261,932.6
653.787,931.2
654.313,928.75
654.839,929.1
655.365,927.7
655.892,928.05
656.418,928.75
656.944,928.45
657.47,928.7
657.996,926.3
658.522,925.8
659.048,925.65
659.574,924.05
660.099,923.45
660.625,924.5
661.151,921.75
661.677,921.1
662.203,921.1
662.728,919.55
663.123,918.35