File: spectra/VLFR_07-PET_bio_Raman_1741f093.csv
nm,Intensity
791.496,11192.7
792.594,10490.7
793.692,10081.3
794.79,9846.6
795.888,9803.4
796.986,9683.5
798.083,9627.4
799.181,9696.6
800.278,9560.3
801.375,9668.3
802.473,9454.5
803.57,9314.6
804.667,9175.8
805.764,9187.5
806.86,9146.1
807.957,8973.2
809.054,8962.6
810.15,8853.1
811.246,8867.6
812.343,8709.5
813.439,8678.3
814.535,8608.1
815.631,8549.5
816.727,8412.9
817.822,8362.5
818.918,8270.2
820.013,8114.9
821.109,8108.2
822.204,8051.0
823.299,7907.1
824.394,7863.6
825.489,8100.6
826.584,7769.2
827.679,7630.0
828.774,7614.2
829.868,7562.6
830.963,7529.5
832.057,7373.1
833.151,7371.1
834.245,7293.8
835.339,7293.9
836.433,7298.0
837.527,7300.1
838.621,7235.2
839.714,7153.7
840.808,7377.6
841.901,7152.2
842.994,7086.2
844.087,6897.2
845.18,6836.4
846.273,6827.0
847.366,6747.6
848.458,6652.8
849.551,6714.8
850.643,6659.3
851.735,6644.8
852.828,6548.0
853.92,6550.7
855.012,6492.2
856.103,6459.9
857.195,6392.4
858.287,6478.3
859.378,6559.4
860.469,6450.2
861.56,6321.2
862.651,6200.1
863.742,6238.9
864.833,6264.6
865.924,6145.8
867.014,6069.4
868.105,6071.6
869.195,6011.8
870.285,6142.2
871.376,6183.5
872.465,6274.6
873.555,6265.5
874.645,6019.7
875.735,5935.1
876.824,5864.0
877.913,5831.6
879.002,5798.2
880.092,5763.8
881.18,5778.0
882.269,5760.3
883.358,5709.1
884.446,5675.2
885.535,5653.9
886.623,5593.5
887.711,5545.4
888.799,5529.6
889.887,5485.5
890.975,5509.4
892.062,5422.9
893.15,5414.1
894.237,5380.2
895.325,5344.5
896.412,5386.9
897.499,5690.1
898.585,5755.2
899.672,5406.0
900.759,5177.0
901.845,5160.7
902.931,5112.0
904.017,5105.8
905.103,5098.9
906.189,5269.0
907.275,5486.2
908.361,5288.1
909.446,5064.9
910.531,4948.9
911.616,4911.4
912.701,4875.1
913.786,4836.2
914.871,4785.8
915.956,4790.2
917.04,4728.7
918.124,4719.1
919.209,4691.8
920.293,4655.0
921.376,4624.9
922.46,4612.3
923.544,4577.6
924.627,4559.0
925.711,4529.3
926.794,4514.9
927.877,4508.9
928.96,4459.3
930.042,4413.9
931.125,4434.1
932.207,4400.9
933.29,4362.0
934.372,4352.4
935.454,4307.3
936.536,4301.5
937.617,4293.6
938.699,4290.0
939.78,4264.6
940.861,4247.6
941.943,4227.4
943.023,4200.9
944.104,4189.7
945.185,4163.6
946.265,4165.9
947.346,4158.0
948.426,4126.0
949.506,4115.2
950.586,4103.7
951.665,4086.2
952.745,4083.9
953.824,4059.4
954.904,4054.9
955.983,4037.2
957.062,4024.6
958.141,4007.4
959.219,4004.1
960.298,3988.2
961.376,3985.2
962.454,3977.8
963.532,3963.5
964.61,3951.9
965.688,3956.3
966.765,3941.6
967.842,3929.0
968.92,3924.4
969.997,3923.7
971.074,3906.6
972.15,3905.9
973.227,3891.5
974.303,3886.8
975.379,3887.8
976.455,3882.7
977.531,3872.9
978.607,3862.0
979.683,3855.8
980.758,3854.3
981.833,3844.1
982.908,3843.0
983.983,3833.2
985.058,3828.4
986.133,3823.7
987.207,3823.0
988.281,3817.9
989.355,3813.5
990.429,3806.4
991.503,3801.8
992.577,3799.4
993.65,3793.9
994.723,3792.0
995.796,3791.2
996.869,3784.8
997.942,3783.5
999.014,3781.7
1000.09,3780.4
1001.16,3772.1
1002.23,3773.0
1003.3,3767.7
1004.37,3768.2
1005.45,3761.5
1006.52,3760.0
1007.59,3758.2
1008.66,3758.6
1009.73,3750.6
1010.8,3753.1
1011.87,3749.6
1012.94,3752.1
1014.01,3751.8
1015.08,3746.0
1016.15,3746.4
1017.22,3742.2
1018.29,3740.6
1019.36,3742.7
1020.43,3744.1
1021.5,3744.0
1022.57,3747.3
1023.64,3737.5
1024.7,3737.0
1025.77,3735.3
1026.84,3730.1
1027.91,3728.9
1028.97,3727.4
1030.04,3724.1
1031.11,3724.6
1032.18,3724.4
1033.24,3725.4
1034.31,3728.0
1035.38,3728.4
1036.44,3720.4
1037.51,3723.0
1038.58,3718.4
1039.64,3716.6
1040.71,3719.1
1041.77,3716.8
1042.84,3714.1
1043.9,3715.7
1044.97,3714.4
1046.03,3711.4
1047.1,3713.4
1048.16,3714.0
1049.22,3713.7
1050.29,3710.8
1051.35,3712.3
1052.42,3709.2
1053.48,3710.8
1054.54,3711.5
1055.61,3710.8
1056.67,3711.2
1057.73,3711.5
1058.79,3710.3
1059.86,3709.2
1060.92,3712.5
1061.98,3709.9
1063.04,3707.9
1064.1,3709.3
1065.16,3709.4
1066.22,3709.6
1067.29,3707.5
1068.08,3706.2