File: spectra/VLFR_01-LDPE_bio_Raman_eb101ddc.csv
nm,Intensity
526.495,829.1
527.042,827.6
527.589,829.6
528.136,831.1
528.682,828.0
529.229,829.3
529.775,830.6
530.321,829.5
530.867,829.7
531.413,828.0
531.959,831.0
532.505,828.5
533.051,828.2
533.596,830.0
534.141,906.4
534.687,892.3
535.232,878.2
535.777,869.7
536.321,861.2
536.866,860.3
537.41,857.9
537.955,861.0
538.499,855.6
539.043,857.5
539.587,854.4
540.131,850.6
540.675,849.4
541.219,850.6
541.762,848.4
542.305,848.8
542.849,847.7
543.392,849.7
543.935,848.2
544.478,845.6
545.02,847.0
545.563,846.0
546.106,845.7
546.648,846.7
547.19,845.3
547.732,844.7
548.274,846.6
548.816,843.7
549.358,846.3
549.9,844.6
550.441,845.5
550.983,845.5
551.524,847.7
552.065,844.8
552.606,848.8
553.147,846.9
553.688,848.8
554.229,850.4
554.769,848.0
555.31,850.9
555.85,851.3
556.391,851.5
556.931,855.7
557.471,856.8
558.011,858.6
558.551,857.1
559.09,855.0
559.63,854.2
560.169,852.4
560.709,852.0
561.248,853.8
561.787,859.8
562.326,853.7
562.865,859.3
563.404,863.7
563.943,917.2
564.481,882.5
565.02,872.7
565.558,870.2
566.096,947.7
566.634,875.2
567.172,864.8
567.71,862.9
568.248,861.8
568.786,860.3
569.324,862.2
569.861,862.8
570.399,868.2
570.936,876.8
571.473,973.4
572.01,903.2
572.547,882.1
573.084,874.0
573.621,875.7
574.158,881.8
574.694,876.3
575.231,882.8
575.767,931.9
576.303,1003.8
576.84,966.9
577.376,933.0
577.912,910.2
578.448,909.7
578.984,912.4
579.519,915.5
580.055,926.0
580.59,934.9
581.126,939.2
581.661,945.9
582.196,951.2
582.731,959.6
583.267,970.4
583.801,970.9
584.336,981.5
584.871,985.1
585.406,986.4
585.94,998.5
586.475,1004.5
587.009,1013.6
587.543,1019.2
588.078,1024.2
588.612,1035.8
589.146,1042.6
589.68,1056.4
590.214,1061.7
590.747,1075.9
591.281,1072.3
591.815,1084.6
592.348,1088.6
592.881,1090.2
593.415,1097.4
593.948,1101.8
594.481,1101.5
595.014,1109.6
595.547,1116.8
596.08,1134.0
596.613,1130.0
597.146,1140.1
597.678,1140.7
598.211,1155.9
598.743,1158.4
599.276,1169.2
599.808,1167.5
600.34,1173.5
600.872,1171.8
601.404,1168.7
601.936,1166.2
602.468,1162.6
603.0,1152.8
603.532,1139.3
604.064,1134.1
604.595,1118.1
605.127,1102.3
605.658,1086.1
606.189,1079.8
606.721,1070.9
607.252,1068.6
607.783,1060.8
608.314,1049.1
608.845,1039.8
609.376,1034.5
609.907,1027.9
610.438,1022.9
610.968,1015.1
611.499,1021.8
612.029,1008.7
612.56,1012.3
613.09,1008.3
613.621,1009.0
614.151,997.7
614.681,1001.4
615.211,996.0
615.741,989.3
616.271,984.0
616.801,982.3
617.331,986.5
617.861,986.0
618.39,980.1
618.92,978.2
619.45,975.7
619.979,980.2
620.509,978.7
621.038,977.3
621.567,983.2
622.096,1004.0
622.626,999.2
623.155,979.7
623.684,972.3
624.213,975.0
624.742,972.6
625.271,972.6
625.799,978.0
626.328,1003.1
626.857,1195.9
627.386,1602.8
627.914,1356.1
628.443,1517.0
628.971,1435.5
629.5,1337.4
630.028,1244.3
630.556,1224.4
631.084,1092.4
631.613,1029.6
632.141,1000.5
632.669,988.6
633.197,982.0
633.725,984.2
634.253,983.2
634.781,978.4
635.308,980.0
635.836,983.5
636.364,980.5
636.891,981.4
637.419,982.5
637.947,987.0
638.474,984.9
639.002,987.8
639.529,984.9
640.056,990.4
640.584,990.6
641.111,995.2
641.638,997.6
642.165,1001.0
642.692,1003.1
643.219,1003.5
643.746,1006.3
644.273,1002.6
644.8,1001.5
645.327,1002.4
645.854,1012.1
646.381,1005.1
646.908,1009.5
647.434,1010.7
647.961,1012.3
648.488,1007.5
649.014,1007.9
649.541,1006.7
650.067,1003.8
650.594,1004.2
651.12,1007.0
651.646,1009.4
652.173,1006.2
652.699,1005.8
653.225,1010.2
653.752,1006.7
654.278,1006.5
654.804,1003.5
655.33,1007.0
655.856,1001.7
656.382,997.4
656.908,998.0
657.434,997.8
657.96,993.7
658.486,991.0
659.012,986.0
659.538,977.8
660.064,974.3
660.589,966.9
661.115,966.0
661.641,959.7
662.166,952.7
662.692,947.2
663.086,946.9