File: spectra/VLFR_02-HDPE_bio_Raman_c3bc0a04.csv
nm,Intensity
526.547,831.65
527.095,831.25
527.642,830.4
528.189,832.15
528.736,832.35
529.283,831.8
529.829,831.65
530.376,832.75
530.922,832.25
531.468,831.25
532.014,842.7
532.56,832.65
533.106,832.95
533.651,833.15
534.196,895.85
534.742,885.9
535.287,878.9
535.832,876.25
536.376,873.4
536.921,872.95
537.465,873.4
538.01,871.8
538.554,872.4
539.098,869.8
539.642,868.25
540.186,864.3
540.729,863.15
541.273,862.8
541.816,864.55
542.36,869.45
542.903,865.4
543.446,864.85
543.988,865.45
544.531,865.5
545.074,870.65
545.616,882.0
546.158,869.35
546.701,865.3
547.243,867.4
547.785,866.3
548.326,867.4
548.868,869.55
549.41,869.45
549.951,876.85
550.492,870.75
551.034,867.35
551.575,868.65
552.116,867.5
552.656,866.3
553.197,866.75
553.738,868.3
554.278,868.25
554.819,868.75
555.359,867.05
555.899,867.35
556.439,867.2
556.979,865.45
557.519,868.35
558.058,867.3
558.598,868.0
559.137,867.25
559.677,867.9
560.216,868.0
560.755,870.45
561.294,882.2
561.833,906.3
562.371,870.15
562.91,872.7
563.449,874.0
563.987,879.35
564.525,874.5
565.064,873.9
565.602,872.8
566.14,881.65
566.678,873.45
567.216,870.6
567.753,871.35
568.291,871.9
568.828,872.05
569.366,874.2
569.903,872.65
570.44,872.1
570.977,871.4
571.514,880.3
572.051,873.85
572.588,871.6
573.125,873.0
573.661,873.35
574.198,875.8
574.734,873.25
575.271,873.8
575.807,875.1
576.343,882.35
576.879,879.4
577.415,877.95
577.951,875.7
578.486,877.5
579.022,878.1
579.557,877.0
580.093,877.35
580.628,876.75
581.164,879.4
581.699,879.9
582.234,877.35
582.769,880.25
583.304,881.95
583.838,882.85
584.373,884.4
584.908,880.45
585.442,879.55
585.977,882.55
586.511,883.25
587.045,883.7
587.58,884.5
588.114,884.2
588.648,884.8
589.182,885.9
589.715,885.85
590.249,885.5
590.783,887.4
591.316,888.3
591.85,887.7
592.383,887.65
592.917,889.55
593.45,886.8
593.983,890.5
594.516,891.9
595.049,892.35
595.582,891.3
596.115,891.45
596.648,894.4
597.18,894.4
597.713,894.55
598.245,899.55
598.778,900.65
599.31,900.0
599.842,898.75
600.375,898.35
600.907,900.95
601.439,899.75
601.971,899.8
602.503,901.75
603.034,899.95
603.566,899.3
604.098,896.8
604.629,897.25
605.161,897.65
605.692,892.65
606.224,891.7
606.755,892.4
607.286,888.65
607.817,890.55
608.348,890.9
608.879,891.0
609.41,890.05
609.941,887.05
610.472,887.0
611.002,885.9
611.533,886.75
612.063,886.95
612.594,888.15
613.124,886.95
613.655,889.9
614.185,886.95
614.715,882.55
615.245,885.75
615.775,884.35
616.305,885.0
616.835,883.3
617.365,884.5
617.895,884.25
618.425,884.8
618.954,884.15
619.484,883.9
620.013,881.75
620.543,882.85
621.072,880.7
621.602,884.6
622.131,886.3
622.66,884.0
623.189,882.35
623.718,882.4
624.247,881.2
624.776,881.1
625.305,882.2
625.834,881.15
626.363,883.0
626.891,904.1
627.42,931.25
627.949,909.45
628.477,932.25
629.006,913.45
629.534,904.9
630.062,896.7
630.591,896.15
631.119,887.55
631.647,883.6
632.175,881.65
632.703,878.55
633.231,880.45
633.759,879.1
634.287,879.7
634.815,878.7
635.343,877.1
635.871,878.2
636.398,880.95
636.926,880.4
637.454,881.5
637.981,879.85
638.509,879.9
639.036,879.5
639.564,882.9
640.091,883.8
640.618,884.25
641.146,886.1
641.673,889.6
642.2,889.4
642.727,892.1
643.254,891.7
643.781,895.7
644.308,894.15
644.835,893.55
645.362,895.7
645.889,896.1
646.416,897.55
646.942,899.5
647.469,902.55
647.996,904.15
648.522,908.05
649.049,906.5
649.576,911.0
650.102,914.05
650.629,910.8
651.155,911.35
651.682,909.35
652.208,904.5
652.734,902.5
653.261,900.35
653.787,893.95
654.313,895.0
654.839,890.65
655.365,887.9
655.892,886.65
656.418,884.4
656.944,884.2
657.47,881.8
657.996,880.85
658.522,877.5
659.048,876.05
659.574,874.55
660.099,875.6
660.625,869.75
661.151,871.45
661.677,869.15
662.203,870.75
662.728,866.8
663.123,865.35