File: spectra/VLFR_06-PET_nobio_Raman_2c7260cc.csv
nm,Intensity
526.5,830.6
527.047,829.7
527.594,829.7
528.14,830.5
528.687,829.1
529.233,828.8
529.779,829.5
530.325,829.2
530.871,828.6
531.417,829.1
531.962,838.4
532.508,831.3
533.053,830.9
533.599,838.7
534.144,1981.1
534.689,1661.2
535.234,1350.5
535.778,1162.5
536.323,1041.2
536.867,998.7
537.412,975.3
537.956,973.2
538.5,978.0
539.044,976.8
539.588,995.0
540.132,995.2
540.675,958.0
541.219,950.7
541.762,945.5
542.305,946.1
542.848,945.2
543.391,944.0
543.934,955.3
544.477,948.2
545.02,950.9
545.562,954.1
546.105,955.3
546.647,956.9
547.189,959.3
547.731,962.8
548.273,965.8
548.815,966.6
549.356,967.5
549.898,976.2
550.439,985.9
550.981,991.1
551.522,982.4
552.063,982.5
552.604,992.4
553.145,1004.1
553.686,995.4
554.226,988.1
554.767,998.7
555.307,1010.0
555.848,1055.4
556.388,1059.8
556.928,1067.8
557.468,1200.5
558.008,1102.0
558.547,1096.7
559.087,1056.0
559.626,1028.2
560.166,1026.6
560.705,1032.6
561.244,1038.2
561.783,1045.7
562.322,1059.2
562.861,1074.0
563.4,1074.5
563.939,1063.5
564.477,1071.3
565.015,1122.5
565.554,1182.6
566.092,1181.5
566.63,1097.9
567.168,1084.3
567.706,1161.0
568.244,1097.9
568.781,1094.4
569.319,1100.1
569.857,1125.8
570.394,1177.7
570.931,1294.5
571.468,1399.2
572.005,1255.4
572.542,1155.0
573.079,1136.4
573.616,1140.0
574.153,1167.0
574.689,1152.1
575.226,1183.6
575.762,1162.0
576.298,1183.1
576.834,1204.9
577.371,1174.5
577.907,1169.6
578.442,1172.9
578.978,1173.3
579.514,1181.9
580.049,1190.9
580.585,1199.3
581.12,1208.6
581.656,1290.0
582.191,2417.6
582.726,1265.0
583.261,1220.2
583.796,1212.9
584.331,1233.9
584.865,1240.3
585.4,1340.1
585.935,1831.1
586.469,1594.6
587.004,1288.0
587.538,1252.7
588.072,1243.6
588.606,1245.0
589.14,1246.8
589.674,1238.3
590.208,1245.4
590.742,1240.5
591.275,1253.2
591.809,1251.1
592.342,1246.6
592.876,1243.9
593.409,1246.1
593.942,1249.6
594.476,1259.4
595.009,1267.0
595.542,1265.9
596.075,1266.5
596.607,1274.1
597.14,1275.5
597.673,1280.1
598.205,1279.7
598.738,1277.9
599.27,1282.6
599.803,1287.7
600.335,1278.9
600.867,1280.6
601.399,1275.6
601.931,1275.2
602.463,1283.9
602.995,1291.2
603.527,1285.8
604.058,1291.0
604.59,1279.3
605.122,1285.2
605.653,1284.2
606.184,1277.1
606.716,1274.8
607.247,1275.7
607.778,1285.0
608.309,1286.1
608.84,1290.2
609.371,1296.8
609.902,1295.3
610.433,1284.1
610.964,1295.2
611.494,1293.3
612.025,1286.6
612.556,1304.1
613.086,1317.2
613.616,1319.0
614.147,1309.3
614.677,1314.7
615.207,1320.1
615.737,1322.4
616.267,1319.0
616.797,1338.1
617.327,1334.3
617.857,1343.8
618.387,1341.5
618.917,1355.3
619.446,1343.0
619.976,1337.9
620.505,1343.3
621.035,1334.3
621.564,1337.0
622.093,1343.5
622.623,1361.1
623.152,1363.4
623.681,1361.8
624.21,1367.3
624.739,1385.4
625.268,1382.4
625.797,1383.1
626.326,1388.5
626.855,1398.2
627.383,1390.0
627.912,1403.9
628.441,1421.3
628.969,1443.3
629.498,1450.9
630.026,1451.1
630.554,1457.9
631.083,1503.7
631.611,1649.8
632.139,1632.8
632.667,1562.4
633.195,1540.5
633.724,1521.5
634.252,1501.4
634.779,1493.6
635.307,1507.3
635.835,1564.6
636.363,1703.0
636.891,1700.9
637.418,1562.4
637.946,1529.8
638.474,1526.3
639.001,1523.9
639.529,1533.5
640.056,1537.4
640.583,1544.7
641.111,1548.4
641.638,1554.7
642.165,1570.5
642.692,1564.9
643.22,1559.4
643.747,1550.8
644.274,1559.1
644.801,1556.3
645.328,1574.3
645.854,1567.2
646.381,1566.3
646.908,1591.9
647.435,1596.2
647.962,1601.2
648.488,1577.4
649.015,1594.4
649.542,1580.1
650.068,1596.8
650.595,1596.7
651.121,1595.7
651.648,1592.5
652.174,1586.8
652.7,1598.1
653.227,1610.0
653.753,1604.6
654.279,1610.8
654.805,1603.1
655.331,1611.2
655.858,1603.5
656.384,1613.0
656.91,1607.1
657.436,1611.7
657.962,1606.0
658.488,1620.3
659.013,1606.8
659.539,1607.7
660.065,1614.2
660.591,1617.4
661.117,1613.0
661.642,1591.6
662.168,1607.5
662.694,1606.0
663.088,1600.0