File: spectra/VLFR_01-LDPE_bio_Raman_2096398d.csv
nm,Intensity
526.508,828.6
527.055,829.6
527.602,830.0
528.149,830.3
528.695,829.3
529.241,829.8
529.787,830.8
530.334,829.5
530.879,830.9
531.425,829.6
531.971,833.3
532.516,830.2
533.062,829.9
533.607,830.1
534.152,900.3
534.697,884.8
535.242,874.8
535.786,866.4
536.331,858.8
536.876,859.4
537.42,856.1
537.964,857.2
538.508,857.8
539.052,858.5
539.596,854.0
540.14,849.4
540.683,847.9
541.227,849.1
541.77,848.3
542.313,846.4
542.856,848.4
543.399,847.8
543.942,847.2
544.485,845.7
545.027,845.9
545.57,844.9
546.112,845.6
546.654,846.5
547.196,845.8
547.738,845.2
548.28,844.6
548.822,844.7
549.363,844.6
549.905,844.5
550.446,844.5
550.988,845.1
551.529,847.3
552.07,845.4
552.611,845.4
553.152,844.7
553.692,847.4
554.233,848.1
554.773,849.0
555.314,849.6
555.854,850.3
556.394,851.9
556.934,852.5
557.474,854.3
558.014,858.0
558.553,861.3
559.093,857.3
559.632,855.7
560.172,854.4
560.711,854.6
561.25,854.5
561.789,855.4
562.328,857.7
562.867,861.3
563.406,866.0
563.944,913.6
564.483,889.2
565.021,883.8
565.559,875.1
566.098,947.3
566.636,881.0
567.174,869.7
567.711,872.8
568.249,870.2
568.787,873.5
569.324,875.5
569.862,880.5
570.399,886.9
570.936,891.5
571.474,978.8
572.011,926.9
572.548,906.5
573.084,904.1
573.621,909.9
574.158,922.2
574.694,915.2
575.231,929.8
575.767,986.9
576.303,1051.1
576.84,1028.3
577.376,1011.4
577.912,999.4
578.447,1012.4
578.983,1023.3
579.519,1040.1
580.054,1064.6
580.59,1077.2
581.125,1105.4
581.661,1122.2
582.196,1135.4
582.731,1155.6
583.266,1169.1
583.801,1184.4
584.336,1195.3
584.87,1207.7
585.405,1222.1
585.94,1238.8
586.474,1259.5
587.008,1274.4
587.543,1293.2
588.077,1308.1
588.611,1325.2
589.145,1337.0
589.679,1356.8
590.213,1379.9
590.747,1391.6
591.28,1419.7
591.814,1428.0
592.347,1438.2
592.881,1445.4
593.414,1448.3
593.947,1463.8
594.48,1466.9
595.014,1482.5
595.547,1489.1
596.079,1503.0
596.612,1510.2
597.145,1529.7
597.678,1536.2
598.21,1554.1
598.743,1558.2
599.275,1572.4
599.807,1571.0
600.34,1572.8
600.872,1570.2
601.404,1560.8
601.936,1544.9
602.468,1544.3
603.0,1530.1
603.532,1510.1
604.063,1484.3
604.595,1464.9
605.126,1428.9
605.658,1396.7
606.189,1375.4
606.721,1350.0
607.252,1343.7
607.783,1315.4
608.314,1300.7
608.845,1285.5
609.376,1270.2
609.907,1260.6
610.438,1246.1
610.968,1230.3
611.499,1223.3
612.03,1214.9
612.56,1202.7
613.091,1205.7
613.621,1198.1
614.151,1189.4
614.681,1181.2
615.212,1171.1
615.742,1158.7
616.272,1150.1
616.802,1153.0
617.332,1146.8
617.861,1142.5
618.391,1143.5
618.921,1126.4
619.45,1129.9
619.98,1126.4
620.509,1123.0
621.039,1132.7
621.568,1132.3
622.097,1148.0
622.627,1143.5
623.156,1126.1
623.685,1115.0
624.214,1118.5
624.743,1123.3
625.272,1121.2
625.801,1135.9
626.33,1151.0
626.858,1306.4
627.387,1694.3
627.916,1479.4
628.444,1603.0
628.973,1572.7
629.501,1481.4
630.029,1405.2
630.558,1386.1
631.086,1274.4
631.614,1202.5
632.142,1186.1
632.67,1171.0
633.198,1164.0
633.726,1161.8
634.254,1167.5
634.782,1175.7
635.31,1179.6
635.838,1188.6
636.365,1187.3
636.893,1180.6
637.421,1190.8
637.948,1186.4
638.476,1197.6
639.003,1193.7
639.531,1195.8
640.058,1203.4
640.585,1208.5
641.113,1209.8
641.64,1222.1
642.167,1217.2
642.694,1227.7
643.221,1224.0
643.748,1216.9
644.275,1232.6
644.802,1228.0
645.329,1228.5
645.856,1224.3
646.382,1232.7
646.909,1243.0
647.436,1236.1
647.962,1230.6
648.489,1235.6
649.016,1227.2
649.542,1223.2
650.069,1224.2
650.595,1225.1
651.121,1220.8
651.648,1219.9
652.174,1224.1
652.7,1219.7
653.227,1223.8
653.753,1222.4
654.279,1217.1
654.805,1210.8
655.331,1210.7
655.857,1205.5
656.383,1205.0
656.909,1193.8
657.435,1189.7
657.961,1178.0
658.487,1170.0
659.013,1160.0
659.538,1158.3
660.064,1149.5
660.59,1137.4
661.116,1127.5
661.641,1104.7
662.167,1106.5
662.692,1088.8
663.087,1083.7