File: spectra/VLFR_01-LDPE_nobio_Raman_ba917de7.csv
cm-1,Intensity
-123.878,1852.3
-105.821,1852.05
-87.8007,1852.8
-69.8161,1853.4
-51.8675,1853.35
-33.9547,1854.4
-16.0776,1896.3
1.76388,4280.4
19.5698,1854.4
37.3403,1853.25
55.0755,1919.9
72.7754,2090.2
90.4402,2085.65
108.07,2064.0
125.665,2063.15
143.225,2044.1
160.75,2038.75
178.241,2041.5
195.697,2041.3
213.119,2045.75
230.506,2070.35
247.859,2071.9
265.178,2042.25
282.463,2035.4
299.713,2028.0
316.93,2030.65
334.113,2037.45
351.263,2037.9
368.379,2046.45
385.461,2034.9
402.51,2035.2
419.526,2021.4
436.508,2028.05
453.458,2018.0
470.374,2032.1
487.257,2021.6
504.107,2025.6
520.925,2019.35
537.71,2025.15
554.462,2033.35
571.182,2024.6
587.87,2026.1
604.525,2026.5
621.148,2027.55
637.739,2029.45
654.297,2032.0
670.824,2035.85
687.319,2036.0
703.782,2021.0
720.213,2025.65
736.613,2022.65
752.981,2027.85
769.317,2036.45
785.623,2025.8
801.897,2027.0
818.139,2028.9
834.351,2032.3
850.532,2041.5
866.681,2046.3
882.8,2042.65
898.888,2045.8
914.945,2039.5
930.972,2036.15
946.968,2043.35
962.934,2036.95
978.869,2041.55
994.774,2053.05
1010.65,2044.85
1026.49,2063.6
1042.31,2067.45
1058.09,2200.95
1073.85,2117.4
1089.57,2107.95
1105.27,2081.75
1120.93,2144.95
1136.57,2137.05
1152.18,2074.45
1167.75,2086.75
1183.3,2068.9
1198.82,2071.55
1214.31,2067.45
1229.77,2075.5
1245.2,2082.3
1260.6,2087.3
1275.97,2110.55
1291.32,2314.65
1306.63,2196.0
1321.92,2130.1
1337.18,2105.2
1352.41,2110.4
1367.61,2101.95
1382.78,2095.4
1397.93,2079.15
1413.05,2140.55
1428.14,2221.95
1443.2,2376.15
1458.23,2275.45
1473.23,2161.1
1488.21,2101.0
1503.16,2091.85
1518.08,2086.85
1532.97,2090.1
1547.84,2083.9
1562.68,2094.15
1577.49,2094.25
1592.27,2088.45
1607.03,2102.15
1621.76,2095.7
1636.46,2099.5
1651.14,2101.5
1665.78,2107.9
1680.41,2099.75
1695.0,2110.8
1709.57,2112.9
1724.11,2104.55
1738.62,2127.05
1753.11,2121.85
1767.57,2138.5
1782.01,2149.7
1796.41,2144.8
1810.8,2136.45
1825.15,2135.0
1839.48,2155.55
1853.79,2157.15
1868.06,2176.35
1882.31,2164.0
1896.54,2164.4
1910.74,2182.75
1924.91,2170.95
1939.06,2184.25
1953.19,2180.6
1967.28,2185.5
1981.35,2192.15
1995.4,2199.95
2009.42,2199.2
2023.42,2215.85
2037.39,2230.35
2051.33,2235.85
2065.25,2230.85
2079.15,2241.45
2093.01,2244.55
2106.86,2273.2
2120.68,2261.85
2134.47,2270.15
2148.24,2269.65
2161.99,2263.65
2175.71,2262.6
2189.41,2271.2
2203.08,2240.7
2216.73,2238.25
2230.35,2245.4
2243.95,2221.7
2257.52,2211.3
2271.07,2217.8
2284.6,2195.15
2298.1,2193.4
2311.58,2184.3
2325.03,2165.45
2338.46,2163.8
2351.87,2157.1
2365.25,2152.5
2378.61,2147.7
2391.94,2129.05
2405.26,2139.6
2418.54,2127.85
2431.81,2147.2
2445.05,2133.7
2458.27,2127.85
2471.46,2110.8
2484.63,2113.2
2497.78,2104.4
2510.9,2119.95
2524.0,2119.35
2537.08,2100.65
2550.14,2101.95
2563.17,2099.95
2576.18,2105.45
2589.17,2119.5
2602.13,2116.9
2615.07,2122.1
2627.99,2109.0
2640.89,2124.05
2653.76,2121.75
2666.61,2133.8
2679.44,2126.55
2692.25,2140.25
2705.03,2186.15
2717.79,2236.25
2730.53,2198.75
2743.25,2125.2
2755.94,2116.25
2768.61,2108.6
2781.27,2098.4
2793.89,2120.25
2806.5,2139.0
2819.09,2175.8
2831.65,2444.0
2844.19,3936.9
2856.71,3912.85
2869.21,3407.0
2881.69,4281.2
2894.14,3477.7
2906.58,3253.85
2918.99,3007.45
2931.38,2928.25
2943.75,2560.05
2956.1,2255.7
2968.42,2181.55
2980.73,2137.2
2993.01,2101.3
3005.28,2094.65
3017.52,2079.9
3029.74,2062.5
3041.94,2071.6
3054.12,2062.95
3066.28,2059.3
3078.42,2057.25
3090.54,2057.85
3102.63,2048.65
3114.71,2046.5
3126.77,2044.85
3138.8,2044.4
3150.82,2046.45
3162.81,2047.85
3174.78,2054.25
3186.74,2040.95
3198.67,2040.3
3210.58,2041.0
3222.47,2047.05
3234.35,2053.0
3246.2,2046.75
3258.03,2049.9
3269.84,2040.8
3281.64,2047.6
3293.41,2048.35
3305.16,2050.5
3316.89,2037.8
3328.61,2040.5
3340.3,2039.4
3351.97,2044.4
3363.63,2040.45
3375.26,2038.2
3386.88,2037.0
3398.47,2034.65
3410.05,2039.95
3421.6,2040.8
3433.14,2036.95
3444.66,2034.35
3456.15,2038.55
3467.63,2035.05
3479.09,2031.25
3490.53,2021.0
3501.96,2035.05
3513.36,2025.4
3524.74,2016.45
3536.11,2025.65
3547.45,2010.5
3558.78,2010.5
3570.09,2014.45
3581.37,2005.05
3592.64,2008.35
3603.9,2008.75
3615.13,1999.95
3626.34,1996.15
3637.54,1991.1
3648.72,1990.75
3659.87,1982.4
3665.45,1986.65