File: spectra/VLFR_08-PLA_nobio_Raman_dd1ac37e.csv
nm,Intensity
526.5,829.3
527.047,829.5
527.594,829.0
528.14,828.8
528.687,828.9
529.233,829.1
529.779,829.2
530.325,829.1
530.871,829.3
531.417,829.9
531.962,836.5
532.508,831.3
533.053,829.2
533.599,829.7
534.144,891.9
534.689,885.0
535.234,875.2
535.778,874.5
536.323,871.6
536.867,872.4
537.412,870.2
537.956,869.3
538.5,868.9
539.044,867.7
539.588,865.9
540.132,869.5
540.675,872.1
541.219,872.2
541.762,871.6
542.305,874.6
542.848,872.8
543.391,876.1
543.934,881.3
544.477,874.5
545.02,873.9
545.562,871.1
546.105,872.5
546.647,872.5
547.189,873.5
547.731,874.7
548.273,875.2
548.815,872.8
549.356,875.3
549.898,876.6
550.439,875.5
550.981,881.0
551.522,880.3
552.063,881.6
552.604,880.4
553.145,880.5
553.686,878.6
554.226,880.7
554.767,879.1
555.307,880.3
555.848,880.4
556.388,879.5
556.928,880.6
557.468,885.5
558.008,908.6
558.547,885.4
559.087,887.6
559.626,886.9
560.166,883.6
560.705,884.9
561.244,885.4
561.783,882.7
562.322,884.8
562.861,883.6
563.4,893.7
563.939,887.7
564.477,888.4
565.015,893.8
565.554,890.6
566.092,902.9
566.63,893.4
567.168,889.4
567.706,888.5
568.244,888.6
568.781,887.4
569.319,892.8
569.857,890.9
570.394,889.1
570.931,891.4
571.468,895.2
572.005,897.2
572.542,894.2
573.079,898.5
573.616,898.8
574.153,896.9
574.689,900.7
575.226,897.1
575.762,897.9
576.298,894.9
576.834,910.7
577.371,901.0
577.907,894.2
578.442,894.2
578.978,898.9
579.514,896.8
580.049,897.0
580.585,897.1
581.12,897.0
581.656,895.4
582.191,898.1
582.726,898.8
583.261,896.4
583.796,900.8
584.331,898.6
584.865,898.6
585.4,900.0
585.935,903.6
586.469,903.4
587.004,908.7
587.538,922.2
588.072,905.8
588.606,899.6
589.14,898.5
589.674,898.6
590.208,900.1
590.742,902.3
591.275,902.7
591.809,898.5
592.342,898.2
592.876,898.8
593.409,897.3
593.942,898.0
594.476,902.6
595.009,901.1
595.542,900.0
596.075,899.3
596.607,898.5
597.14,902.2
597.673,896.7
598.205,898.4
598.738,901.9
599.27,900.8
599.803,900.2
600.335,899.4
600.867,901.5
601.399,898.3
601.931,901.0
602.463,901.1
602.995,900.2
603.527,896.2
604.058,900.7
604.59,899.8
605.122,896.0
605.653,897.0
606.184,894.3
606.716,895.3
607.247,894.6
607.778,894.4
608.309,895.9
608.84,895.4
609.371,894.7
609.902,897.1
610.433,895.5
610.964,893.4
611.494,892.2
612.025,893.1
612.556,897.2
613.086,898.5
613.616,899.6
614.147,893.3
614.677,897.1
615.207,896.8
615.737,899.0
616.267,895.5
616.797,894.3
617.327,895.8
617.857,895.8
618.387,894.6
618.917,894.7
619.446,896.3
619.976,894.7
620.505,896.4
621.035,896.5
621.564,895.6
622.093,896.4
622.623,896.6
623.152,901.1
623.681,894.9
624.21,895.1
624.739,897.1
625.268,893.6
625.797,894.0
626.326,890.9
626.855,892.2
627.383,892.8
627.912,897.0
628.441,911.1
628.969,906.9
629.498,905.7
630.026,909.8
630.554,929.0
631.083,1030.9
631.611,964.8
632.139,928.1
632.667,919.9
633.195,938.9
633.724,937.8
634.252,908.7
634.779,900.3
635.307,890.3
635.835,892.8
636.363,889.7
636.891,890.8
637.418,889.7
637.946,889.8
638.474,885.3
639.001,885.6
639.529,886.8
640.056,887.8
640.583,884.1
641.111,883.6
641.638,885.6
642.165,886.0
642.692,885.0
643.22,885.4
643.747,882.3
644.274,881.7
644.801,881.4
645.328,879.2
645.854,884.6
646.381,878.8
646.908,882.2
647.435,881.1
647.962,878.3
648.488,883.2
649.015,880.2
649.542,879.3
650.068,877.6
650.595,879.9
651.121,878.2
651.648,879.1
652.174,879.9
652.7,877.7
653.227,876.6
653.753,877.5
654.279,876.1
654.805,877.8
655.331,878.7
655.858,876.0
656.384,876.9
656.91,876.0
657.436,876.4
657.962,873.4
658.488,874.8
659.013,876.7
659.539,874.1
660.065,877.1
660.591,875.8
661.117,871.8
661.642,872.1
662.168,871.9
662.694,872.9
663.088,872.8