File: spectra/VLFR_02-HDPE_nobio_Raman_f1248eeb.csv
nm,Intensity
526.508,831.1
527.055,831.3
527.602,829.9
528.149,831.2
528.695,831.6
529.241,830.0
529.787,830.4
530.334,831.3
530.879,831.3
531.425,830.0
531.971,834.4
532.516,831.9
533.062,830.7
533.607,832.2
534.152,908.5
534.697,908.3
535.242,906.6
535.786,869.8
536.331,859.3
536.876,854.8
537.42,856.6
537.964,853.6
538.508,852.8
539.052,848.1
539.596,848.1
540.14,845.1
540.683,845.3
541.227,844.9
541.77,844.7
542.313,842.4
542.856,843.8
543.399,842.7
543.942,842.0
544.485,842.4
545.027,842.4
545.57,841.5
546.112,843.8
546.654,845.4
547.196,842.2
547.738,843.8
548.28,841.9
548.822,842.0
549.363,842.4
549.905,842.7
550.446,842.5
550.988,840.8
551.529,843.8
552.07,842.4
552.611,842.6
553.152,845.4
553.692,845.6
554.233,844.8
554.773,847.7
555.314,846.2
555.854,847.6
556.394,850.6
556.934,851.3
557.474,853.3
558.014,856.9
558.553,853.2
559.093,850.2
559.632,853.4
560.172,852.4
560.711,851.7
561.25,848.8
561.789,853.5
562.328,853.5
562.867,853.5
563.406,856.2
563.944,949.3
564.483,881.8
565.021,873.9
565.559,863.2
566.098,948.6
566.636,867.1
567.174,865.9
567.711,869.5
568.249,856.4
568.787,855.6
569.324,858.9
569.862,858.6
570.399,862.6
570.936,869.1
571.474,1008.9
572.011,893.4
572.548,870.2
573.084,862.3
573.621,861.5
574.158,872.9
574.694,863.4
575.231,869.1
575.767,920.2
576.303,1052.7
576.84,965.5
577.376,941.6
577.912,884.3
578.447,877.5
578.983,879.5
579.519,883.2
580.054,881.8
580.59,883.1
581.125,887.9
581.661,887.4
582.196,892.4
582.731,892.9
583.266,899.0
583.801,907.4
584.336,904.2
584.87,913.2
585.405,919.8
585.94,922.9
586.474,932.3
587.008,943.7
587.543,948.2
588.077,955.4
588.611,960.4
589.145,971.9
589.679,981.7
590.213,990.7
590.747,998.7
591.28,1005.6
591.814,1023.8
592.347,1019.5
592.881,1032.5
593.414,1035.9
593.947,1049.4
594.48,1058.1
595.014,1069.7
595.547,1075.8
596.079,1088.3
596.612,1095.9
597.145,1113.0
597.678,1126.1
598.21,1129.8
598.743,1151.7
599.275,1154.8
599.807,1169.4
600.34,1168.4
600.872,1179.0
601.404,1185.4
601.936,1189.1
602.468,1190.9
603.0,1187.0
603.532,1187.8
604.063,1182.7
604.595,1175.5
605.126,1162.7
605.658,1157.5
606.189,1144.9
606.721,1142.4
607.252,1144.4
607.783,1132.2
608.314,1127.4
608.845,1124.4
609.376,1116.3
609.907,1114.0
610.438,1108.4
610.968,1098.1
611.499,1101.7
612.03,1093.9
612.56,1095.5
613.091,1092.6
613.621,1084.5
614.151,1081.7
614.681,1084.1
615.212,1070.1
615.742,1070.6
616.272,1065.1
616.802,1065.0
617.332,1069.3
617.861,1068.3
618.391,1060.3
618.921,1052.4
619.45,1053.0
619.98,1055.3
620.509,1049.9
621.039,1048.7
621.568,1065.4
622.097,1103.0
622.627,1097.6
623.156,1046.2
623.685,1031.3
624.214,1020.8
624.743,1019.5
625.272,1016.6
625.801,1029.9
626.33,1074.5
626.858,1478.7
627.387,2195.1
627.916,1668.3
628.444,2104.5
628.973,1631.7
629.501,1466.9
630.029,1315.8
630.558,1274.7
631.086,1110.1
631.614,1012.8
632.142,993.9
632.67,979.3
633.198,975.1
633.726,967.7
634.254,962.5
634.782,961.1
635.31,963.5
635.838,954.7
636.365,954.3
636.893,955.6
637.421,950.7
637.948,948.5
638.476,948.0
639.003,947.1
639.531,951.3
640.058,946.3
640.585,942.5
641.113,948.4
641.64,951.4
642.167,948.9
642.694,951.2
643.221,946.2
643.748,952.2
644.275,953.3
644.802,954.6
645.329,953.5
645.856,956.6
646.382,960.3
646.909,954.0
647.436,961.1
647.962,966.3
648.489,958.1
649.016,959.1
649.542,967.3
650.069,965.0
650.595,966.5
651.121,966.1
651.648,961.0
652.174,966.4
652.7,971.1
653.227,968.2
653.753,967.6
654.279,966.4
654.805,971.1
655.331,971.8
655.857,964.6
656.383,967.6
656.909,968.7
657.435,965.8
657.961,966.5
658.487,963.3
659.013,960.6
659.538,961.3
660.064,962.6
660.59,956.6
661.116,954.3
661.641,948.3
662.167,943.4
662.692,941.9
663.087,938.0