File: spectra/VLFR_02-HDPE_bio_Raman_c933d7a3.csv
nm,Intensity
528.626,1868.6
529.132,1870.3
529.637,1869.5
530.143,1869.7
530.648,1869.7
531.153,1873.3
531.658,1907.3
532.164,3677.8
532.669,1871.8
533.174,1871.0
533.679,1934.1
534.184,2137.4
534.689,2144.8
535.194,2155.7
535.699,2129.6
536.203,2123.5
536.708,2044.7
537.213,2090.9
537.717,2041.5
538.222,2083.1
538.726,2025.5
539.231,2011.1
539.735,2003.5
540.239,1995.7
540.744,2012.9
541.248,2013.9
541.752,2011.6
542.256,2014.8
542.76,2007.8
543.264,2012.5
543.768,2072.2
544.272,2193.5
544.776,2025.9
545.28,2028.5
545.784,2033.6
546.287,2233.0
546.791,2135.4
547.294,2042.7
547.798,2025.1
548.301,2038.5
548.805,2038.0
549.308,2075.1
549.811,2090.4
550.315,2168.3
550.818,2042.9
551.321,2030.7
551.824,2062.7
552.327,2029.1
552.83,2019.9
553.333,2041.6
553.835,2042.4
554.338,2044.3
554.841,2051.5
555.343,2040.8
555.846,2045.7
556.349,2054.0
556.851,2055.6
557.353,2072.4
557.856,2058.2
558.358,2087.2
558.86,2070.1
559.362,2076.5
559.864,2063.5
560.366,2063.8
560.868,2084.3
561.37,2110.6
561.872,2257.4
562.374,4197.3
562.876,2168.2
563.377,2123.3
563.879,2441.1
564.38,2212.1
564.882,2175.0
565.383,2146.6
565.885,2321.2
566.386,2487.6
566.887,2159.2
567.388,2185.0
567.889,2110.5
568.391,2098.4
568.892,2099.1
569.392,2104.3
569.893,2107.6
570.394,2122.5
570.895,2141.6
571.395,2640.1
571.896,2285.8
572.397,2147.5
572.897,2126.0
573.397,2112.9
573.898,2145.8
574.398,2106.8
574.898,2129.4
575.398,2310.2
575.898,2335.1
576.398,2647.9
576.898,2462.8
577.398,2305.6
577.898,2159.4
578.398,2137.3
578.897,2128.5
579.397,2132.4
579.896,2150.9
580.396,2140.4
580.895,2135.1
581.395,2149.3
581.894,2151.9
582.393,2147.7
582.892,2161.3
583.391,2156.8
583.89,2171.9
584.389,2170.5
584.888,2169.6
585.387,2201.2
585.886,2183.9
586.384,2206.9
586.883,2216.1
587.381,2237.5
587.88,2240.1
588.378,2248.5
588.876,2251.6
589.375,2257.9
589.873,2267.6
590.371,2288.7
590.869,2300.7
591.367,2324.8
591.865,2350.8
592.363,2338.6
592.86,2350.4
593.358,2378.9
593.856,2360.1
594.353,2373.8
594.851,2406.1
595.348,2404.9
595.845,2432.9
596.342,2459.0
596.84,2450.7
597.337,2463.4
597.834,2466.6
598.331,2493.2
598.828,2507.1
599.324,2517.3
599.821,2539.5
600.318,2551.3
600.814,2552.7
601.311,2558.6
601.807,2579.1
602.304,2596.3
602.8,2603.1
603.296,2619.4
603.792,2630.4
604.288,2623.1
604.784,2634.7
605.28,2641.6
605.776,2634.3
606.272,2643.7
606.767,2678.8
607.263,2628.1
607.759,2655.3
608.254,2675.4
608.749,2653.5
609.245,2661.6
609.74,2670.7
610.235,2689.5
610.73,2691.5
611.225,2702.5
611.72,2684.8
612.215,2715.3
612.71,2656.4
613.204,2699.5
613.699,2674.3
614.194,2661.6
614.688,2673.5
615.182,2668.9
615.677,2670.9
616.171,2652.0
616.665,2691.2
617.159,2690.3
617.653,2670.4
618.147,2687.2
618.641,2651.9
619.135,2678.1
619.628,2675.7
620.122,2612.2
620.615,2651.3
621.109,2696.4
621.602,2725.6
622.095,2811.6
622.589,2734.1
623.082,2618.9
623.575,2553.9
624.068,2548.2
624.561,2563.9
625.053,2536.0
625.546,2550.4
626.039,2619.4
626.531,3090.1
627.024,5337.8
627.516,5071.3
628.008,4313.5
628.501,6278.7
628.993,4332.7
629.485,3801.0
629.977,3431.2
630.469,3324.8
630.96,2890.8
631.452,2536.1
631.944,2453.8
632.435,2408.5
632.927,2375.9
633.418,2367.9
633.91,2357.0
634.401,2329.2
634.892,2327.1
635.383,2309.4
635.874,2311.0
636.365,2293.3
636.856,2286.3
637.346,2272.9
637.837,2269.4
638.327,2263.1
638.818,2251.7
639.308,2238.3
639.799,2239.7
640.289,2256.4
640.779,2239.8
641.269,2225.6
641.759,2233.3
642.249,2232.0
642.738,2252.8
643.228,2223.8
643.718,2214.5
644.207,2249.3
644.697,2215.3
645.186,2234.7
645.675,2232.5
646.164,2230.4
646.653,2235.0
647.142,2239.9
647.631,2221.6
648.12,2247.2
648.609,2247.0
649.098,2291.8
649.586,2381.5
650.075,2414.5
650.563,2331.1
651.051,2258.0
651.539,2229.7
652.027,2221.3
652.515,2217.1
653.003,2204.1
653.491,2190.5
653.979,2202.7
654.467,2173.3
654.954,2172.9
655.442,2163.9
655.929,2145.4
656.416,2154.5
656.904,2138.8
657.391,2148.4
657.878,2130.9
658.365,2135.8
658.851,2131.9
659.338,2118.5
659.825,2125.5
660.311,2115.4
660.798,2109.2
661.041,2122.3