File: spectra/VLFR_02-HDPE_nobio_Raman_0d52ff72.csv
nm,Intensity
526.532,833.45
527.079,833.7
527.625,834.1
528.172,834.55
528.718,833.2
529.265,832.55
529.811,833.8
530.357,832.95
530.903,833.35
531.449,832.8
531.994,837.65
532.54,833.9
533.085,832.85
533.63,834.15
534.176,906.45
534.721,901.85
535.266,897.45
535.81,877.6
536.355,873.2
536.9,869.35
537.444,871.75
537.988,871.65
538.533,867.55
539.077,866.8
539.621,865.9
540.165,865.65
540.708,863.55
541.252,863.95
541.795,865.45
542.339,865.2
542.882,866.15
543.425,866.8
543.968,865.85
544.511,867.0
545.054,866.35
545.597,866.4
546.139,868.65
546.682,867.3
547.224,868.25
547.766,868.1
548.308,869.85
548.85,869.4
549.392,869.85
549.934,868.25
550.475,868.6
551.017,868.0
551.558,869.45
552.1,869.15
552.641,869.0
553.182,871.35
553.723,870.75
554.264,871.55
554.804,871.9
555.345,869.25
555.885,874.15
556.426,872.15
556.966,875.6
557.506,874.9
558.046,878.0
558.586,877.3
559.126,876.7
559.665,877.35
560.205,877.45
560.745,877.85
561.284,876.85
561.823,879.8
562.362,878.0
562.901,882.5
563.44,885.8
563.979,971.65
564.518,899.85
565.056,893.95
565.595,891.45
566.133,978.6
566.671,891.7
567.21,888.55
567.748,890.25
568.285,884.05
568.823,884.4
569.361,886.95
569.899,890.7
570.436,891.0
570.974,894.65
571.511,1056.3
572.048,910.25
572.585,894.45
573.122,893.9
573.659,892.95
574.196,899.55
574.733,894.9
575.269,900.1
575.806,934.05
576.342,1052.0
576.878,978.95
577.414,951.7
577.951,917.95
578.486,915.6
579.022,917.6
579.558,922.8
580.094,927.85
580.629,930.7
581.165,937.4
581.7,944.3
582.236,950.4
582.771,959.2
583.306,961.7
583.841,971.15
584.376,975.65
584.911,984.4
585.445,994.85
585.98,1002.1
586.514,1008.5
587.049,1017.35
587.583,1024.75
588.117,1030.95
588.651,1039.15
589.186,1042.7
589.72,1048.5
590.253,1053.55
590.787,1059.3
591.321,1063.15
591.854,1070.85
592.388,1075.75
592.921,1079.6
593.455,1082.75
593.988,1086.4
594.521,1093.3
595.054,1097.3
595.587,1111.5
596.12,1119.65
596.653,1124.7
597.186,1138.2
597.718,1144.2
598.251,1152.65
598.783,1169.25
599.316,1176.45
599.848,1181.05
600.38,1186.15
600.912,1186.45
601.444,1187.35
601.976,1184.4
602.508,1179.15
603.04,1173.0
603.572,1166.95
604.103,1156.65
604.635,1145.55
605.167,1133.55
605.698,1114.35
606.229,1103.3
606.761,1091.65
607.292,1083.0
607.823,1075.85
608.354,1070.55
608.885,1060.05
609.416,1054.5
609.947,1046.6
610.477,1040.55
611.008,1039.35
611.539,1034.05
612.069,1026.35
612.6,1023.85
613.13,1020.25
613.66,1017.8
614.19,1018.0
614.721,1008.65
615.251,1009.55
615.781,1005.25
616.311,999.45
616.841,1004.95
617.37,1000.7
617.9,1003.35
618.43,1001.7
618.96,994.5
619.489,998.3
620.019,997.25
620.548,994.9
621.077,995.45
621.607,1012.7
622.136,1048.8
622.665,1035.25
623.194,996.6
623.723,987.55
624.252,987.55
624.781,984.8
625.31,986.05
625.839,997.9
626.368,1037.95
626.896,1418.1
627.425,1859.25
627.953,1470.6
628.482,1906.3
629.01,1495.45
629.539,1367.4
630.067,1242.0
630.596,1212.3
631.124,1069.55
631.652,1001.0
632.18,984.8
632.708,986.05
633.236,981.2
633.764,978.0
634.292,975.05
634.82,977.05
635.348,975.6
635.876,975.85
636.403,977.65
636.931,977.55
637.459,974.65
637.986,973.65
638.514,976.05
639.041,974.85
639.568,977.2
640.096,980.0
640.623,978.5
641.15,982.3
641.678,983.3
642.205,986.35
642.732,984.5
643.259,985.3
643.786,987.1
644.313,984.15
644.84,988.45
645.367,990.25
645.894,991.75
646.421,990.3
646.948,989.95
647.474,989.6
648.001,993.95
648.528,994.9
649.054,993.25
649.581,994.8
650.108,998.25
650.634,996.1
651.161,997.85
651.687,997.95
652.214,1000.05
652.74,1002.15
653.266,1000.25
653.793,1000.3
654.319,999.45
654.845,998.1
655.371,1000.7
655.897,998.75
656.424,995.35
656.95,994.4
657.476,992.8
658.002,990.5
658.528,987.4
659.054,985.8
659.58,981.45
660.106,976.75
660.631,974.45
661.157,967.8
661.683,961.75
662.209,959.1
662.735,953.5
663.129,950.65