File: spectra/VLFR_07-PET_nobio_Raman_9f1794c8.csv
nm,Intensity
791.75,16379.8
792.846,15303.4
793.942,14547.5
795.037,14397.7
796.133,14192.9
797.228,14243.3
798.324,14092.8
799.419,14213.3
800.514,14053.8
801.61,13926.7
802.705,13667.3
803.8,13554.8
804.894,13323.0
805.989,13364.5
807.084,13174.4
808.178,12960.1
809.273,12820.8
810.367,12617.0
811.461,12659.3
812.556,12624.6
813.65,12402.0
814.744,12331.3
815.837,12324.0
816.931,12046.3
818.025,11992.0
819.118,12022.8
820.212,11862.5
821.305,11764.0
822.398,11661.1
823.491,11469.8
824.585,11508.8
825.677,11829.8
826.77,11181.8
827.863,11007.0
828.956,11067.6
830.048,11018.8
831.14,10798.5
832.233,10489.5
833.325,10403.5
834.417,10106.0
835.509,10220.5
836.601,10249.3
837.692,10313.6
838.784,10031.5
839.876,10067.0
840.967,10365.2
842.058,9989.05
843.149,9912.05
844.24,9703.65
845.331,9319.35
846.422,9251.8
847.513,9133.4
848.604,9129.6
849.694,9031.8
850.784,8946.9
851.875,9037.1
852.965,8780.65
854.055,8947.7
855.145,8664.85
856.235,8596.4
857.324,8739.9
858.414,8823.9
859.503,8900.75
860.593,8656.85
861.682,8434.9
862.771,8392.4
863.86,8439.4
864.949,8282.45
866.038,8171.75
867.126,8113.95
868.215,8041.1
869.303,8109.1
870.391,8067.0
871.479,8357.95
872.567,8435.4
873.655,8362.4
874.743,7964.65
875.831,7687.5
876.918,7804.15
878.006,7461.95
879.093,7570.6
880.18,7485.85
881.267,7474.2
882.354,7368.8
883.441,7336.45
884.527,7360.35
885.614,7303.05
886.7,7127.45
887.786,7049.35
888.872,6944.85
889.958,6904.9
891.044,6956.95
892.13,6881.25
893.216,6730.65
894.301,6658.15
895.386,6621.2
896.472,6723.15
897.557,7401.0
898.642,7282.4
899.726,6572.5
900.811,6320.3
901.896,6236.0
902.98,6221.7
904.064,6263.9
905.148,6219.45
906.232,6519.35
907.316,6806.15
908.4,6429.75
909.484,6159.25
910.567,5907.25
911.65,5846.95
912.734,5740.35
913.817,5682.9
914.9,5599.8
915.982,5572.0
917.065,5586.7
918.147,5502.6
919.23,5437.15
920.312,5419.4
921.394,5344.1
922.476,5312.7
923.558,5321.9
924.639,5194.6
925.721,5179.65
926.802,5179.6
927.884,5124.65
928.965,5060.5
930.046,5058.45
931.126,5004.25
932.207,4970.15
933.288,4952.05
934.368,4830.65
935.448,4869.25
936.528,4825.15
937.608,4771.75
938.688,4755.25
939.767,4704.8
940.847,4688.3
941.926,4650.0
943.005,4606.1
944.084,4617.85
945.163,4561.7
946.242,4571.5
947.321,4544.9
948.399,4491.9
949.477,4474.8
950.556,4448.25
951.634,4433.8
952.711,4393.4
953.789,4383.85
954.867,4363.5
955.944,4331.6
957.021,4332.2
958.098,4299.2
959.175,4282.15
960.252,4278.25
961.328,4239.35
962.405,4231.9
963.481,4217.2
964.557,4196.65
965.633,4171.1
966.709,4153.7
967.785,4138.25
968.86,4131.2
969.936,4115.3
971.011,4105.55
972.086,4091.8
973.161,4069.3
974.235,4066.55
975.31,4064.9
976.384,4031.95
977.459,4031.85
978.533,4016.5
979.607,4006.1
980.68,3995.6
981.754,3995.1
982.827,3970.05
983.901,3965.35
984.974,3968.7
986.047,3944.9
987.119,3941.2
988.192,3936.9
989.264,3927.55
990.337,3917.8
991.409,3900.95
992.481,3905.6
993.553,3889.25
994.624,3881.4
995.696,3873.0
996.767,3869.9
997.838,3856.75
998.909,3857.35
999.98,3853.65
1001.05,3841.5
1002.12,3838.3
1003.19,3832.5
1004.26,3830.1
1005.33,3821.45
1006.4,3816.0
1007.47,3809.55
1008.54,3803.65
1009.61,3799.2
1010.68,3793.0
1011.75,3796.8
1012.82,3793.55
1013.88,3788.55
1014.95,3785.75
1016.02,3778.05
1017.09,3779.45
1018.16,3772.9
1019.22,3771.55
1020.29,3776.65
1021.36,3780.25
1022.43,3775.35
1023.49,3772.8
1024.56,3765.75
1025.63,3759.2
1026.69,3752.1
1027.76,3751.6
1028.83,3745.0
1029.89,3741.85
1030.96,3739.45
1032.02,3738.85
1033.09,3740.05
1034.15,3745.25
1035.22,3742.65
1036.28,3740.15
1037.35,3733.15
1038.41,3728.25
1039.48,3728.65
1040.54,3724.6
1041.6,3724.6
1042.67,3722.95
1043.73,3720.85
1044.79,3719.05
1045.86,3717.75
1046.92,3718.35
1047.98,3717.6
1049.05,3715.45
1050.11,3716.85
1051.17,3715.1
1052.23,3715.25
1053.29,3713.5
1054.36,3713.9
1055.42,3713.35
1056.48,3713.8
1057.54,3712.7
1058.6,3710.75
1059.66,3710.75
1060.72,3711.45
1061.78,3709.85
1062.84,3710.9
1063.9,3709.8
1064.96,3710.15
1066.02,3710.05
1067.08,3709.3
1067.88,3708.5