File: spectra/VLFR_08-PLA_nobio_Raman_7cffaca2.csv
nm,Intensity
526.5,829.1
527.047,828.2
527.594,829.4
528.14,830.0
528.687,829.7
529.233,829.5
529.779,831.4
530.325,828.7
530.871,828.5
531.417,828.1
531.962,834.6
532.508,829.6
533.053,829.3
533.599,830.8
534.144,1015.5
534.689,996.3
535.234,970.0
535.778,964.3
536.323,962.0
536.867,962.9
537.412,960.8
537.956,958.2
538.5,956.9
539.044,953.9
539.588,957.5
540.132,951.8
540.675,963.1
541.219,969.7
541.762,962.5
542.305,963.3
542.848,965.8
543.391,981.1
543.934,991.9
544.477,977.6
545.02,970.9
545.562,972.6
546.105,970.4
546.647,979.9
547.189,977.8
547.731,974.8
548.273,981.3
548.815,987.6
549.356,990.3
549.898,986.2
550.439,985.3
550.981,994.5
551.522,989.8
552.063,994.1
552.604,998.5
553.145,999.5
553.686,1000.2
554.226,1005.7
554.767,1000.5
555.307,1005.5
555.848,998.5
556.388,1006.0
556.928,1000.5
557.468,1010.9
558.008,1085.1
558.547,1021.2
559.087,1013.8
559.626,1016.0
560.166,1014.7
560.705,1015.1
561.244,1010.3
561.783,1009.1
562.322,1010.8
562.861,1020.0
563.4,1044.6
563.939,1027.7
564.477,1028.6
565.015,1044.4
565.554,1033.0
566.092,1056.5
566.63,1039.8
567.168,1027.8
567.706,1029.9
568.244,1031.6
568.781,1032.7
569.319,1034.6
569.857,1041.8
570.394,1036.2
570.931,1039.4
571.468,1044.2
572.005,1044.8
572.542,1051.7
573.079,1054.3
573.616,1057.0
574.153,1052.4
574.689,1061.6
575.226,1047.9
575.762,1044.1
576.298,1062.1
576.834,1092.1
577.371,1063.7
577.907,1049.9
578.442,1050.4
578.978,1049.0
579.514,1050.8
580.049,1050.1
580.585,1050.5
581.12,1052.8
581.656,1057.4
582.191,1050.6
582.726,1053.3
583.261,1060.5
583.796,1057.5
584.331,1056.3
584.865,1061.9
585.4,1063.5
585.935,1058.4
586.469,1064.8
587.004,1095.8
587.538,1107.8
588.072,1068.0
588.606,1062.6
589.14,1057.6
589.674,1065.5
590.208,1059.9
590.742,1062.5
591.275,1062.5
591.809,1058.5
592.342,1062.9
592.876,1058.4
593.409,1053.5
593.942,1059.7
594.476,1061.1
595.009,1065.8
595.542,1055.7
596.075,1063.0
596.607,1063.0
597.14,1062.3
597.673,1059.2
598.205,1062.8
598.738,1065.7
599.27,1063.7
599.803,1056.9
600.335,1063.4
600.867,1058.7
601.399,1057.3
601.931,1060.1
602.463,1063.4
602.995,1058.4
603.527,1055.2
604.058,1057.9
604.59,1056.7
605.122,1051.1
605.653,1055.3
606.184,1050.3
606.716,1045.8
607.247,1049.4
607.778,1052.4
608.309,1054.8
608.84,1052.1
609.371,1053.8
609.902,1047.3
610.433,1053.1
610.964,1046.3
611.494,1048.4
612.025,1048.3
612.556,1053.0
613.086,1055.9
613.616,1053.1
614.147,1057.1
614.677,1054.8
615.207,1058.6
615.737,1056.5
616.267,1051.8
616.797,1054.6
617.327,1056.1
617.857,1051.0
618.387,1052.9
618.917,1051.8
619.446,1052.8
619.976,1050.9
620.505,1048.5
621.035,1047.6
621.564,1049.3
622.093,1055.7
622.623,1053.0
623.152,1059.7
623.681,1058.1
624.21,1055.5
624.739,1053.1
625.268,1046.7
625.797,1043.3
626.326,1045.7
626.855,1048.4
627.383,1050.1
627.912,1050.4
628.441,1097.5
628.969,1084.6
629.498,1084.1
630.026,1098.9
630.554,1133.9
631.083,1409.3
631.611,1222.5
632.139,1132.8
632.667,1123.5
633.195,1180.5
633.724,1162.6
634.252,1089.9
634.779,1050.2
635.307,1036.9
635.835,1038.5
636.363,1033.9
636.891,1035.4
637.418,1033.0
637.946,1028.7
638.474,1027.3
639.001,1035.4
639.529,1027.9
640.056,1030.5
640.583,1026.8
641.111,1029.6
641.638,1022.8
642.165,1029.6
642.692,1019.5
643.22,1017.0
643.747,1021.6
644.274,1013.6
644.801,1010.5
645.328,1015.8
645.854,1015.0
646.381,1008.2
646.908,1013.0
647.435,1008.3
647.962,1008.7
648.488,1009.1
649.015,1005.3
649.542,1004.2
650.068,1001.7
650.595,1000.3
651.121,1001.2
651.648,997.9
652.174,1002.2
652.7,994.1
653.227,1000.6
653.753,998.4
654.279,996.0
654.805,993.8
655.331,994.4
655.858,991.6
656.384,995.5
656.91,997.3
657.436,991.2
657.962,991.3
658.488,993.6
659.013,987.8
659.539,990.7
660.065,987.6
660.591,984.4
661.117,987.8
661.642,983.1
662.168,979.7
662.694,982.9
663.088,983.5