File: spectra/VLFR_07-PET_nobio_Raman_20aa0ac4.csv
nm,Intensity
791.588,14509.6
792.685,13306.5
793.781,12558.5
794.878,12149.2
795.975,11940.0
797.071,12034.1
798.168,11962.1
799.264,11866.5
800.36,11837.5
801.456,11861.5
802.552,11822.6
803.648,11431.0
804.744,11217.3
805.84,11215.8
806.936,11132.9
808.031,11043.4
809.127,10989.8
810.222,10724.8
811.317,10603.1
812.412,10634.4
813.507,10485.8
814.602,10264.8
815.697,10216.1
816.792,10090.1
817.887,10035.3
818.981,9938.5
820.076,9844.8
821.17,9750.1
822.265,9681.7
823.359,9636.5
824.453,9551.5
825.547,9697.7
826.641,9552.2
827.735,9338.0
828.828,9261.9
829.922,9123.5
831.016,9263.2
832.109,8955.3
833.202,8915.0
834.295,8838.3
835.388,8719.0
836.481,8744.9
837.574,8786.3
838.667,8765.0
839.76,8625.3
840.852,8871.2
841.945,8948.0
843.037,8588.3
844.129,8408.3
845.221,8098.0
846.314,8064.3
847.405,8026.0
848.497,7868.7
849.589,7825.4
850.681,7727.2
851.772,7700.2
852.863,7802.4
853.955,7713.0
855.046,7559.0
856.137,7481.1
857.228,7479.3
858.318,7596.1
859.409,7599.0
860.5,7623.5
861.59,7432.0
862.681,7291.3
863.771,7206.6
864.861,7325.5
865.951,7174.9
867.041,7099.9
868.131,7013.2
869.22,7042.9
870.31,7138.2
871.399,7265.0
872.488,7449.8
873.578,7385.9
874.667,7102.9
875.756,7008.8
876.845,6866.2
877.933,6722.4
879.022,6734.5
880.11,6691.7
881.199,6589.9
882.287,6651.6
883.375,6610.4
884.463,6543.5
885.551,6601.3
886.639,6488.1
887.726,6392.7
888.814,6262.7
889.901,6339.0
890.988,6291.7
892.075,6233.6
893.162,6113.3
894.249,6068.3
895.336,6015.6
896.423,6061.5
897.509,6412.5
898.595,6861.8
899.682,6355.9
900.768,5973.2
901.854,5768.0
902.94,5720.8
904.025,5735.7
905.111,5625.4
906.196,5889.5
907.282,6222.0
908.367,6168.2
909.452,5815.7
910.537,5498.9
911.622,5360.5
912.706,5353.1
913.791,5336.8
914.875,5227.9
915.959,5206.9
917.044,5150.3
918.128,5141.0
919.211,5076.2
920.295,5066.2
921.379,4993.8
922.462,4994.7
923.546,4940.2
924.629,4914.4
925.712,4873.2
926.795,4849.5
927.877,4793.7
928.96,4786.0
930.043,4745.3
931.125,4712.0
932.207,4699.9
933.289,4645.5
934.371,4625.4
935.453,4587.2
936.535,4569.5
937.616,4529.9
938.697,4511.0
939.779,4512.6
940.86,4490.7
941.941,4437.7
943.022,4417.5
944.102,4419.3
945.183,4388.6
946.263,4364.8
947.343,4330.1
948.423,4343.1
949.503,4328.0
950.583,4285.5
951.663,4280.4
952.742,4270.8
953.822,4250.6
954.901,4232.4
955.98,4223.4
957.059,4200.1
958.137,4182.9
959.216,4178.3
960.294,4159.0
961.373,4148.3
962.451,4134.1
963.529,4127.9
964.607,4118.7
965.684,4088.8
966.762,4103.3
967.839,4070.8
968.917,4064.2
969.994,4053.0
971.071,4053.4
972.147,4039.6
973.224,4031.5
974.3,4022.8
975.377,4013.5
976.453,3997.4
977.529,3992.6
978.605,3994.3
979.68,3967.0
980.756,3972.8
981.831,3964.8
982.907,3950.1
983.982,3950.2
985.057,3952.2
986.131,3937.9
987.206,3934.0
988.28,3933.8
989.355,3923.8
990.429,3919.2
991.503,3908.8
992.576,3898.8
993.65,3897.7
994.723,3889.2
995.797,3890.6
996.87,3880.4
997.943,3881.0
999.016,3871.3
1000.09,3873.6
1001.16,3866.0
1002.23,3858.8
1003.31,3859.9
1004.38,3849.3
1005.45,3851.1
1006.52,3841.3
1007.59,3840.2
1008.66,3832.2
1009.73,3831.7
1010.81,3832.7
1011.88,3829.2
1012.95,3822.6
1014.02,3823.1
1015.09,3821.8
1016.16,3815.7
1017.23,3815.2
1018.3,3816.1
1019.37,3810.9
1020.44,3814.7
1021.51,3819.0
1022.58,3825.3
1023.64,3818.7
1024.71,3808.8
1025.78,3806.2
1026.85,3798.8
1027.92,3796.2
1028.99,3794.6
1030.05,3792.3
1031.12,3789.4
1032.19,3785.7
1033.26,3788.0
1034.32,3791.9
1035.39,3794.5
1036.46,3790.0
1037.52,3786.0
1038.59,3779.4
1039.66,3778.5
1040.72,3778.5
1041.79,3774.5
1042.86,3776.0
1043.92,3771.6
1044.99,3771.4
1046.05,3769.9
1047.12,3770.8
1048.18,3769.1
1049.25,3768.4
1050.31,3768.7
1051.37,3768.1
1052.44,3768.6
1053.5,3768.0
1054.57,3769.5
1055.63,3767.9
1056.69,3767.1
1057.76,3766.0
1058.82,3766.7
1059.88,3767.8
1060.95,3766.0
1062.01,3766.2
1063.07,3767.0
1064.13,3765.7
1065.19,3764.4
1066.26,3763.2
1067.32,3764.7
1068.11,3763.2