File: spectra/VLFR_07-PET_nobio_Raman_0d3e7455.csv
nm,Intensity
791.588,16239.0
792.685,14728.0
793.781,14059.9
794.878,13524.7
795.975,13325.2
797.071,13531.6
798.168,13293.1
799.264,13353.4
800.36,13217.7
801.456,13306.8
802.552,13281.5
803.648,13194.3
804.744,12849.2
805.84,12677.1
806.936,12365.2
808.031,12293.3
809.127,12309.8
810.222,12021.6
811.317,12084.0
812.412,11821.1
813.507,11690.1
814.602,11645.9
815.697,11414.5
816.792,11273.3
817.887,11139.7
818.981,11207.6
820.076,11053.8
821.17,10919.0
822.265,10837.1
823.359,10821.4
824.453,10671.6
825.547,10869.7
826.641,10557.8
827.735,10417.5
828.828,10279.0
829.922,10373.9
831.016,10460.9
832.109,10113.0
833.202,9984.5
834.295,9908.2
835.388,9747.2
836.481,9761.2
837.574,9845.5
838.667,9743.7
839.76,9720.1
840.852,9865.3
841.945,9848.0
843.037,9400.3
844.129,9279.0
845.221,9115.0
846.314,8904.6
847.405,8781.7
848.497,8806.1
849.589,8661.8
850.681,8575.9
851.772,8597.3
852.863,8560.8
853.955,8612.5
855.046,8442.8
856.137,8344.1
857.228,8203.4
858.318,8375.3
859.409,8477.1
860.5,8497.2
861.59,8214.0
862.681,8023.0
863.771,8027.2
864.861,8016.9
865.951,7891.1
867.041,7784.5
868.131,7668.0
869.22,7748.7
870.31,7786.1
871.399,7992.9
872.488,8089.2
873.578,8201.5
874.667,7815.6
875.756,7626.7
876.845,7468.1
877.933,7386.8
879.022,7300.3
880.11,7354.5
881.199,7229.1
882.287,7188.1
883.375,7263.9
884.463,7223.3
885.551,7104.5
886.639,7118.3
887.726,6921.6
888.814,6817.9
889.901,6828.6
890.988,6781.3
892.075,6777.5
893.162,6639.0
894.249,6592.5
895.336,6596.5
896.423,6572.6
897.509,6894.9
898.595,7452.3
899.682,6862.9
900.768,6305.4
901.854,6195.1
902.94,6171.1
904.025,6116.4
905.111,6089.0
906.196,6303.3
907.282,6678.0
908.367,6591.8
909.452,6287.2
910.537,5841.9
911.622,5772.4
912.706,5691.1
913.791,5586.0
914.875,5561.7
915.959,5513.3
917.044,5510.9
918.128,5447.5
919.211,5392.8
920.295,5343.7
921.379,5246.3
922.462,5279.3
923.546,5216.2
924.629,5155.3
925.712,5103.2
926.795,5115.7
927.877,5038.3
928.96,4986.6
930.043,4914.3
931.125,4917.6
932.207,4866.8
933.289,4823.4
934.371,4813.9
935.453,4776.6
936.535,4734.6
937.616,4705.3
938.697,4700.0
939.779,4654.9
940.86,4625.8
941.941,4615.0
943.022,4553.1
944.102,4536.4
945.183,4517.4
946.263,4495.9
947.343,4489.9
948.423,4461.0
949.503,4423.2
950.583,4396.5
951.663,4384.5
952.742,4351.7
953.822,4341.8
954.901,4326.2
955.98,4299.6
957.059,4277.3
958.137,4293.1
959.216,4277.4
960.294,4227.9
961.373,4212.4
962.451,4221.0
963.529,4209.9
964.607,4171.9
965.684,4172.7
966.762,4152.8
967.839,4153.7
968.917,4139.4
969.994,4124.3
971.071,4093.8
972.147,4086.0
973.224,4094.9
974.3,4075.2
975.377,4071.3
976.453,4052.3
977.529,4046.7
978.605,4040.7
979.68,4030.9
980.756,4008.2
981.831,4012.1
982.907,3989.6
983.982,3991.1
985.057,3977.4
986.131,3980.4
987.206,3974.0
988.28,3958.3
989.355,3947.9
990.429,3945.6
991.503,3933.3
992.576,3932.8
993.65,3926.8
994.723,3917.2
995.797,3916.9
996.87,3906.6
997.943,3895.2
999.016,3893.3
1000.09,3886.8
1001.16,3881.8
1002.23,3883.7
1003.31,3870.8
1004.38,3874.0
1005.45,3862.1
1006.52,3856.2
1007.59,3860.7
1008.66,3850.8
1009.73,3846.8
1010.81,3844.9
1011.88,3842.6
1012.95,3840.0
1014.02,3833.2
1015.09,3828.9
1016.16,3830.5
1017.23,3825.0
1018.3,3822.5
1019.37,3822.9
1020.44,3823.8
1021.51,3824.5
1022.58,3827.7
1023.64,3825.6
1024.71,3819.3
1025.78,3812.5
1026.85,3803.1
1027.92,3800.7
1028.99,3797.7
1030.05,3793.6
1031.12,3792.1
1032.19,3791.1
1033.26,3791.3
1034.32,3794.7
1035.39,3797.2
1036.46,3790.9
1037.52,3788.4
1038.59,3783.3
1039.66,3780.3
1040.72,3778.2
1041.79,3776.1
1042.86,3775.5
1043.92,3773.6
1044.99,3772.8
1046.05,3771.1
1047.12,3773.9
1048.18,3770.0
1049.25,3770.4
1050.31,3768.9
1051.37,3768.0
1052.44,3766.1
1053.5,3766.2
1054.57,3767.2
1055.63,3766.9
1056.69,3765.6
1057.76,3769.6
1058.82,3765.5
1059.88,3763.4
1060.95,3766.8
1062.01,3764.5
1063.07,3763.6
1064.13,3764.3
1065.19,3764.5
1066.26,3762.3
1067.32,3760.4
1068.11,3762.0