File: spectra/VLFR_01-LDPE_nobio_Raman_8f1ab1c6.csv
nm,Intensity
526.547,833.6
527.094,832.0
527.641,832.3
528.188,831.9
528.734,832.8
529.281,832.3
529.827,832.1
530.373,832.2
530.92,831.2
531.466,831.6
532.011,836.7
532.557,833.3
533.103,833.4
533.648,832.3
534.193,906.8
534.738,902.0
535.283,891.0
535.828,882.9
536.373,879.1
536.917,876.4
537.462,873.1
538.006,873.8
538.55,872.3
539.094,870.9
539.638,866.1
540.182,865.2
540.726,866.1
541.269,867.1
541.812,863.0
542.356,862.3
542.899,860.9
543.442,864.0
543.985,860.5
544.527,859.7
545.07,861.2
545.612,858.3
546.155,864.3
546.697,861.2
547.239,860.5
547.781,857.7
548.323,860.1
548.865,857.6
549.406,859.2
549.948,858.6
550.489,858.5
551.03,857.7
551.572,858.2
552.113,859.7
552.654,857.4
553.194,859.4
553.735,859.2
554.276,863.9
554.816,862.0
555.356,863.0
555.896,861.6
556.437,860.7
556.977,866.2
557.516,868.5
558.056,870.6
558.596,869.7
559.135,867.7
559.675,868.1
560.214,869.8
560.753,869.0
561.292,871.4
561.831,873.5
562.37,871.6
562.909,876.7
563.448,877.9
563.986,917.9
564.525,893.6
565.063,887.1
565.601,892.0
566.139,918.9
566.677,892.2
567.215,886.8
567.753,890.7
568.291,887.1
568.828,892.3
569.366,896.4
569.903,894.6
570.441,896.2
570.978,903.8
571.515,972.6
572.052,921.9
572.589,915.8
573.126,906.6
573.662,912.1
574.199,915.3
574.735,917.9
575.272,919.1
575.808,940.6
576.344,1012.2
576.88,979.0
577.416,961.4
577.952,951.1
578.488,954.4
579.024,959.7
579.559,961.9
580.095,971.8
580.63,978.3
581.166,987.3
581.701,989.4
582.236,1000.9
582.771,1012.5
583.306,1026.3
583.841,1028.5
584.376,1045.0
584.911,1049.4
585.445,1070.6
585.98,1084.6
586.514,1108.3
587.048,1111.9
587.583,1139.4
588.117,1163.4
588.651,1175.6
589.185,1196.6
589.719,1217.0
590.253,1233.7
590.786,1247.7
591.32,1274.4
591.853,1290.9
592.387,1308.5
592.92,1315.5
593.454,1323.6
593.987,1345.9
594.52,1373.6
595.053,1396.4
595.586,1416.2
596.119,1443.9
596.651,1476.4
597.184,1503.1
597.717,1534.6
598.249,1572.2
598.782,1604.1
599.314,1622.2
599.846,1641.1
600.379,1654.2
600.911,1660.3
601.443,1654.1
601.975,1645.9
602.507,1629.7
603.038,1608.2
603.57,1593.7
604.102,1572.4
604.633,1527.6
605.165,1488.8
605.696,1451.6
606.228,1423.1
606.759,1403.9
607.29,1371.7
607.821,1369.2
608.352,1343.4
608.883,1316.7
609.414,1299.2
609.945,1288.1
610.476,1270.4
611.006,1266.1
611.537,1254.6
612.067,1236.5
612.598,1238.5
613.128,1233.2
613.659,1227.7
614.189,1212.3
614.719,1210.1
615.249,1189.8
615.779,1186.6
616.309,1180.5
616.839,1174.9
617.369,1171.5
617.899,1169.5
618.428,1155.4
618.958,1145.1
619.487,1146.0
620.017,1140.5
620.546,1139.6
621.076,1131.4
621.605,1132.7
622.134,1149.6
622.663,1141.1
623.193,1125.0
623.722,1118.2
624.251,1108.3
624.78,1108.0
625.308,1110.1
625.837,1110.7
626.366,1128.6
626.895,1324.5
627.423,1599.9
627.952,1400.5
628.48,1610.4
629.009,1416.2
629.537,1344.3
630.065,1267.8
630.594,1260.1
631.122,1154.2
631.65,1116.1
632.178,1101.4
632.706,1085.0
633.234,1085.8
633.762,1077.1
634.29,1080.2
634.818,1084.1
635.346,1088.8
635.873,1087.3
636.401,1087.9
636.929,1095.0
637.456,1095.1
637.984,1103.7
638.511,1103.2
639.039,1105.0
639.566,1110.9
640.093,1117.6
640.62,1129.2
641.148,1137.4
641.675,1137.4
642.202,1144.9
642.729,1150.9
643.256,1156.9
643.783,1154.3
644.31,1150.8
644.837,1163.9
645.364,1161.7
645.891,1180.3
646.417,1175.0
646.944,1180.1
647.471,1182.2
647.997,1195.1
648.524,1185.0
649.051,1199.1
649.577,1197.6
650.104,1203.4
650.63,1209.2
651.157,1208.0
651.683,1216.6
652.209,1225.0
652.736,1223.7
653.262,1228.9
653.788,1231.7
654.314,1229.3
654.84,1233.9
655.366,1235.9
655.893,1226.9
656.419,1218.5
656.945,1218.1
657.471,1212.9
657.997,1214.3
658.522,1195.7
659.048,1186.2
659.574,1177.1
660.1,1169.1
660.626,1152.9
661.152,1135.2
661.677,1123.0
662.203,1114.2
662.729,1102.5
663.123,1100.1