File: spectra/VLFR_02-HDPE_nobio_Raman_aa962f45.csv
nm,Intensity
526.486,830.9
527.033,830.2
527.579,829.8
528.126,830.0
528.672,830.4
529.219,830.2
529.765,830.3
530.311,829.7
530.857,829.2
531.403,829.9
531.948,832.6
532.494,830.8
533.039,830.9
533.585,831.8
534.13,898.7
534.675,900.3
535.22,893.8
535.764,892.8
536.309,890.8
536.854,891.1
537.398,891.7
537.942,891.1
538.486,890.1
539.03,888.7
539.574,891.3
540.118,889.8
540.662,892.7
541.205,892.2
541.749,893.8
542.292,897.0
542.835,901.7
543.378,895.7
543.921,900.6
544.464,896.4
545.006,900.8
545.549,900.0
546.091,900.7
546.634,903.3
547.176,903.8
547.718,901.8
548.26,902.5
548.802,903.0
549.343,903.3
549.885,904.7
550.426,905.7
550.968,906.4
551.509,903.7
552.05,903.5
552.591,908.2
553.132,902.4
553.673,910.1
554.214,908.1
554.754,909.3
555.295,909.0
555.835,915.4
556.375,914.9
556.915,917.5
557.455,917.0
557.995,921.1
558.535,917.6
559.075,921.0
559.614,921.7
560.154,921.1
560.693,920.7
561.232,924.5
561.772,924.5
562.311,927.5
562.85,928.8
563.388,932.5
563.927,946.6
564.466,945.0
565.004,951.1
565.543,949.9
566.081,962.0
566.619,940.4
567.157,938.2
567.695,939.5
568.233,933.9
568.771,942.5
569.309,938.7
569.846,946.3
570.384,947.7
570.921,946.8
571.458,969.6
571.995,960.5
572.532,960.6
573.069,960.8
573.606,965.4
574.143,972.9
574.68,970.4
575.216,972.7
575.753,986.5
576.289,998.3
576.825,995.6
577.361,993.1
577.897,989.4
578.433,997.8
578.969,995.8
579.505,1006.7
580.041,1005.4
580.576,1017.2
581.112,1017.0
581.647,1021.3
582.183,1035.3
582.718,1038.1
583.253,1039.5
583.788,1045.9
584.323,1050.1
584.858,1055.3
585.392,1069.4
585.927,1074.1
586.462,1087.8
586.996,1097.8
587.53,1112.9
588.065,1117.9
588.599,1132.0
589.133,1141.5
589.667,1154.8
590.201,1159.6
590.735,1174.2
591.268,1185.8
591.802,1192.3
592.335,1199.9
592.869,1201.2
593.402,1201.1
593.936,1210.1
594.469,1219.0
595.002,1216.5
595.535,1223.9
596.068,1237.7
596.601,1245.3
597.133,1250.7
597.666,1262.4
598.199,1279.4
598.731,1293.0
599.264,1291.8
599.796,1294.0
600.328,1304.0
600.86,1303.1
601.393,1300.5
601.925,1303.0
602.457,1282.3
602.988,1291.2
603.52,1274.3
604.052,1270.9
604.583,1244.5
605.115,1229.6
605.646,1220.0
606.178,1202.1
606.709,1187.3
607.24,1178.7
607.771,1170.7
608.302,1166.5
608.833,1154.6
609.364,1148.3
609.895,1145.7
610.426,1141.8
610.957,1130.1
611.487,1125.9
612.018,1124.9
612.548,1129.8
613.078,1128.0
613.609,1120.9
614.139,1120.2
614.669,1112.5
615.199,1109.4
615.729,1106.1
616.259,1102.3
616.789,1099.8
617.319,1097.5
617.849,1102.2
618.378,1097.8
618.908,1087.5
619.437,1092.8
619.967,1083.1
620.496,1082.9
621.025,1082.7
621.555,1076.2
622.084,1081.3
622.613,1088.7
623.142,1080.8
623.671,1076.6
624.2,1083.1
624.729,1084.0
625.258,1075.2
625.786,1080.5
626.315,1087.1
626.844,1113.7
627.372,1205.1
627.901,1160.0
628.429,1183.5
628.957,1185.6
629.486,1163.0
630.014,1150.4
630.542,1144.8
631.07,1114.0
631.598,1099.0
632.126,1088.7
632.654,1088.8
633.182,1081.0
633.71,1078.0
634.237,1082.6
634.765,1083.2
635.293,1083.3
635.82,1077.6
636.348,1089.4
636.875,1090.9
637.403,1091.0
637.93,1083.1
638.458,1092.8
638.985,1090.1
639.512,1089.7
640.039,1091.3
640.566,1095.4
641.093,1100.4
641.62,1096.2
642.147,1104.5
642.674,1107.0
643.201,1104.9
643.728,1109.6
644.255,1107.0
644.781,1106.2
645.308,1107.7
645.835,1113.3
646.361,1113.2
646.888,1110.6
647.414,1115.9
647.941,1121.9
648.467,1117.3
648.993,1111.6
649.52,1113.8
650.046,1124.6
650.572,1116.3
651.098,1117.1
651.625,1116.4
652.151,1117.8
652.677,1118.5
653.203,1123.8
653.729,1127.7
654.255,1126.8
654.78,1117.1
655.306,1122.5
655.832,1120.7
656.358,1115.1
656.884,1118.2
657.409,1111.8
657.935,1110.5
658.461,1104.6
658.986,1100.4
659.512,1103.0
660.037,1094.7
660.563,1081.2
661.088,1077.4
661.614,1071.2
662.139,1071.2
662.664,1060.6
663.058,1057.8