File: spectra/VLFR_07-PET_bio_Raman_dfaab42c.csv
nm,Intensity
791.75,13329.2
792.846,12439.3
793.942,12187.3
795.037,11921.8
796.133,11635.4
797.228,11646.2
798.324,11532.1
799.419,11567.5
800.514,11333.5
801.61,11456.8
802.705,11391.5
803.8,10973.0
804.894,10862.3
805.989,10839.7
807.084,10722.5
808.178,10642.2
809.273,10401.0
810.367,10319.0
811.461,10373.8
812.556,10161.8
813.65,10062.7
814.744,10015.0
815.837,9999.8
816.931,9861.9
818.025,9700.65
819.118,9552.55
820.212,9638.5
821.305,9572.9
822.398,9247.95
823.491,9295.2
824.585,9202.4
825.677,9562.4
826.77,9018.55
827.863,8939.1
828.956,8788.65
830.048,8826.0
831.14,8831.95
832.233,8503.5
833.325,8462.35
834.417,8451.75
835.509,8401.2
836.601,8352.5
837.692,8302.4
838.784,8318.35
839.876,8152.3
840.967,8523.45
842.058,8176.2
843.149,8164.45
844.24,7908.55
845.331,7736.55
846.422,7656.95
847.513,7658.35
848.604,7550.2
849.694,7545.7
850.784,7439.3
851.875,7412.7
852.965,7442.65
854.055,7368.2
855.145,7299.5
856.235,7245.7
857.324,7273.65
858.414,7379.4
859.503,7335.8
860.593,7279.45
861.682,7097.1
862.771,6977.4
863.86,7002.8
864.949,7025.35
866.038,6878.2
867.126,6853.7
868.215,6756.0
869.303,6795.75
870.391,6893.3
871.479,6987.15
872.567,7197.55
873.655,7070.75
874.743,6747.0
875.831,6535.6
876.918,6518.75
878.006,6441.7
879.093,6354.65
880.18,6408.05
881.267,6365.35
882.354,6300.9
883.441,6263.6
884.527,6296.95
885.614,6235.8
886.7,6122.95
887.786,6120.15
888.872,6034.8
889.958,5945.7
891.044,5984.45
892.13,5980.7
893.216,5819.05
894.301,5773.95
895.386,5711.4
896.472,5800.7
897.557,6339.45
898.642,6281.35
899.726,5745.05
900.811,5548.9
901.896,5446.75
902.98,5489.8
904.064,5455.7
905.148,5389.95
906.232,5687.05
907.316,5918.4
908.4,5703.25
909.484,5368.0
910.567,5218.2
911.65,5127.3
912.734,5127.85
913.817,5081.65
914.9,5002.8
915.982,5003.4
917.065,4976.05
918.147,4949.45
919.23,4913.7
920.312,4852.45
921.394,4836.6
922.476,4846.25
923.558,4783.35
924.639,4771.1
925.721,4740.85
926.802,4687.5
927.884,4679.9
928.965,4621.65
930.046,4592.95
931.126,4549.0
932.207,4552.85
933.288,4516.5
934.368,4507.15
935.448,4445.45
936.528,4459.45
937.608,4419.95
938.688,4391.8
939.767,4369.0
940.847,4365.0
941.926,4344.1
943.005,4305.3
944.084,4286.5
945.163,4271.6
946.242,4278.25
947.321,4240.85
948.399,4230.0
949.477,4218.7
950.556,4201.15
951.634,4177.7
952.711,4168.85
953.789,4153.25
954.867,4136.5
955.944,4117.6
957.021,4108.65
958.098,4100.85
959.175,4089.15
960.252,4070.7
961.328,4074.75
962.405,4055.35
963.481,4048.65
964.557,4026.55
965.633,4026.05
966.709,4013.2
967.785,4001.05
968.86,3984.05
969.936,3979.85
971.011,3977.75
972.086,3975.65
973.161,3952.0
974.235,3937.2
975.31,3945.9
976.384,3930.35
977.459,3918.15
978.533,3917.45
979.607,3904.4
980.68,3907.15
981.754,3896.5
982.827,3889.85
983.901,3883.25
984.974,3875.9
986.047,3868.1
987.119,3869.25
988.192,3866.7
989.264,3855.1
990.337,3848.45
991.409,3840.15
992.481,3836.6
993.553,3832.85
994.624,3827.9
995.696,3816.2
996.767,3818.0
997.838,3813.25
998.909,3811.7
999.98,3804.2
1001.05,3802.9
1002.12,3794.95
1003.19,3794.2
1004.26,3788.4
1005.33,3785.95
1006.4,3784.5
1007.47,3777.85
1008.54,3773.15
1009.61,3772.05
1010.68,3768.5
1011.75,3768.6
1012.82,3763.15
1013.88,3763.3
1014.95,3761.45
1016.02,3756.05
1017.09,3755.7
1018.16,3754.05
1019.22,3750.55
1020.29,3757.1
1021.36,3757.4
1022.43,3759.55
1023.49,3753.0
1024.56,3746.4
1025.63,3742.3
1026.69,3739.95
1027.76,3736.7
1028.83,3733.4
1029.89,3731.4
1030.96,3729.0
1032.02,3729.15
1033.09,3730.25
1034.15,3735.25
1035.22,3733.0
1036.28,3729.1
1037.35,3726.2
1038.41,3721.65
1039.48,3721.0
1040.54,3717.95
1041.6,3717.45
1042.67,3717.4
1043.73,3717.4
1044.79,3715.55
1045.86,3712.9
1046.92,3713.1
1047.98,3714.0
1049.05,3713.1
1050.11,3711.95
1051.17,3711.05
1052.23,3711.25
1053.29,3710.95
1054.36,3711.1
1055.42,3712.05
1056.48,3710.2
1057.54,3709.1
1058.6,3708.8
1059.66,3709.4
1060.72,3709.0
1061.78,3708.45
1062.84,3707.7
1063.9,3706.9
1064.96,3707.6
1066.02,3707.2
1067.08,3707.2
1067.88,3707.5