File: spectra/VLFR_08-PLA_nobio_Raman_fb61b8c8.csv
nm,Intensity
526.486,830.1
527.033,827.5
527.579,829.8
528.126,827.9
528.672,830.0
529.219,829.0
529.765,828.8
530.311,828.9
530.857,829.6
531.403,829.7
531.948,831.8
532.494,831.5
533.039,829.7
533.585,829.4
534.13,1044.1
534.675,997.0
535.22,956.1
535.764,934.5
536.309,918.1
536.854,924.1
537.398,911.6
537.942,910.2
538.486,897.6
539.03,892.5
539.574,893.0
540.118,880.7
540.662,904.8
541.205,903.1
541.749,892.0
542.292,887.2
542.835,886.3
543.378,907.7
543.921,924.4
544.464,897.8
545.006,883.8
545.549,881.8
546.091,880.1
546.634,879.0
547.176,883.6
547.718,881.7
548.26,883.3
548.802,885.9
549.343,885.8
549.885,884.3
550.426,885.0
550.968,887.8
551.509,892.2
552.05,894.6
552.591,895.6
553.132,892.2
553.673,888.7
554.214,898.8
554.754,889.4
555.295,885.4
555.835,880.9
556.375,882.8
556.915,886.3
557.455,900.0
557.995,1018.2
558.535,926.0
559.075,904.2
559.614,895.5
560.154,891.7
560.693,891.7
561.232,885.0
561.772,885.8
562.311,884.2
562.85,897.6
563.388,933.7
563.927,913.0
564.466,897.7
565.004,919.4
565.543,915.4
566.081,946.3
566.619,916.0
567.157,892.1
567.695,895.0
568.233,899.1
568.771,896.4
569.309,900.0
569.846,894.6
570.384,895.9
570.921,900.6
571.458,910.0
571.995,917.6
572.532,905.9
573.069,912.9
573.606,912.4
574.143,909.2
574.68,925.2
575.216,897.6
575.753,896.3
576.289,914.6
576.825,980.0
577.361,924.2
577.897,899.7
578.433,894.2
578.969,894.9
579.505,894.9
580.041,897.0
580.576,896.1
581.112,893.7
581.647,897.8
582.183,894.8
582.718,892.9
583.253,896.6
583.788,895.7
584.323,892.1
584.858,895.2
585.392,898.6
585.927,898.8
586.462,908.9
586.996,952.3
587.53,969.7
588.065,924.7
588.599,898.7
589.133,897.1
589.667,892.3
590.201,896.6
590.735,895.7
591.268,892.0
591.802,891.1
592.335,893.1
592.869,891.0
593.402,892.9
593.936,890.8
594.469,892.0
595.002,893.6
595.535,893.4
596.068,894.2
596.601,892.6
597.133,892.5
597.666,892.9
598.199,891.2
598.731,893.8
599.264,895.1
599.796,893.8
600.328,892.7
600.86,891.5
601.393,890.8
601.925,893.8
602.457,890.5
602.988,890.7
603.52,891.8
604.052,890.7
604.583,888.7
605.115,890.9
605.646,889.3
606.178,886.3
606.709,886.3
607.24,881.8
607.771,889.8
608.302,885.2
608.833,886.5
609.364,887.7
609.895,888.9
610.426,888.8
610.957,886.8
611.487,887.4
612.018,886.2
612.548,888.8
613.078,887.1
613.609,886.1
614.139,891.0
614.669,888.3
615.199,885.5
615.729,890.4
616.259,888.1
616.789,889.5
617.319,887.8
617.849,889.8
618.378,888.1
618.908,886.0
619.437,887.5
619.967,886.8
620.496,888.5
621.025,888.1
621.555,886.2
622.084,886.5
622.613,895.2
623.142,905.2
623.671,896.3
624.2,893.6
624.729,888.3
625.258,884.5
625.786,886.5
626.315,886.8
626.844,885.9
627.372,890.8
627.901,900.4
628.429,970.9
628.957,958.2
629.486,953.5
630.014,960.8
630.542,1016.4
631.07,1442.3
631.598,1194.6
632.126,1031.3
632.654,1011.0
633.182,1114.1
633.71,1078.5
634.237,975.3
634.765,908.2
635.293,892.5
635.82,884.9
636.348,885.7
636.875,879.6
637.403,880.2
637.93,880.9
638.458,880.4
638.985,878.3
639.512,880.4
640.039,878.3
640.566,880.1
641.093,881.4
641.62,879.9
642.147,876.5
642.674,878.5
643.201,877.8
643.728,875.6
644.255,873.0
644.781,871.0
645.308,871.5
645.835,872.2
646.361,875.0
646.888,870.5
647.414,872.4
647.941,869.4
648.467,868.9
648.993,868.1
649.52,867.8
650.046,870.1
650.572,868.4
651.098,869.8
651.625,871.7
652.151,869.8
652.677,869.2
653.203,868.2
653.729,867.6
654.255,867.3
654.78,866.1
655.306,866.0
655.832,868.0
656.358,867.2
656.884,867.2
657.409,866.9
657.935,863.5
658.461,865.3
658.986,866.4
659.512,865.5
660.037,866.3
660.563,866.5
661.088,865.1
661.614,864.4
662.139,865.0
662.664,865.6
663.058,863.1