File: spectra/VLFR_01-LDPE_nobio_Raman_b3009053.csv
nm,Intensity
526.5,828.0
527.047,829.5
527.594,829.3
528.14,828.0
528.687,827.9
529.233,827.3
529.779,827.9
530.325,828.6
530.871,827.7
531.417,827.5
531.962,830.8
532.508,828.5
533.053,829.4
533.599,828.1
534.144,902.3
534.689,891.8
535.234,874.5
535.778,864.6
536.323,859.1
536.867,855.3
537.412,855.8
537.956,854.8
538.5,851.4
539.044,853.4
539.588,851.4
540.132,848.2
540.675,845.6
541.219,845.3
541.762,844.2
542.305,846.0
542.848,846.0
543.391,845.8
543.934,843.4
544.477,843.9
545.02,843.2
545.562,841.6
546.105,842.8
546.647,843.8
547.189,843.7
547.731,841.6
548.273,840.3
548.815,843.2
549.356,842.1
549.898,841.7
550.439,839.5
550.981,840.9
551.522,842.4
552.063,842.9
552.604,843.4
553.145,844.6
553.686,844.8
554.226,846.9
554.767,847.8
555.307,846.7
555.848,845.7
556.388,848.5
556.928,850.4
557.468,853.1
558.008,855.6
558.547,857.0
559.087,854.5
559.626,852.4
560.166,851.8
560.705,850.5
561.244,853.5
561.783,853.5
562.322,854.7
562.861,859.6
563.4,860.2
563.939,907.6
564.477,882.6
565.015,876.9
565.554,871.4
566.092,921.3
566.63,873.5
567.168,870.7
567.706,876.9
568.244,869.3
568.781,870.3
569.319,872.7
569.857,879.3
570.394,881.2
570.931,889.4
571.468,957.9
572.005,921.4
572.542,903.4
573.079,898.5
573.616,898.3
574.153,911.8
574.689,905.2
575.226,911.3
575.762,948.6
576.298,1052.4
576.834,1008.1
577.371,983.8
577.907,954.3
578.442,958.0
578.978,967.5
579.514,975.9
580.049,978.6
580.585,992.2
581.12,994.6
581.656,1003.4
582.191,1012.0
582.726,1027.0
583.261,1031.7
583.796,1042.2
584.331,1051.3
584.865,1061.7
585.4,1070.4
585.935,1090.0
586.469,1093.9
587.004,1111.1
587.538,1127.9
588.072,1146.0
588.606,1161.7
589.14,1168.4
589.674,1183.9
590.208,1204.8
590.742,1223.0
591.275,1239.0
591.809,1246.5
592.342,1244.3
592.876,1265.7
593.409,1266.5
593.942,1274.2
594.476,1284.9
595.009,1292.6
595.542,1306.7
596.075,1314.8
596.607,1318.9
597.14,1332.7
597.673,1354.0
598.205,1359.1
598.738,1375.9
599.27,1370.8
599.803,1383.2
600.335,1385.1
600.867,1371.5
601.399,1373.6
601.931,1364.8
602.463,1369.5
602.995,1345.3
603.527,1323.7
604.058,1306.3
604.59,1293.5
605.122,1269.0
605.653,1241.6
606.184,1224.1
606.716,1208.8
607.247,1195.7
607.778,1178.8
608.309,1174.7
608.84,1156.2
609.371,1148.6
609.902,1139.6
610.433,1129.8
610.964,1123.4
611.494,1116.7
612.025,1102.9
612.556,1102.7
613.086,1101.8
613.616,1091.4
614.147,1088.1
614.677,1083.7
615.207,1076.8
615.737,1075.5
616.267,1065.4
616.797,1057.2
617.327,1065.4
617.857,1057.1
618.387,1058.1
618.917,1050.7
619.446,1057.5
619.976,1053.9
620.505,1045.8
621.035,1056.5
621.564,1061.7
622.093,1082.9
622.623,1077.2
623.152,1049.4
623.681,1035.3
624.21,1036.3
624.739,1032.0
625.268,1037.0
625.797,1046.4
626.326,1068.8
626.855,1287.7
627.383,1759.7
627.912,1461.0
628.441,1673.9
628.969,1511.4
629.498,1410.1
630.026,1298.7
630.554,1276.6
631.083,1150.4
631.611,1077.3
632.139,1052.0
632.667,1046.2
633.195,1029.8
633.724,1030.3
634.252,1028.0
634.779,1033.1
635.307,1029.0
635.835,1032.9
636.363,1033.1
636.891,1034.5
637.418,1037.9
637.946,1036.0
638.474,1040.4
639.001,1043.3
639.529,1046.5
640.056,1046.7
640.583,1049.7
641.111,1055.5
641.638,1056.4
642.165,1064.5
642.692,1061.5
643.22,1068.3
643.747,1066.6
644.274,1071.6
644.801,1073.7
645.328,1068.4
645.854,1077.5
646.381,1071.4
646.908,1071.3
647.435,1078.1
647.962,1078.7
648.488,1079.8
649.015,1076.9
649.542,1077.9
650.068,1073.9
650.595,1081.1
651.121,1075.3
651.648,1076.7
652.174,1076.8
652.7,1075.7
653.227,1078.1
653.753,1079.6
654.279,1077.9
654.805,1075.6
655.331,1073.6
655.858,1065.8
656.384,1061.9
656.91,1060.5
657.436,1058.9
657.962,1054.4
658.488,1044.9
659.013,1044.4
659.539,1034.1
660.065,1029.1
660.591,1018.8
661.117,1012.7
661.642,1008.2
662.168,1000.3
662.694,991.4
663.088,990.1