File: spectra/VLFR_06-PET_bio_Raman_1869aea0.csv
nm,Intensity
526.493,829.0
527.039,828.3
527.586,828.95
528.133,828.3
528.679,829.2
529.225,828.9
529.771,829.7
530.317,829.4
530.863,829.65
531.409,829.65
531.955,831.45
532.5,830.15
533.046,829.85
533.591,837.05
534.136,1813.1
534.681,1626.45
535.226,1408.35
535.771,1299.5
536.315,1232.1
536.86,1200.65
537.404,1185.75
537.948,1186.75
538.493,1195.05
539.037,1199.05
539.58,1206.5
540.124,1211.1
540.668,1188.55
541.211,1187.2
541.755,1192.7
542.298,1193.45
542.841,1203.9
543.384,1206.4
543.927,1213.65
544.47,1213.0
545.013,1216.45
545.555,1221.1
546.098,1228.3
546.64,1232.35
547.182,1238.45
547.724,1242.85
548.266,1244.85
548.808,1251.45
549.35,1254.7
549.892,1256.35
550.433,1273.15
550.974,1279.65
551.516,1271.75
552.057,1278.3
552.598,1285.75
553.139,1292.3
553.68,1292.3
554.22,1290.95
554.761,1289.95
555.301,1304.9
555.842,1331.75
556.382,1338.05
556.922,1350.45
557.462,1414.7
558.002,1369.6
558.542,1353.1
559.082,1338.15
559.621,1330.75
560.161,1342.05
560.7,1340.0
561.239,1343.2
561.778,1349.1
562.317,1360.1
562.856,1367.45
563.395,1380.15
563.934,1389.35
564.472,1397.4
565.011,1425.2
565.549,1457.8
566.088,1462.75
566.626,1422.45
567.164,1414.05
567.702,1464.2
568.24,1426.1
568.777,1432.25
569.315,1453.95
569.853,1469.8
570.39,1500.7
570.927,1566.55
571.465,1617.35
572.002,1537.7
572.539,1499.15
573.076,1492.2
573.612,1507.45
574.149,1512.95
574.686,1511.5
575.222,1529.55
575.759,1517.3
576.295,1536.7
576.831,1553.1
577.367,1537.7
577.903,1538.6
578.439,1547.4
578.975,1565.15
579.511,1562.75
580.046,1579.0
580.582,1577.75
581.117,1587.5
581.653,1630.55
582.188,2241.4
582.723,1592.85
583.258,1563.5
583.793,1544.2
584.328,1549.6
584.863,1556.5
585.398,1604.05
585.932,1889.35
586.467,1772.8
587.001,1590.15
587.535,1568.9
588.07,1554.5
588.604,1557.45
589.138,1557.5
589.672,1551.75
590.206,1552.3
590.739,1560.9
591.273,1557.3
591.807,1556.85
592.34,1562.15
592.873,1560.1
593.407,1561.3
593.94,1552.45
594.473,1570.9
595.006,1569.4
595.539,1573.65
596.072,1573.6
596.605,1579.9
597.138,1581.25
597.67,1574.55
598.203,1586.65
598.735,1596.5
599.268,1591.25
599.8,1592.75
600.332,1588.65
600.865,1583.1
601.397,1581.1
601.929,1579.35
602.46,1577.8
602.992,1583.55
603.524,1587.55
604.056,1595.85
604.587,1581.4
605.119,1577.05
605.65,1567.5
606.182,1565.0
606.713,1560.25
607.244,1563.25
607.775,1571.5
608.306,1569.5
608.837,1575.95
609.368,1566.8
609.899,1564.75
610.43,1567.35
610.961,1569.35
611.491,1560.55
612.022,1566.8
612.552,1572.2
613.083,1587.25
613.613,1585.75
614.143,1596.35
614.673,1583.2
615.203,1581.65
615.734,1576.0
616.263,1581.8
616.793,1580.55
617.323,1587.1
617.853,1585.8
618.383,1591.35
618.912,1582.15
619.442,1571.65
619.971,1571.8
620.501,1568.35
621.03,1564.35
621.56,1557.75
622.089,1570.85
622.618,1569.95
623.147,1568.35
623.676,1570.75
624.205,1565.85
624.734,1573.75
625.263,1575.5
625.792,1564.9
626.321,1564.35
626.849,1559.3
627.378,1557.75
627.906,1565.0
628.435,1561.5
628.963,1583.35
629.492,1584.55
630.02,1575.1
630.548,1574.0
631.077,1604.25
631.605,1667.5
632.133,1660.55
632.661,1616.85
633.189,1605.15
633.717,1585.05
634.245,1565.7
634.773,1547.5
635.3,1558.6
635.828,1596.2
636.356,1649.65
636.883,1652.7
637.411,1561.8
637.938,1538.6
638.466,1536.2
638.993,1540.15
639.521,1537.4
640.048,1530.2
640.575,1526.3
641.103,1518.65
641.63,1515.35
642.157,1520.15
642.684,1512.05
643.211,1503.1
643.738,1497.2
644.265,1490.0
644.792,1485.0
645.319,1487.8
645.845,1484.95
646.372,1469.3
646.899,1476.15
647.425,1469.25
647.952,1466.8
648.479,1466.95
649.005,1450.2
649.532,1454.0
650.058,1449.6
650.585,1437.9
651.111,1443.95
651.637,1434.35
652.164,1440.55
652.69,1433.35
653.216,1428.9
653.742,1424.8
654.268,1422.55
654.794,1420.7
655.32,1417.45
655.846,1415.2
656.372,1410.25
656.898,1404.2
657.424,1403.75
657.95,1394.8
658.476,1399.45
659.002,1390.65
659.528,1387.85
660.053,1383.5
660.579,1381.05
661.105,1376.35
661.63,1369.7
662.156,1358.6
662.681,1359.45
663.076,1354.3