File: spectra/VLFR_07-PET_bio_Raman_ae10d20e.csv
nm,Intensity
791.588,7909.9
792.685,7617.6
793.781,7562.6
794.878,7535.5
795.975,7605.2
797.071,7457.6
798.168,7508.1
799.264,7475.5
800.36,7418.6
801.456,7420.1
802.552,7413.8
803.648,7334.5
804.744,7147.4
805.84,7241.8
806.936,7092.9
808.031,7125.7
809.127,7044.1
810.222,6989.2
811.317,6958.3
812.412,6899.8
813.507,6789.4
814.602,6769.5
815.697,6734.9
816.792,6652.9
817.887,6627.1
818.981,6613.3
820.076,6586.4
821.17,6624.3
822.265,6451.7
823.359,6304.7
824.453,6454.5
825.547,6424.7
826.641,6408.3
827.735,6217.7
828.828,6192.4
829.922,6230.1
831.016,6152.3
832.109,6058.2
833.202,6020.9
834.295,6018.2
835.388,5965.2
836.481,5982.1
837.574,5972.5
838.667,5956.6
839.76,5891.0
840.852,5919.7
841.945,5973.8
843.037,5854.2
844.129,5823.9
845.221,5766.1
846.314,5708.1
847.405,5736.7
848.497,5674.4
849.589,5645.4
850.68,5650.9
851.772,5729.4
852.863,5808.9
853.955,5554.3
855.046,5572.2
856.137,5559.5
857.228,5572.0
858.318,5547.7
859.409,5560.5
860.5,5558.3
861.59,5462.1
862.681,5438.1
863.771,5463.0
864.861,5448.3
865.951,5389.7
867.041,5333.1
868.131,5345.6
869.22,5322.1
870.31,5335.2
871.399,5377.5
872.488,5356.8
873.578,5395.1
874.667,5320.2
875.756,5267.3
876.845,5201.3
877.933,5178.4
879.022,5193.5
880.11,5146.2
881.199,5119.1
882.287,5109.6
883.375,5094.2
884.463,5114.9
885.551,5055.3
886.639,5035.3
887.726,5006.9
888.814,4978.1
889.901,4978.0
890.988,4966.3
892.075,4908.1
893.162,4881.0
894.249,4812.3
895.336,4791.2
896.423,4756.5
897.509,4808.6
898.595,4876.0
899.682,4757.4
900.768,4674.4
901.854,4636.6
902.94,4665.9
904.025,4633.8
905.111,4625.2
906.196,4629.6
907.282,4643.8
908.367,4648.7
909.452,4587.1
910.537,4499.1
911.622,4498.2
912.706,4441.8
913.791,4441.9
914.875,4418.6
915.959,4416.0
917.044,4387.5
918.128,4372.7
919.211,4389.9
920.295,4367.4
921.379,4342.5
922.462,4322.6
923.546,4309.4
924.629,4297.8
925.712,4263.3
926.795,4253.4
927.877,4233.6
928.96,4205.5
930.043,4188.7
931.125,4163.7
932.207,4120.1
933.289,4108.9
934.371,4108.7
935.453,4108.9
936.535,4095.1
937.616,4089.2
938.697,4080.8
939.779,4067.5
940.86,4068.9
941.941,4050.4
943.022,4041.6
944.102,4030.9
945.183,4020.3
946.263,4015.5
947.343,4003.7
948.423,3995.1
949.503,3999.1
950.583,3978.0
951.663,3973.8
952.742,3980.5
953.822,3956.4
954.901,3962.0
955.98,3957.2
957.059,3945.1
958.137,3932.5
959.216,3934.1
960.294,3925.1
961.373,3921.0
962.451,3917.0
963.529,3914.9
964.607,3905.6
965.684,3907.2
966.762,3907.5
967.839,3906.7
968.917,3899.6
969.994,3899.1
971.071,3890.3
972.147,3897.6
973.224,3883.7
974.3,3873.8
975.377,3868.2
976.453,3873.7
977.529,3862.0
978.605,3861.3
979.68,3858.8
980.756,3858.4
981.831,3858.7
982.907,3853.6
983.982,3850.1
985.057,3843.8
986.131,3848.0
987.206,3847.1
988.28,3842.4
989.355,3841.2
990.429,3838.2
991.503,3832.1
992.576,3832.4
993.65,3829.6
994.723,3829.5
995.797,3824.4
996.87,3823.0
997.943,3821.5
999.016,3816.8
1000.09,3815.7
1001.16,3812.7
1002.23,3812.8
1003.31,3810.2
1004.38,3807.3
1005.45,3806.8
1006.52,3802.2
1007.59,3798.5
1008.66,3798.6
1009.73,3796.0
1010.81,3795.3
1011.88,3794.2
1012.95,3790.7
1014.02,3792.4
1015.09,3787.5
1016.16,3791.9
1017.23,3788.0
1018.3,3783.9
1019.37,3785.0
1020.44,3780.2
1021.51,3783.3
1022.58,3780.2
1023.64,3778.9
1024.71,3778.5
1025.78,3779.3
1026.85,3775.9
1027.92,3774.6
1028.99,3770.6
1030.05,3771.8
1031.12,3771.5
1032.19,3772.4
1033.26,3772.1
1034.32,3769.5
1035.39,3770.8
1036.46,3768.3
1037.52,3766.0
1038.59,3770.2
1039.66,3766.4
1040.72,3764.9
1041.79,3763.4
1042.86,3765.2
1043.92,3762.1
1044.99,3762.0
1046.05,3762.4
1047.12,3761.7
1048.18,3761.0
1049.25,3763.7
1050.31,3761.8
1051.37,3760.9
1052.44,3761.9
1053.5,3761.9
1054.57,3761.7
1055.63,3760.3
1056.69,3760.0
1057.76,3760.2
1058.82,3760.1
1059.88,3759.8
1060.95,3758.5
1062.01,3757.8
1063.07,3760.8
1064.13,3759.4
1065.19,3757.4
1066.26,3757.6
1067.32,3756.8
1068.11,3758.2