File: spectra/VLFR_02-HDPE_nobio_Raman_2bad5794.csv
nm,Intensity
526.486,830.0
527.033,830.4
527.579,828.8
528.126,830.4
528.672,829.9
529.219,830.5
529.765,828.1
530.311,830.0
530.857,829.0
531.403,830.9
531.948,833.0
532.494,832.3
533.039,830.3
533.585,829.3
534.13,915.2
534.675,898.3
535.22,889.2
535.764,869.5
536.309,864.9
536.854,859.7
537.398,858.3
537.942,858.9
538.486,855.2
539.03,853.1
539.574,848.6
540.118,847.3
540.662,847.0
541.205,847.4
541.749,844.5
542.292,844.6
542.835,843.2
543.378,843.9
543.921,842.7
544.464,844.3
545.006,843.0
545.549,843.1
546.091,841.9
546.634,842.3
547.176,841.4
547.718,840.0
548.26,843.2
548.802,840.1
549.343,840.1
549.885,839.3
550.426,841.3
550.968,840.4
551.509,840.7
552.05,839.2
552.591,840.0
553.132,844.0
553.673,844.2
554.214,845.9
554.754,843.4
555.295,844.2
555.835,850.5
556.375,847.8
556.915,850.3
557.455,854.5
557.995,857.1
558.535,858.8
559.075,853.0
559.614,853.3
560.154,851.0
560.693,851.1
561.232,850.9
561.772,852.4
562.311,855.6
562.85,858.8
563.388,862.4
563.927,921.8
564.466,886.4
565.004,877.8
565.543,871.0
566.081,938.1
566.619,876.4
567.157,869.1
567.695,866.7
568.233,863.5
568.771,862.8
569.309,865.7
569.846,865.7
570.384,868.2
570.921,878.6
571.458,970.7
571.995,914.4
572.532,885.3
573.069,879.8
573.606,879.1
574.143,889.9
574.68,883.0
575.216,892.2
575.753,947.4
576.289,1051.6
576.825,999.9
577.361,964.8
577.897,930.3
578.433,929.6
578.969,936.9
579.505,948.4
580.041,957.6
580.576,968.9
581.112,979.4
581.647,990.0
582.183,1005.1
582.718,1016.1
583.253,1029.2
583.788,1030.7
584.323,1051.9
584.858,1056.5
585.392,1067.6
585.927,1080.6
586.462,1093.4
586.996,1104.8
587.53,1119.3
588.065,1126.1
588.599,1129.4
589.133,1145.1
589.667,1154.2
590.201,1169.0
590.735,1185.1
591.268,1183.0
591.802,1196.8
592.335,1201.0
592.869,1197.3
593.402,1196.1
593.936,1208.1
594.469,1215.8
595.002,1224.2
595.535,1235.1
596.068,1229.7
596.601,1246.1
597.133,1255.6
597.666,1259.4
598.199,1276.2
598.731,1287.7
599.264,1280.7
599.796,1296.1
600.328,1293.4
600.86,1291.9
601.393,1283.4
601.925,1285.1
602.457,1279.8
602.988,1263.9
603.52,1253.8
604.052,1243.1
604.583,1217.2
605.115,1199.6
605.646,1183.5
606.178,1166.7
606.709,1156.6
607.24,1144.3
607.771,1129.7
608.302,1115.6
608.833,1110.5
609.364,1103.2
609.895,1087.6
610.426,1081.5
610.957,1076.9
611.487,1073.0
612.018,1065.0
612.548,1059.5
613.078,1054.4
613.609,1046.3
614.139,1045.8
614.669,1044.7
615.199,1035.6
615.729,1028.2
616.259,1028.8
616.789,1023.5
617.319,1023.1
617.849,1022.8
618.378,1019.1
618.908,1021.9
619.437,1013.7
619.967,1013.6
620.496,1013.1
621.025,1014.6
621.555,1024.5
622.084,1044.6
622.613,1049.4
623.142,1014.4
623.671,1007.7
624.2,1000.4
624.729,999.8
625.258,1005.1
625.786,1010.7
626.315,1044.4
626.844,1287.1
627.372,1867.9
627.901,1523.0
628.429,1702.8
628.957,1582.7
629.486,1462.3
630.014,1338.9
630.542,1302.6
631.07,1154.3
631.598,1067.1
632.126,1037.8
632.654,1020.9
633.182,1010.8
633.71,1010.9
634.237,1009.1
634.765,1009.2
635.293,1010.4
635.82,1009.6
636.348,1015.9
636.875,1012.8
637.403,1011.4
637.93,1015.6
638.458,1015.6
638.985,1017.1
639.512,1019.1
640.039,1020.4
640.566,1017.4
641.093,1025.7
641.62,1025.8
642.147,1034.2
642.674,1038.7
643.201,1033.9
643.728,1033.5
644.255,1032.1
644.781,1032.3
645.308,1033.8
645.835,1041.3
646.361,1032.5
646.888,1030.6
647.414,1037.8
647.941,1036.6
648.467,1036.1
648.993,1031.9
649.52,1030.4
650.046,1037.6
650.572,1033.0
651.098,1033.3
651.625,1029.2
652.151,1029.9
652.677,1033.1
653.203,1038.1
653.729,1037.3
654.255,1034.3
654.78,1031.5
655.306,1025.1
655.832,1027.7
656.358,1025.8
656.884,1023.7
657.409,1019.5
657.935,1018.2
658.461,1015.0
658.986,1006.7
659.512,999.8
660.037,997.1
660.563,986.2
661.088,982.7
661.614,976.7
662.139,972.1
662.664,961.4
663.058,961.5