File: spectra/VLFR_08-PLA_nobio_Raman_c748b8bf.csv
nm,Intensity
526.532,833.05
527.079,833.35
527.625,833.4
528.172,833.45
528.718,833.2
529.265,834.25
529.811,833.05
530.357,832.4
530.903,832.6
531.449,834.1
531.994,845.25
532.54,833.45
533.085,834.4
533.63,837.45
534.176,1062.15
534.721,1022.15
535.266,983.0
535.81,969.8
536.355,964.05
536.9,968.7
537.444,957.55
537.988,957.35
538.533,944.25
539.077,945.55
539.621,939.75
540.165,937.55
540.708,955.75
541.252,954.05
541.795,944.3
542.339,943.3
542.882,943.15
543.425,968.4
543.968,976.4
544.511,953.7
545.054,945.25
545.597,940.05
546.139,942.75
546.682,942.2
547.224,945.7
547.766,948.25
548.308,952.0
548.85,947.9
549.392,953.15
549.934,951.35
550.475,955.4
551.017,955.25
551.558,959.65
552.1,960.2
552.641,962.6
553.182,965.0
553.723,961.55
554.264,969.2
554.804,961.8
555.345,956.05
555.885,952.7
556.426,956.45
556.966,962.6
557.506,976.85
558.046,1096.9
558.586,990.8
559.126,972.8
559.665,975.7
560.205,969.3
560.745,966.45
561.284,961.95
561.823,965.85
562.362,967.85
562.901,975.5
563.44,1010.15
563.979,987.4
564.518,981.55
565.056,1004.9
565.595,998.15
566.133,1032.75
566.671,993.25
567.21,980.95
567.748,987.25
568.285,986.25
568.823,988.65
569.361,990.1
569.899,986.95
570.436,988.05
570.974,988.15
571.511,1006.1
572.048,1007.5
572.585,1003.2
573.122,1002.0
573.659,1004.05
574.196,1000.4
574.733,1013.2
575.269,993.95
575.806,995.25
576.342,1013.15
576.878,1067.0
577.414,1011.4
577.951,997.3
578.486,999.45
579.022,992.8
579.558,998.6
580.094,995.15
580.629,995.5
581.165,994.75
581.7,995.35
582.236,993.25
582.771,999.2
583.306,997.5
583.841,1002.45
584.376,999.9
584.911,997.2
585.445,1003.15
585.98,999.6
586.514,1016.2
587.049,1047.95
587.583,1071.4
588.117,1016.3
588.651,1000.35
589.186,998.4
589.72,995.75
590.253,997.5
590.787,995.05
591.321,998.1
591.854,998.25
592.388,993.6
592.921,995.2
593.455,992.9
593.988,991.85
594.521,994.05
595.054,993.1
595.587,996.4
596.12,994.45
596.653,995.2
597.186,996.3
597.718,997.05
598.251,999.25
598.783,1000.1
599.316,995.45
599.848,994.0
600.38,995.15
600.912,993.05
601.444,991.3
601.976,994.3
602.508,993.9
603.04,992.6
603.572,992.55
604.103,992.9
604.635,988.55
605.167,988.15
605.698,987.15
606.229,986.4
606.761,987.85
607.292,985.45
607.823,986.85
608.354,989.5
608.885,988.3
609.416,986.85
609.947,985.05
610.477,983.35
611.008,987.25
611.539,985.1
612.069,987.8
612.6,987.25
613.13,988.45
613.66,991.6
614.19,989.1
614.721,985.65
615.251,989.95
615.781,984.35
616.311,987.1
616.841,985.15
617.37,988.0
617.9,988.5
618.43,987.4
618.96,985.1
619.489,983.6
620.019,983.25
620.548,984.45
621.077,984.7
621.607,979.65
622.136,987.65
622.665,991.9
623.194,1001.75
623.723,993.1
624.252,988.5
624.781,985.1
625.31,981.8
625.839,982.75
626.368,983.7
626.896,983.35
627.425,985.0
627.953,994.35
628.482,1066.45
629.01,1044.3
629.539,1046.9
630.067,1050.6
630.596,1127.5
631.124,1519.8
631.652,1229.15
632.18,1106.1
632.708,1094.2
633.236,1193.2
633.764,1140.6
634.292,1045.05
634.82,997.4
635.348,979.55
635.876,975.05
636.403,972.3
636.931,974.2
637.459,967.05
637.986,968.0
638.514,967.05
639.041,967.55
639.568,971.15
640.096,966.45
640.623,964.6
641.15,966.7
641.678,967.75
642.205,963.7
642.732,961.8
643.259,959.05
643.786,957.5
644.313,958.6
644.84,957.15
645.367,955.9
645.894,951.85
646.421,951.9
646.948,952.35
647.474,950.6
648.001,954.75
648.528,950.25
649.054,950.85
649.581,947.95
650.108,946.9
650.634,948.4
651.161,948.1
651.687,948.2
652.214,946.15
652.74,943.9
653.266,945.75
653.793,945.65
654.319,945.55
654.845,944.2
655.371,945.35
655.897,944.9
656.424,943.7
656.95,942.35
657.476,942.55
658.002,941.75
658.528,943.45
659.054,939.85
659.58,940.55
660.106,941.2
660.631,940.25
661.157,936.75
661.683,935.3
662.209,936.75
662.735,936.2
663.129,931.65