File: spectra/VLFR_01-LDPE_bio_Raman_c27fbf4a.csv
nm,Intensity
526.547,831.95
527.095,831.85
527.642,831.2
528.189,831.65
528.736,832.95
529.283,832.7
529.829,832.35
530.376,831.35
530.922,831.9
531.468,832.2
532.014,841.45
532.56,832.8
533.106,832.5
533.651,833.75
534.196,908.65
534.742,891.8
535.287,876.6
535.832,865.9
536.376,858.25
536.921,856.9
537.465,855.05
538.01,857.2
538.554,852.25
539.098,852.45
539.642,847.4
540.186,845.5
540.729,845.9
541.273,844.1
541.816,844.55
542.36,843.35
542.903,845.0
543.446,843.6
543.988,843.0
544.531,842.05
545.074,842.25
545.616,842.45
546.158,841.25
546.701,840.65
547.243,842.1
547.785,842.35
548.326,841.85
548.868,840.35
549.41,840.2
549.951,841.45
550.492,839.75
551.034,840.9
551.575,841.0
552.116,840.75
552.656,840.15
553.197,842.5
553.738,843.4
554.278,844.55
554.819,845.65
555.359,844.9
555.899,846.6
556.439,848.2
556.979,850.5
557.519,853.05
558.058,854.75
558.598,856.05
559.137,851.6
559.677,850.4
560.216,848.8
560.755,846.6
561.294,849.45
561.833,848.8
562.371,850.85
562.91,853.75
563.449,860.1
563.987,934.95
564.525,880.35
565.064,872.4
565.602,867.7
566.14,975.1
566.678,868.3
567.216,858.25
567.753,855.45
568.291,851.6
568.828,851.05
569.366,852.9
569.903,852.95
570.44,858.25
570.977,867.2
571.514,1012.15
572.051,898.05
572.588,868.65
573.125,861.4
573.661,863.15
574.198,867.2
574.734,859.45
575.271,866.75
575.807,922.75
576.343,1003.45
576.879,954.65
577.415,908.6
577.951,881.05
578.486,879.0
579.022,879.3
579.557,883.6
580.093,884.85
580.628,886.75
581.164,889.35
581.699,891.7
582.234,893.7
582.769,897.65
583.304,898.4
583.838,899.9
584.373,901.8
584.908,901.9
585.442,905.2
585.977,909.55
586.511,914.45
587.045,916.2
587.58,921.25
588.114,923.25
588.648,927.7
589.182,929.6
589.715,937.25
590.249,940.2
590.783,943.85
591.316,949.4
591.85,951.1
592.383,955.3
592.917,957.9
593.45,956.45
593.983,961.1
594.516,965.65
595.049,971.65
595.582,974.8
596.115,979.65
596.648,982.25
597.18,986.45
597.713,996.65
598.245,1003.75
598.778,1006.2
599.31,1012.25
599.842,1018.7
600.375,1021.5
600.907,1015.95
601.439,1018.7
601.971,1017.05
602.503,1014.45
603.034,1008.3
603.566,1008.15
604.098,998.25
604.629,989.65
605.161,983.25
605.692,974.6
606.224,968.0
606.755,962.75
607.286,956.25
607.817,951.75
608.348,947.7
608.879,946.8
609.41,939.3
609.941,937.0
610.472,936.35
611.002,932.95
611.533,932.05
612.063,929.0
612.594,927.5
613.124,921.95
613.655,924.05
614.185,923.75
614.715,920.2
615.245,917.45
615.775,916.8
616.305,914.0
616.835,918.85
617.365,916.8
617.895,921.25
618.425,917.0
618.954,918.35
619.484,918.1
620.013,919.35
620.543,921.15
621.072,922.7
621.602,929.3
622.131,953.75
622.66,948.55
623.189,925.0
623.718,918.7
624.247,916.8
624.776,919.1
625.305,922.9
625.834,928.55
626.363,957.6
626.891,1194.8
627.42,1611.75
627.949,1357.6
628.477,1592.9
629.006,1451.65
629.534,1346.55
630.062,1239.15
630.591,1207.85
631.119,1051.3
631.647,976.0
632.175,946.35
632.703,930.35
633.231,923.85
633.759,918.25
634.287,915.55
634.815,914.65
635.343,914.3
635.871,913.95
636.398,914.05
636.926,912.9
637.454,912.55
637.981,908.45
638.509,911.0
639.036,912.5
639.564,912.15
640.091,915.95
640.618,915.2
641.146,916.65
641.673,919.25
642.2,917.2
642.727,917.6
643.254,917.9
643.781,921.35
644.308,921.85
644.835,919.75
645.362,920.5
645.889,920.6
646.416,923.95
646.942,927.6
647.469,923.2
647.996,922.85
648.522,924.55
649.049,923.8
649.576,927.4
650.102,926.5
650.629,922.85
651.155,927.5
651.682,928.85
652.208,931.2
652.734,927.7
653.261,931.25
653.787,930.45
654.313,927.85
654.839,926.95
655.365,929.35
655.892,928.7
656.418,925.4
656.944,928.0
657.47,923.5
657.996,923.9
658.522,922.35
659.048,920.4
659.574,917.55
660.099,915.05
660.625,910.9
661.151,907.45
661.677,903.35
662.203,899.15
662.728,900.0
663.123,898.05