File: spectra/VLFR_07-PET_bio_Raman_0f659c4d.csv
nm,Intensity
791.588,10269.6
792.685,9739.5
793.781,9538.2
794.878,9315.2
795.975,9318.6
797.071,9331.9
798.168,9327.4
799.264,9307.2
800.36,9220.4
801.456,9378.8
802.552,9269.4
803.648,9259.5
804.744,9086.6
805.84,9084.0
806.936,8998.4
808.031,8906.6
809.127,8831.0
810.222,8876.1
811.317,8768.5
812.412,8659.9
813.507,8554.4
814.602,8564.0
815.697,8405.6
816.792,8452.1
817.887,8335.9
818.981,8229.4
820.076,8273.0
821.17,8173.4
822.265,8060.3
823.359,8018.3
824.453,7959.2
825.547,8052.9
826.641,7920.5
827.735,7838.1
828.828,7687.1
829.922,7712.1
831.016,7707.1
832.109,7530.2
833.202,7507.9
834.295,7440.2
835.388,7395.8
836.481,7433.0
837.574,7387.7
838.667,7369.7
839.76,7276.1
840.852,7398.8
841.945,7474.7
843.037,7149.9
844.129,7140.4
845.221,6993.7
846.314,6878.0
847.405,6899.9
848.497,6810.4
849.589,6776.4
850.68,6746.8
851.772,6735.8
852.863,6716.6
853.955,6677.3
855.046,6585.7
856.137,6512.1
857.228,6545.4
858.318,6550.9
859.409,6647.7
860.5,6595.2
861.59,6488.1
862.681,6443.3
863.771,6325.6
864.861,6339.5
865.951,6313.3
867.041,6290.8
868.131,6246.5
869.22,6290.5
870.31,6220.5
871.399,6357.7
872.488,6420.6
873.578,6372.7
874.667,6289.4
875.756,6162.9
876.845,6126.4
877.933,6059.7
879.022,5986.4
880.11,6010.4
881.199,5962.7
882.287,5986.6
883.375,5880.6
884.463,5937.1
885.551,5885.1
886.639,5877.6
887.726,5756.9
888.814,5714.6
889.901,5697.8
890.988,5678.2
892.075,5657.9
893.162,5624.8
894.249,5617.9
895.336,5525.7
896.423,5500.8
897.509,5684.1
898.595,5903.4
899.682,5621.2
900.768,5404.3
901.854,5338.7
902.94,5310.1
904.025,5284.9
905.111,5285.7
906.196,5350.8
907.282,5468.2
908.367,5435.3
909.452,5279.3
910.537,5127.3
911.622,5084.6
912.706,5034.0
913.791,4995.6
914.875,4924.5
915.959,4907.9
917.044,4898.4
918.128,4863.9
919.211,4868.6
920.295,4785.2
921.379,4796.6
922.462,4744.5
923.546,4712.9
924.629,4723.3
925.712,4670.7
926.795,4639.2
927.877,4605.4
928.96,4577.1
930.043,4548.2
931.125,4525.4
932.207,4496.3
933.289,4488.1
934.371,4450.5
935.453,4432.7
936.535,4436.6
937.616,4388.4
938.697,4369.9
939.779,4342.3
940.86,4332.9
941.941,4316.3
943.022,4304.4
944.102,4295.2
945.183,4258.1
946.263,4251.0
947.343,4246.6
948.423,4221.3
949.503,4221.0
950.583,4191.4
951.663,4191.5
952.742,4162.0
953.822,4156.1
954.901,4146.9
955.98,4123.4
957.059,4116.0
958.137,4102.8
959.216,4093.0
960.294,4071.9
961.373,4063.1
962.451,4064.9
963.529,4052.6
964.607,4041.8
965.684,4029.6
966.762,4023.4
967.839,4017.3
968.917,4012.1
969.994,3998.3
971.071,3989.0
972.147,3981.4
973.224,3980.4
974.3,3965.7
975.377,3962.6
976.453,3956.9
977.529,3945.2
978.605,3939.8
979.68,3939.2
980.756,3935.2
981.831,3922.9
982.907,3915.5
983.982,3909.9
985.057,3906.9
986.131,3899.6
987.206,3903.5
988.28,3892.5
989.355,3883.2
990.429,3878.9
991.503,3875.4
992.576,3871.8
993.65,3867.3
994.723,3859.7
995.797,3856.8
996.87,3855.0
997.943,3853.9
999.016,3844.9
1000.09,3845.2
1001.16,3841.6
1002.23,3835.7
1003.31,3832.6
1004.38,3833.3
1005.45,3825.2
1006.52,3822.6
1007.59,3822.6
1008.66,3817.6
1009.73,3815.2
1010.81,3811.4
1011.88,3810.4
1012.95,3806.3
1014.02,3804.1
1015.09,3803.2
1016.16,3801.6
1017.23,3802.4
1018.3,3795.5
1019.37,3794.8
1020.44,3792.2
1021.51,3798.0
1022.58,3793.6
1023.64,3790.9
1024.71,3792.5
1025.78,3787.2
1026.85,3786.3
1027.92,3781.0
1028.99,3777.0
1030.05,3778.0
1031.12,3776.9
1032.19,3778.5
1033.26,3777.6
1034.32,3778.1
1035.39,3776.0
1036.46,3772.1
1037.52,3772.6
1038.59,3769.5
1039.66,3768.5
1040.72,3768.7
1041.79,3767.1
1042.86,3764.5
1043.92,3767.1
1044.99,3763.7
1046.05,3764.4
1047.12,3763.1
1048.18,3762.3
1049.25,3760.5
1050.31,3760.7
1051.37,3760.5
1052.44,3762.3
1053.5,3761.5
1054.57,3758.5
1055.63,3758.9
1056.69,3760.9
1057.76,3757.9
1058.82,3758.3
1059.88,3759.0
1060.95,3759.0
1062.01,3759.8
1063.07,3758.7
1064.13,3757.1
1065.19,3757.0
1066.26,3757.8
1067.32,3756.2
1068.11,3758.7