File: spectra/VLFR_02-HDPE_bio_Raman_eeeef97e.csv
nm,Intensity
526.547,832.9
527.095,832.1
527.642,831.4
528.189,831.8
528.736,832.75
529.283,831.9
529.829,832.35
530.376,832.75
530.922,832.35
531.468,832.45
532.014,845.45
532.56,832.5
533.106,833.3
533.651,832.65
534.196,860.0
534.742,858.3
535.287,855.35
535.832,850.75
536.376,850.85
536.921,847.55
537.465,849.5
538.01,850.3
538.554,849.9
539.098,849.2
539.642,850.65
540.186,849.7
540.729,848.2
541.273,848.05
541.816,848.7
542.36,850.35
542.903,850.5
543.446,850.2
543.988,849.75
544.531,851.0
545.074,852.6
545.616,850.8
546.158,850.35
546.701,849.7
547.243,850.9
547.785,850.1
548.326,849.7
548.868,851.9
549.41,851.7
549.951,852.0
550.492,853.3
551.034,852.35
551.575,850.65
552.116,851.95
552.656,849.6
553.197,852.4
553.738,851.25
554.278,852.6
554.819,853.65
555.359,852.6
555.899,852.55
556.439,853.3
556.979,852.2
557.519,854.8
558.058,854.0
558.598,854.15
559.137,853.5
559.677,854.75
560.216,855.1
560.755,855.6
561.294,859.6
561.833,867.6
562.371,856.35
562.91,856.05
563.449,857.35
563.987,879.3
564.525,862.3
565.064,861.7
565.602,860.1
566.14,891.4
566.678,864.55
567.216,862.6
567.753,858.95
568.291,859.05
568.828,858.6
569.366,860.85
569.903,859.15
570.44,859.5
570.977,859.4
571.514,897.9
572.051,862.2
572.588,860.95
573.125,860.9
573.661,859.6
574.198,862.45
574.734,860.95
575.271,862.65
575.807,873.05
576.343,888.55
576.879,877.65
577.415,871.25
577.951,864.4
578.486,863.85
579.022,862.4
579.557,863.2
580.093,863.75
580.628,863.65
581.164,862.9
581.699,863.25
582.234,866.25
582.769,864.15
583.304,866.05
583.838,866.05
584.373,866.0
584.908,866.4
585.442,866.7
585.977,864.55
586.511,868.4
587.045,868.15
587.58,867.5
588.114,867.6
588.648,866.95
589.182,869.15
589.715,870.0
590.249,869.65
590.783,868.1
591.316,870.1
591.85,869.25
592.383,868.9
592.917,870.9
593.45,870.4
593.983,869.85
594.516,869.95
595.049,871.95
595.582,872.15
596.115,869.8
596.648,872.75
597.18,872.35
597.713,872.6
598.245,874.2
598.778,874.9
599.31,875.15
599.842,874.2
600.375,874.85
600.907,875.75
601.439,873.7
601.971,875.95
602.503,874.65
603.034,873.55
603.566,872.85
604.098,873.8
604.629,872.1
605.161,872.5
605.692,871.75
606.224,872.0
606.755,870.95
607.286,872.1
607.817,870.4
608.348,871.1
608.879,872.15
609.41,872.6
609.941,870.7
610.472,870.65
611.002,869.4
611.533,869.55
612.063,871.0
612.594,872.8
613.124,872.75
613.655,870.85
614.185,873.45
614.715,871.15
615.245,872.1
615.775,871.9
616.305,871.45
616.835,873.25
617.365,871.75
617.895,875.3
618.425,874.2
618.954,873.15
619.484,875.75
620.013,874.85
620.543,872.9
621.072,874.95
621.602,878.15
622.131,884.55
622.66,881.4
623.189,876.25
623.718,874.75
624.247,874.4
624.776,872.15
625.305,873.9
625.834,876.8
626.363,884.3
626.891,956.2
627.42,1052.6
627.949,975.85
628.477,1055.95
629.006,983.15
629.534,960.15
630.062,931.55
630.591,924.45
631.119,894.75
631.647,879.9
632.175,877.8
632.703,875.5
633.231,874.6
633.759,873.3
634.287,872.9
634.815,872.1
635.343,874.3
635.871,873.3
636.398,872.45
636.926,873.95
637.454,872.6
637.981,872.8
638.509,872.9
639.036,874.65
639.564,870.9
640.091,872.75
640.618,875.55
641.146,872.95
641.673,874.5
642.2,876.65
642.727,877.75
643.254,875.55
643.781,879.75
644.308,876.7
644.835,876.75
645.362,879.4
645.889,878.4
646.416,880.7
646.942,879.7
647.469,880.0
647.996,882.5
648.522,880.8
649.049,880.9
649.576,882.05
650.102,882.8
650.629,883.5
651.155,885.15
651.682,883.4
652.208,881.6
652.734,880.2
653.261,879.45
653.787,879.45
654.313,878.65
654.839,877.85
655.365,876.65
655.892,875.6
656.418,875.9
656.944,874.85
657.47,873.95
657.996,872.3
658.522,871.45
659.048,871.25
659.574,869.9
660.099,870.1
660.625,867.2
661.151,865.75
661.677,866.05
662.203,866.1
662.728,865.7
663.123,865.65