File: spectra/VLFR_07-PET_nobio_Raman_0cf8ee59.csv
nm,Intensity
791.75,14004.0
792.846,13130.9
793.942,12309.3
795.037,12332.5
796.133,12148.3
797.228,12025.7
798.324,12211.8
799.419,12026.2
800.514,12026.4
801.61,12151.0
802.705,11868.5
803.8,11597.7
804.894,11456.5
805.989,11410.0
807.084,11250.8
808.178,11147.9
809.273,10995.6
810.367,11078.0
811.461,10741.8
812.556,10761.5
813.65,10642.5
814.744,10475.5
815.837,10338.8
816.931,10359.5
818.025,10221.5
819.118,10045.3
820.212,10166.3
821.305,10029.3
822.398,9916.85
823.491,9613.3
824.585,9572.25
825.677,10129.2
826.77,9500.4
827.863,9388.0
828.956,9338.5
830.048,9219.5
831.14,9203.25
832.233,9081.05
833.325,8915.65
834.417,8845.45
835.509,8736.25
836.601,8939.95
837.692,8761.05
838.784,8733.3
839.876,8779.4
840.967,9065.95
842.058,8720.85
843.149,8466.4
844.24,8326.45
845.331,8201.2
846.422,8015.85
847.513,7987.35
848.604,7831.8
849.694,7863.7
850.784,7704.4
851.875,7816.65
852.965,7765.8
854.055,7723.6
855.145,7640.9
856.235,7484.95
857.324,7572.75
858.414,7629.65
859.503,7710.9
860.593,7586.4
861.682,7374.4
862.771,7208.25
863.86,7345.2
864.949,7259.45
866.038,7145.25
867.126,7090.35
868.215,7012.45
869.303,7105.05
870.391,7110.8
871.479,7289.45
872.567,7540.0
873.655,7261.55
874.743,6964.9
875.831,6929.9
876.918,6822.15
878.006,6801.0
879.093,6712.8
880.18,6703.1
881.267,6587.1
882.354,6599.0
883.441,6582.5
884.527,6510.25
885.614,6530.05
886.7,6399.9
887.786,6301.0
888.872,6264.5
889.958,6186.45
891.044,6279.45
892.13,6192.7
893.216,6103.6
894.301,6067.85
895.386,6022.55
896.472,6157.6
897.557,6818.4
898.642,6782.7
899.726,6045.8
900.811,5805.45
901.896,5731.15
902.98,5741.1
904.064,5702.0
905.148,5740.4
906.232,5975.75
907.316,6313.6
908.4,6055.45
909.484,5670.15
910.567,5444.05
911.65,5388.25
912.734,5333.45
913.817,5285.95
914.9,5210.15
915.982,5210.95
917.065,5137.2
918.147,5123.5
919.23,5102.9
920.312,5012.05
921.394,4971.65
922.476,4944.8
923.558,4945.7
924.639,4888.95
925.721,4845.85
926.802,4814.4
927.884,4781.0
928.965,4766.05
930.046,4729.45
931.126,4690.65
932.207,4663.0
933.288,4616.35
934.368,4604.75
935.448,4555.9
936.528,4554.3
937.608,4544.4
938.688,4478.6
939.767,4468.35
940.847,4460.5
941.926,4412.9
943.005,4389.75
944.084,4382.65
945.163,4368.05
946.242,4333.4
947.321,4320.55
948.399,4283.4
949.477,4283.75
950.556,4253.6
951.634,4249.1
952.711,4208.55
953.789,4201.45
954.867,4179.15
955.944,4186.3
957.021,4153.45
958.098,4137.1
959.175,4125.65
960.252,4127.4
961.328,4094.15
962.405,4071.55
963.481,4082.0
964.557,4056.45
965.633,4034.6
966.709,4038.7
967.785,4028.7
968.86,4004.8
969.936,4010.1
971.011,3993.3
972.086,3988.35
973.161,3963.0
974.235,3973.55
975.31,3959.6
976.384,3940.9
977.459,3937.95
978.533,3930.0
979.607,3922.35
980.68,3920.95
981.754,3905.45
982.827,3901.9
983.901,3890.65
984.974,3890.35
986.047,3887.6
987.119,3868.3
988.192,3867.15
989.264,3865.7
990.337,3854.6
991.409,3843.5
992.481,3844.5
993.553,3835.7
994.624,3827.8
995.696,3821.2
996.767,3820.8
997.838,3815.7
998.909,3807.0
999.98,3802.9
1001.05,3799.25
1002.12,3798.25
1003.19,3788.2
1004.26,3786.1
1005.33,3781.45
1006.4,3780.1
1007.47,3779.15
1008.54,3775.65
1009.61,3771.55
1010.68,3763.05
1011.75,3763.0
1012.82,3761.5
1013.88,3762.8
1014.95,3759.75
1016.02,3755.95
1017.09,3748.9
1018.16,3750.05
1019.22,3750.15
1020.29,3748.3
1021.36,3758.75
1022.43,3757.45
1023.49,3748.75
1024.56,3744.65
1025.63,3739.8
1026.69,3733.6
1027.76,3729.8
1028.83,3726.15
1029.89,3721.9
1030.96,3722.35
1032.02,3723.25
1033.09,3725.75
1034.15,3727.0
1035.22,3726.6
1036.28,3721.1
1037.35,3717.45
1038.41,3715.1
1039.48,3711.8
1040.54,3709.85
1041.6,3710.55
1042.67,3707.8
1043.73,3705.95
1044.79,3707.25
1045.86,3706.15
1046.92,3704.4
1047.98,3704.2
1049.05,3702.35
1050.11,3703.85
1051.17,3701.75
1052.23,3701.65
1053.29,3702.15
1054.36,3699.95
1055.42,3702.4
1056.48,3700.0
1057.54,3699.4
1058.6,3700.3
1059.66,3699.45
1060.72,3700.2
1061.78,3700.8
1062.84,3698.95
1063.9,3697.05
1064.96,3697.0
1066.02,3696.6
1067.08,3697.75
1067.88,3698.15