File: spectra/VLFR_08-PLA_bio_Raman_ad81c72e.csv
nm,Intensity
526.547,832.4
527.095,832.05
527.642,832.75
528.189,831.5
528.736,831.95
529.283,831.75
529.829,831.55
530.376,831.85
530.922,831.75
531.468,831.65
532.014,838.7
532.56,831.65
533.106,831.5
533.651,833.4
534.196,941.85
534.742,929.65
535.287,915.15
535.832,911.2
536.376,908.6
536.921,912.6
537.465,906.15
538.01,907.2
538.554,904.6
539.098,901.85
539.642,901.45
540.186,899.1
540.729,907.7
541.273,905.6
541.816,905.5
542.36,906.1
542.903,906.85
543.446,914.35
543.988,914.95
544.531,909.25
545.074,907.95
545.616,908.4
546.158,906.3
546.701,906.55
547.243,911.65
547.785,909.65
548.326,910.4
548.868,910.4
549.41,915.95
549.951,912.3
550.492,913.2
551.034,917.2
551.575,913.95
552.116,916.15
552.656,917.3
553.197,919.7
553.738,920.8
554.278,922.25
554.819,918.8
555.359,918.2
555.899,918.2
556.439,916.35
556.979,919.25
557.519,924.75
558.058,965.25
558.598,929.55
559.137,923.65
559.677,924.2
560.216,925.9
560.755,924.0
561.294,922.4
561.833,925.1
562.371,924.65
562.91,926.85
563.449,940.1
563.987,932.25
564.525,933.1
565.064,941.15
565.602,939.5
566.14,948.65
566.678,936.8
567.216,933.0
567.753,934.15
568.291,933.85
568.828,938.15
569.366,935.45
569.903,936.25
570.44,934.95
570.977,935.45
571.514,944.25
572.051,943.55
572.588,940.1
573.125,941.6
573.661,946.45
574.198,944.0
574.734,947.05
575.271,945.2
575.807,940.55
576.343,948.3
576.879,967.15
577.415,947.85
577.951,944.5
578.486,942.7
579.022,944.8
579.557,942.9
580.093,945.25
580.628,945.5
581.164,945.7
581.699,944.1
582.234,946.65
582.769,948.15
583.304,949.2
583.838,948.4
584.373,948.35
584.908,952.7
585.442,947.05
585.977,951.9
586.511,957.85
587.045,968.0
587.58,977.9
588.114,957.9
588.648,955.6
589.182,952.25
589.715,953.05
590.249,951.8
590.783,957.35
591.316,956.55
591.85,951.65
592.383,951.2
592.917,952.55
593.45,953.4
593.983,955.0
594.516,955.5
595.049,955.7
595.582,956.3
596.115,957.1
596.648,955.1
597.18,954.6
597.713,957.35
598.245,958.15
598.778,955.25
599.31,956.7
599.842,957.1
600.375,956.9
600.907,958.25
601.439,959.2
601.971,957.3
602.503,955.55
603.034,958.85
603.566,956.5
604.098,959.1
604.629,956.6
605.161,958.25
605.692,957.2
606.224,953.0
606.755,957.35
607.286,955.35
607.817,958.65
608.348,955.85
608.879,958.5
609.41,957.75
609.941,955.15
610.472,959.4
611.002,956.75
611.533,959.45
612.063,958.35
612.594,959.1
613.124,960.55
613.655,957.75
614.185,962.25
614.715,964.75
615.245,962.5
615.775,961.2
616.305,961.05
616.835,963.8
617.365,963.35
617.895,962.85
618.425,959.6
618.954,963.5
619.484,960.7
620.013,958.45
620.543,958.15
621.072,961.35
621.602,960.95
622.131,961.6
622.66,964.25
623.189,965.75
623.718,963.45
624.247,964.4
624.776,965.35
625.305,960.0
625.834,961.5
626.363,961.2
626.891,959.9
627.42,960.35
627.949,964.7
628.477,993.95
629.006,983.25
629.534,984.1
630.062,984.25
630.591,1011.85
631.119,1159.7
631.647,1055.35
632.175,1009.35
632.703,1004.3
633.231,1034.25
633.759,1022.9
634.287,981.95
634.815,964.1
635.343,958.9
635.871,957.55
636.398,961.0
636.926,959.9
637.454,952.9
637.981,955.05
638.509,956.85
639.036,955.2
639.564,958.3
640.091,954.6
640.618,956.55
641.146,956.3
641.673,956.0
642.2,960.2
642.727,956.85
643.254,954.3
643.781,956.6
644.308,954.6
644.835,953.95
645.362,954.85
645.889,955.9
646.416,954.6
646.942,953.15
647.469,953.35
647.996,955.6
648.522,956.15
649.049,956.35
649.576,957.1
650.102,956.8
650.629,953.3
651.155,955.2
651.682,951.2
652.208,954.35
652.734,953.9
653.261,949.75
653.787,950.0
654.313,948.35
654.839,946.65
655.365,945.05
655.892,942.05
656.418,940.95
656.944,941.5
657.47,942.5
657.996,941.25
658.522,940.4
659.048,935.8
659.574,935.5
660.099,934.9
660.625,935.1
661.151,933.5
661.677,933.1
662.203,931.5
662.728,929.0
663.123,928.15