File: spectra/VLFR_08-PLA_bio_Raman_a2489497.csv
nm,Intensity
526.495,829.2
527.042,829.0
527.589,828.75
528.136,829.05
528.682,829.0
529.229,828.75
529.775,829.05
530.321,829.4
530.867,828.6
531.413,829.2
531.959,831.0
532.505,829.65
533.051,829.15
533.596,829.45
534.141,998.1
534.687,967.65
535.232,940.45
535.777,926.35
536.321,922.1
536.866,923.55
537.41,916.1
537.955,915.1
538.499,904.75
539.043,902.5
539.587,901.0
540.131,895.45
540.675,906.55
541.219,905.7
541.762,899.85
542.305,898.4
542.849,900.2
543.392,915.5
543.935,924.55
544.478,912.6
545.02,903.45
545.563,912.3
546.106,921.85
546.648,908.85
547.19,902.55
547.732,900.75
548.274,899.55
548.816,900.15
549.358,907.4
549.9,910.85
550.441,914.95
550.983,926.9
551.524,911.6
552.065,910.15
552.606,910.45
553.147,912.75
553.688,907.25
554.229,915.3
554.769,909.35
555.31,907.3
555.85,903.1
556.391,904.45
556.931,907.65
557.471,917.7
558.011,997.6
558.551,931.45
559.09,918.0
559.63,914.85
560.169,913.3
560.709,914.6
561.248,909.35
561.787,932.85
562.326,1065.4
562.865,948.6
563.404,941.4
563.943,927.35
564.481,925.85
565.02,942.15
565.558,939.7
566.096,962.25
566.634,943.25
567.172,924.0
567.71,924.15
568.248,923.5
568.786,926.6
569.324,924.85
569.861,919.25
570.399,919.7
570.936,923.25
571.473,934.45
572.01,935.7
572.547,931.9
573.084,933.2
573.621,934.3
574.158,934.8
574.694,942.0
575.231,922.2
575.767,928.6
576.303,935.3
576.84,977.55
577.376,942.75
577.912,926.65
578.448,926.6
578.984,924.1
579.519,926.95
580.055,926.1
580.59,921.05
581.126,926.3
581.661,927.35
582.196,925.75
582.731,925.95
583.267,927.05
583.801,929.15
584.336,929.35
584.871,928.05
585.406,926.45
585.94,929.7
586.475,939.35
587.009,961.45
587.543,979.75
588.078,948.05
588.612,928.7
589.146,927.55
589.68,929.25
590.214,925.6
590.747,930.8
591.281,929.1
591.815,926.3
592.348,928.1
592.881,926.3
593.415,926.05
593.948,927.05
594.481,923.0
595.014,928.1
595.547,928.9
596.08,923.8
596.613,927.45
597.146,926.45
597.678,929.45
598.211,928.7
598.743,929.75
599.276,926.0
599.808,928.7
600.34,926.45
600.872,926.6
601.404,926.8
601.936,926.45
602.468,925.35
603.0,924.3
603.532,926.7
604.064,925.25
604.595,925.1
605.127,921.8
605.658,920.65
606.189,920.75
606.721,919.15
607.252,920.9
607.783,919.8
608.314,922.1
608.845,921.1
609.376,921.6
609.907,920.9
610.438,919.95
610.968,918.7
611.499,923.3
612.029,920.6
612.56,922.7
613.09,922.3
613.621,924.4
614.151,924.4
614.681,922.3
615.211,920.75
615.741,919.0
616.271,921.15
616.801,923.0
617.331,921.4
617.861,919.2
618.39,919.35
618.92,918.4
619.45,918.35
619.979,922.65
620.509,918.25
621.038,919.35
621.567,919.4
622.096,918.85
622.626,924.95
623.155,929.2
623.684,924.5
624.213,921.9
624.742,917.2
625.271,915.8
625.799,919.45
626.328,918.1
626.857,916.3
627.386,917.0
627.914,923.55
628.443,967.25
628.971,959.4
629.5,957.6
630.028,961.6
630.556,1002.05
631.084,1263.3
631.613,1093.1
632.141,1008.25
632.669,991.3
633.197,1051.4
633.725,1027.7
634.253,961.9
634.781,928.65
635.308,916.65
635.836,917.9
636.364,914.95
636.891,911.35
637.419,906.1
637.947,909.6
638.474,908.1
639.002,908.25
639.529,906.3
640.056,906.75
640.584,907.0
641.111,906.2
641.638,907.25
642.165,905.3
642.692,905.6
643.219,903.1
643.746,902.75
644.273,901.1
644.8,900.65
645.327,897.35
645.854,900.25
646.381,900.3
646.908,901.45
647.434,899.6
647.961,898.85
648.488,897.65
649.014,898.7
649.541,895.85
650.067,898.05
650.594,895.75
651.12,898.2
651.646,896.45
652.173,898.1
652.699,898.45
653.225,896.0
653.752,895.35
654.278,897.5
654.804,894.2
655.33,893.25
655.856,893.85
656.382,893.5
656.908,891.75
657.434,892.3
657.96,892.05
658.486,892.45
659.012,890.05
659.538,889.65
660.064,887.1
660.589,886.45
661.115,886.35
661.641,886.05
662.166,883.05
662.692,887.85
663.086,884.05