File: spectra/VLFR_02-HDPE_bio_Raman_5252f225.csv
nm,Intensity
526.495,829.0
527.042,829.7
527.589,830.1
528.136,829.9
528.682,829.3
529.229,830.0
529.775,829.7
530.321,829.3
530.867,829.0
531.413,829.0
531.959,830.8
532.505,829.2
533.051,829.9
533.596,830.1
534.141,891.4
534.687,886.5
535.232,881.9
535.777,864.7
536.321,856.1
536.866,853.3
537.41,852.9
537.955,853.0
538.499,851.8
539.043,848.7
539.587,846.5
540.131,848.5
540.675,846.0
541.219,846.9
541.762,845.1
542.305,845.9
542.849,847.3
543.392,845.2
543.935,845.6
544.478,846.8
545.02,845.1
545.563,844.9
546.106,845.9
546.648,843.8
547.19,847.1
547.732,846.8
548.274,847.3
548.816,845.3
549.358,846.3
549.9,844.3
550.441,844.3
550.983,844.6
551.524,845.2
552.065,844.2
552.606,845.9
553.147,847.0
553.688,847.0
554.229,849.9
554.769,849.0
555.31,844.8
555.85,849.7
556.391,851.3
556.931,852.2
557.471,854.6
558.011,855.9
558.551,855.9
559.09,856.5
559.63,851.4
560.169,855.9
560.709,852.8
561.248,852.5
561.787,855.7
562.326,855.8
562.865,855.1
563.404,860.4
563.943,926.3
564.481,873.7
565.02,869.9
565.558,866.3
566.096,947.7
566.634,867.8
567.172,863.6
567.71,864.6
568.248,858.0
568.786,860.2
569.324,859.7
569.861,858.5
570.399,863.0
570.936,865.5
571.473,981.7
572.01,889.6
572.547,865.8
573.084,860.1
573.621,860.2
574.158,865.7
574.694,861.9
575.231,867.8
575.767,908.2
576.303,1012.9
576.84,941.9
577.376,916.3
577.912,872.7
578.448,868.3
578.984,870.4
579.519,869.6
580.055,870.5
580.59,870.2
581.126,874.3
581.661,874.3
582.196,873.6
582.731,877.4
583.267,876.8
583.801,877.8
584.336,881.9
584.871,883.2
585.406,886.7
585.94,891.1
586.475,890.3
587.009,896.4
587.543,894.2
588.078,892.8
588.612,897.0
589.146,901.9
589.68,904.0
590.214,906.2
590.747,907.7
591.281,914.0
591.815,917.8
592.348,917.8
592.881,916.7
593.415,921.6
593.948,923.1
594.481,926.4
595.014,928.8
595.547,931.1
596.08,931.2
596.613,938.7
597.146,939.7
597.678,942.6
598.211,949.0
598.743,946.8
599.276,957.2
599.808,956.0
600.34,956.6
600.872,955.7
601.404,955.1
601.936,960.4
602.468,956.5
603.0,952.8
603.532,954.3
604.064,949.8
604.595,944.2
605.127,941.3
605.658,932.9
606.189,930.7
606.721,928.9
607.252,926.0
607.783,921.2
608.314,919.0
608.845,918.2
609.376,913.8
609.907,914.7
610.438,914.1
610.968,913.1
611.499,912.0
612.029,909.9
612.56,911.7
613.09,907.6
613.621,907.8
614.151,905.8
614.681,908.4
615.211,905.8
615.741,903.6
616.271,909.9
616.801,905.2
617.331,912.8
617.861,911.1
618.39,911.2
618.92,908.5
619.45,914.6
619.979,911.3
620.509,911.5
621.038,914.0
621.567,928.7
622.096,952.2
622.626,953.7
623.155,916.8
623.684,908.4
624.213,909.4
624.742,906.6
625.271,912.3
625.799,917.6
626.328,953.0
626.857,1229.8
627.386,1719.3
627.914,1354.8
628.443,1655.0
628.971,1413.3
629.5,1280.7
630.028,1160.6
630.556,1128.8
631.084,996.8
631.613,929.5
632.141,911.3
632.669,906.5
633.197,900.3
633.725,902.1
634.253,896.6
634.781,893.3
635.308,892.8
635.836,893.6
636.364,896.2
636.891,895.8
637.419,885.4
637.947,890.8
638.474,890.1
639.002,889.8
639.529,889.6
640.056,894.6
640.584,895.3
641.111,892.2
641.638,891.2
642.165,894.0
642.692,891.8
643.219,892.6
643.746,891.4
644.273,897.0
644.8,893.5
645.327,893.6
645.854,900.1
646.381,896.4
646.908,896.2
647.434,896.7
647.961,899.8
648.488,897.6
649.014,894.0
649.541,898.3
650.067,898.3
650.594,896.4
651.12,897.7
651.646,901.7
652.173,896.7
652.699,897.7
653.225,899.6
653.752,895.7
654.278,899.8
654.804,895.7
655.33,900.5
655.856,897.1
656.382,896.0
656.908,899.5
657.434,893.7
657.96,894.4
658.486,892.6
659.012,889.6
659.538,895.9
660.064,892.8
660.589,889.1
661.115,885.3
661.641,885.6
662.166,884.8
662.692,886.7
663.086,880.1