File: spectra/VLFR_08-PLA_nobio_Raman_f673bdf3.csv
nm,Intensity
526.532,830.867
527.079,831.333
527.625,829.967
528.172,830.167
528.718,830.3
529.265,830.0
529.811,830.067
530.357,829.8
530.903,830.467
531.449,830.067
531.994,835.833
532.54,831.267
533.085,830.833
533.63,833.467
534.176,1037.1
534.721,984.167
535.266,954.333
535.81,932.467
536.355,922.167
536.9,925.567
537.444,912.9
537.988,911.467
538.533,900.067
539.077,898.2
539.621,890.567
540.165,888.233
540.708,907.9
541.252,905.5
541.795,895.3
542.339,890.0
542.882,890.667
543.425,916.933
543.968,933.067
544.511,897.367
545.054,886.833
545.597,884.333
546.139,882.767
546.682,885.033
547.224,885.7
547.766,881.267
548.308,884.5
548.85,884.967
549.392,889.3
549.934,884.467
550.475,887.533
551.017,889.9
551.558,890.333
552.1,897.767
552.641,898.5
553.182,897.333
553.723,894.2
554.264,899.3
554.804,890.733
555.345,887.333
555.885,883.8
556.426,886.433
556.966,887.433
557.506,904.267
558.046,1033.1
558.586,918.6
559.126,900.467
559.665,900.4
560.205,892.633
560.745,892.5
561.284,889.1
561.823,888.0
562.362,890.367
562.901,901.833
563.44,936.9
563.979,909.567
564.518,906.367
565.056,925.8
565.595,916.9
566.133,955.633
566.671,915.533
567.21,898.6
567.748,906.733
568.285,905.367
568.823,907.167
569.361,906.867
569.899,903.767
570.436,902.8
570.974,907.067
571.511,930.1
572.048,924.9
572.585,914.167
573.122,918.067
573.659,922.933
574.196,916.533
574.733,926.2
575.269,904.767
575.806,907.4
576.342,927.567
576.878,981.933
577.414,925.3
577.951,909.367
578.486,905.5
579.022,904.333
579.558,904.2
580.094,902.133
580.629,903.867
581.165,903.433
581.7,904.7
582.236,903.6
582.771,904.267
583.306,903.1
583.841,904.9
584.376,907.0
584.911,904.2
585.445,904.667
585.98,907.2
586.514,917.9
587.049,953.5
587.583,985.667
588.117,924.8
588.651,906.3
589.186,902.7
589.72,902.5
590.253,902.5
590.787,900.933
591.321,901.4
591.854,901.667
592.388,902.333
592.921,902.367
593.455,898.633
593.988,901.367
594.521,902.0
595.054,900.133
595.587,899.833
596.12,898.167
596.653,901.467
597.186,902.267
597.718,900.5
598.251,900.033
598.783,899.867
599.316,901.233
599.848,899.733
600.38,899.967
600.912,900.833
601.444,901.867
601.976,901.767
602.508,901.333
603.04,901.067
603.572,899.4
604.103,900.033
604.635,898.933
605.167,899.367
605.698,896.967
606.229,895.967
606.761,897.2
607.292,898.333
607.823,896.167
608.354,896.633
608.885,898.833
609.416,898.0
609.947,897.333
610.477,899.167
611.008,896.967
611.539,898.7
612.069,897.5
612.6,898.067
613.13,899.033
613.66,899.833
614.19,900.567
614.721,899.233
615.251,898.667
615.781,899.5
616.311,900.733
616.841,899.233
617.37,903.2
617.9,898.267
618.43,899.633
618.96,898.367
619.489,900.267
620.019,899.967
620.548,899.667
621.077,897.4
621.607,898.633
622.136,903.567
622.665,910.033
623.194,915.633
623.723,910.767
624.252,907.3
624.781,901.2
625.31,900.1
625.839,900.633
626.368,899.733
626.896,903.367
627.425,904.133
627.953,916.0
628.482,988.933
629.01,969.4
629.539,970.933
630.067,976.833
630.596,1048.43
631.124,1475.27
631.652,1171.77
632.18,1041.77
632.708,1014.87
633.236,1117.27
633.764,1070.3
634.292,967.533
634.82,920.733
635.348,905.867
635.876,900.1
636.403,896.233
636.931,893.3
637.459,892.933
637.986,891.533
638.514,893.1
639.041,893.167
639.568,894.133
640.096,891.667
640.623,892.833
641.15,892.0
641.678,893.033
642.205,893.0
642.732,890.167
643.259,887.167
643.786,887.533
644.313,886.133
644.84,886.467
645.367,882.867
645.894,884.367
646.421,884.433
646.948,883.333
647.474,882.7
648.001,883.433
648.528,883.567
649.054,882.833
649.581,880.933
650.108,881.867
650.634,881.833
651.161,881.067
651.687,880.033
652.214,881.667
652.74,881.1
653.266,879.733
653.793,880.067
654.319,880.633
654.845,880.033
655.371,879.967
655.897,878.4
656.424,877.867
656.95,879.6
657.476,880.667
658.002,880.433
658.528,878.967
659.054,877.867
659.58,877.967
660.106,878.0
660.631,876.6
661.157,876.3
661.683,877.433
662.209,874.733
662.735,875.3
663.129,875.5