File: spectra/VLFR_01-LDPE_nobio_Raman_e2076e4c.csv
cm-1,Intensity
-123.878,1852.5
-105.821,1852.95
-87.8007,1854.25
-69.8161,1853.15
-51.8675,1853.2
-33.9547,1854.8
-16.0776,1870.3
1.76388,2702.25
19.5698,1853.8
37.3403,1855.35
55.0755,1940.15
72.7754,2192.05
90.4402,2212.65
108.07,2221.3
125.665,2233.85
143.225,2217.7
160.75,2231.5
178.241,2218.8
195.697,2245.6
213.119,2243.1
230.506,2236.6
247.859,2253.25
265.178,2265.75
282.463,2253.4
299.713,2259.25
316.93,2268.85
334.113,2277.75
351.263,2285.3
368.379,2290.3
385.461,2280.8
402.51,2293.3
419.526,2289.4
436.508,2302.65
453.458,2299.45
470.374,2302.3
487.257,2326.6
504.107,2321.35
520.925,2301.7
537.71,2319.5
554.462,2337.65
571.182,2342.1
587.87,2331.55
604.525,2336.1
621.148,2338.0
637.739,2340.05
654.297,2354.35
670.824,2361.95
687.319,2367.1
703.782,2344.05
720.213,2368.25
736.613,2394.3
752.981,2370.7
769.317,2390.6
785.623,2388.05
801.897,2386.5
818.139,2408.25
834.351,2395.85
850.532,2413.05
866.681,2430.55
882.8,2435.55
898.888,2422.3
914.945,2440.75
930.972,2453.45
946.968,2455.75
962.934,2455.05
978.869,2467.9
994.774,2475.35
1010.65,2492.95
1026.49,2496.25
1042.31,2497.0
1058.09,2538.4
1073.85,2529.0
1089.57,2547.55
1105.27,2537.05
1120.93,2555.85
1136.57,2571.3
1152.18,2553.0
1167.75,2565.15
1183.3,2584.55
1198.82,2596.85
1214.31,2614.8
1229.77,2608.65
1245.2,2627.25
1260.6,2657.65
1275.97,2645.85
1291.32,2712.25
1306.63,2690.9
1321.92,2707.2
1337.18,2699.45
1352.41,2707.4
1367.61,2688.0
1382.78,2704.05
1397.93,2702.05
1413.05,2731.4
1428.14,2748.6
1443.2,2792.2
1458.23,2783.45
1473.23,2734.75
1488.21,2709.65
1503.16,2721.9
1518.08,2747.7
1532.97,2759.6
1547.84,2774.95
1562.68,2773.4
1577.49,2796.7
1592.27,2808.3
1607.03,2789.0
1621.76,2755.95
1636.46,2750.5
1651.14,2736.05
1665.78,2718.15
1680.41,2740.2
1695.0,2703.75
1709.57,2710.5
1724.11,2716.8
1738.62,2716.55
1753.11,2732.5
1767.57,2728.95
1782.01,2735.7
1796.41,2724.25
1810.8,2741.95
1825.15,2721.75
1839.48,2739.15
1853.79,2760.0
1868.06,2756.25
1882.31,2745.8
1896.54,2770.25
1910.74,2769.8
1924.91,2762.75
1939.06,2777.8
1953.19,2790.95
1967.28,2780.0
1981.35,2784.6
1995.4,2793.7
2009.42,2813.6
2023.42,2834.35
2037.39,2837.0
2051.33,2840.1
2065.25,2830.65
2079.15,2848.75
2093.01,2864.0
2106.86,2864.35
2120.68,2855.95
2134.47,2881.65
2148.24,2880.9
2161.99,2867.35
2175.71,2896.85
2189.41,2907.7
2203.08,2909.15
2216.73,2878.6
2230.35,2895.95
2243.95,2881.6
2257.52,2884.5
2271.07,2897.85
2284.6,2888.4
2298.1,2910.55
2311.58,2922.6
2325.03,2915.0
2338.46,2886.85
2351.87,2890.8
2365.25,2914.05
2378.61,2890.65
2391.94,2890.15
2405.26,2930.75
2418.54,2915.15
2431.81,2944.6
2445.05,2945.1
2458.27,2911.2
2471.46,2940.3
2484.63,2933.9
2497.78,2930.8
2510.9,2943.45
2524.0,2931.05
2537.08,2934.6
2550.14,2961.35
2563.17,2948.15
2576.18,2948.55
2589.17,2948.1
2602.13,2998.45
2615.07,2978.5
2627.99,2963.2
2640.89,2999.95
2653.76,3000.5
2666.61,2972.25
2679.44,2981.15
2692.25,2996.35
2705.03,3045.0
2717.79,3051.9
2730.53,3047.3
2743.25,3017.5
2755.94,2998.7
2768.61,2979.5
2781.27,3016.85
2793.89,3042.25
2806.5,3038.45
2819.09,3056.65
2831.65,3116.0
2844.19,3521.95
2856.71,3574.05
2869.21,3396.2
2881.69,3617.75
2894.14,3509.95
2906.58,3377.45
2918.99,3314.4
2931.38,3324.0
2943.75,3187.75
2956.1,3104.65
2968.42,3060.95
2980.73,3081.8
2993.01,3011.5
3005.28,3071.6
3017.52,3066.9
3029.74,3048.3
3041.94,3085.7
3054.12,3018.85
3066.28,3046.55
3078.42,3048.2
3090.54,3048.0
3102.63,3039.35
3114.71,3075.5
3126.77,3068.9
3138.8,3067.65
3150.82,3050.6
3162.81,3068.05
3174.78,3053.9
3186.74,3026.4
3198.67,3055.6
3210.58,3028.2
3222.47,3029.2
3234.35,3019.35
3246.2,3040.75
3258.03,3045.95
3269.84,3054.3
3281.64,3037.6
3293.41,3009.55
3305.16,3038.65
3316.89,2980.15
3328.61,3013.05
3340.3,3051.1
3351.97,2986.05
3363.63,3048.8
3375.26,2992.45
3386.88,2985.4
3398.47,2990.55
3410.05,2977.7
3421.6,2996.1
3433.14,3011.1
3444.66,2982.35
3456.15,2994.35
3467.63,2981.4
3479.09,2949.7
3490.53,2961.1
3501.96,2939.9
3513.36,2959.3
3524.74,2944.45
3536.11,2970.45
3547.45,2938.55
3558.78,2912.15
3570.09,2911.25
3581.37,2945.15
3592.64,2890.2
3603.9,2874.35
3615.13,2866.55
3626.34,2879.25
3637.54,2869.2
3648.72,2866.5
3659.87,2835.45
3665.45,2875.9