File: spectra/VLFR_01-LDPE_nobio_Raman_fa1e6743.csv
nm,Intensity
526.532,832.3
527.079,833.05
527.625,833.35
528.172,833.35
528.718,832.65
529.265,833.7
529.811,832.9
530.357,833.4
530.903,834.45
531.449,833.8
531.994,839.6
532.54,833.0
533.085,833.3
533.63,835.25
534.176,915.9
534.721,905.4
535.266,888.1
535.81,872.45
536.355,868.0
536.9,865.3
537.444,864.0
537.988,862.6
538.533,860.75
539.077,857.35
539.621,854.25
540.165,854.3
540.708,851.7
541.252,850.9
541.795,850.85
542.339,850.7
542.882,850.5
543.425,849.25
543.968,850.15
544.511,848.3
545.054,847.95
545.597,848.35
546.139,847.65
546.682,848.0
547.224,848.4
547.766,848.4
548.308,846.55
548.85,847.05
549.392,846.3
549.934,846.95
550.475,845.5
551.017,846.4
551.558,847.35
552.1,845.95
552.641,846.75
553.182,850.5
553.723,849.75
554.264,850.55
554.804,851.45
555.345,851.05
555.885,853.55
556.426,856.1
556.966,857.65
557.506,859.15
558.046,861.6
558.586,861.3
559.126,859.95
559.665,858.25
560.205,855.2
560.745,857.25
561.284,855.55
561.823,858.7
562.362,862.8
562.901,866.05
563.44,869.15
563.979,942.0
564.518,889.3
565.056,879.35
565.595,875.2
566.133,936.8
566.671,878.35
567.21,870.85
567.748,873.45
568.285,868.5
568.823,868.1
569.361,871.55
569.899,870.4
570.436,876.15
570.974,884.8
571.511,1015.45
572.048,913.55
572.585,890.0
573.122,886.25
573.659,888.65
574.196,896.6
574.733,894.05
575.269,896.25
575.806,935.35
576.342,1061.8
576.878,1000.35
577.414,960.6
577.951,929.3
578.486,928.25
579.022,934.7
579.558,941.7
580.094,948.05
580.629,954.45
581.165,960.75
581.7,966.75
582.236,973.95
582.771,983.6
583.306,990.6
583.841,996.5
584.376,1003.7
584.911,1007.7
585.445,1023.05
585.98,1027.55
586.514,1041.7
587.049,1052.0
587.583,1062.7
588.117,1074.45
588.651,1090.65
589.186,1099.9
589.72,1113.0
590.253,1124.75
590.787,1143.35
591.321,1150.1
591.854,1163.25
592.388,1172.95
592.921,1181.65
593.455,1183.4
593.988,1197.85
594.521,1205.2
595.054,1222.45
595.587,1232.6
596.12,1244.05
596.653,1262.85
597.186,1283.55
597.718,1298.3
598.251,1321.55
598.783,1333.75
599.316,1353.8
599.848,1359.35
600.38,1365.05
600.912,1363.75
601.444,1367.15
601.976,1356.45
602.508,1350.4
603.04,1335.6
603.572,1319.35
604.103,1308.75
604.635,1284.4
605.167,1259.0
605.698,1236.0
606.229,1215.15
606.761,1195.0
607.292,1181.3
607.823,1166.15
608.354,1154.8
608.885,1143.1
609.416,1133.7
609.947,1124.2
610.477,1111.55
611.008,1110.6
611.539,1104.0
612.069,1092.65
612.6,1091.05
613.13,1090.25
613.66,1085.25
614.19,1075.15
614.721,1069.3
615.251,1065.45
615.781,1061.55
616.311,1058.5
616.841,1048.5
617.37,1057.6
617.9,1051.0
618.43,1048.2
618.96,1042.05
619.489,1045.85
620.019,1042.4
620.548,1035.8
621.077,1042.25
621.607,1055.15
622.136,1082.5
622.665,1076.55
623.194,1037.7
623.723,1029.6
624.252,1028.45
624.781,1026.9
625.31,1026.9
625.839,1040.25
626.368,1070.8
626.896,1418.45
627.425,1868.15
627.953,1541.15
628.482,1898.55
629.01,1595.45
629.539,1466.8
630.067,1343.35
630.596,1309.05
631.124,1149.2
631.652,1070.25
632.18,1040.5
632.708,1030.5
633.236,1023.4
633.764,1020.2
634.292,1014.7
634.82,1015.65
635.348,1016.25
635.876,1018.5
636.403,1013.7
636.931,1019.3
637.459,1016.25
637.986,1021.0
638.514,1022.35
639.041,1023.9
639.568,1023.5
640.096,1029.2
640.623,1032.2
641.15,1032.75
641.678,1039.25
642.205,1036.4
642.732,1044.0
643.259,1041.85
643.786,1044.6
644.313,1046.6
644.84,1047.75
645.367,1050.55
645.894,1053.25
646.421,1053.0
646.948,1056.25
647.474,1054.95
648.001,1057.35
648.528,1057.9
649.054,1060.25
649.581,1065.05
650.108,1065.75
650.634,1066.8
651.161,1063.9
651.687,1066.4
652.214,1073.15
652.74,1075.85
653.266,1076.35
653.793,1079.0
654.319,1079.1
654.845,1075.0
655.371,1074.2
655.897,1077.65
656.424,1067.25
656.95,1065.5
657.476,1064.25
658.002,1057.6
658.528,1051.85
659.054,1046.95
659.58,1042.6
660.106,1033.8
660.631,1021.55
661.157,1014.1
661.683,1007.25
662.209,1000.3
662.735,995.6
663.129,985.7