File: spectra/VLFR_02-HDPE_bio_Raman_82584088.csv
nm,Intensity
528.65,1836.5
529.155,1836.05
529.66,1835.45
530.165,1836.55
530.67,1835.6
531.175,1838.15
531.68,1865.45
532.185,3953.05
532.69,1836.9
533.194,1839.95
533.699,2014.45
534.204,2658.4
534.708,2707.05
535.213,2738.75
535.717,2689.25
536.222,2635.3
536.726,2641.75
537.231,2663.5
537.735,2687.5
538.239,2677.95
538.743,2676.55
539.247,2677.85
539.751,2665.95
540.255,2660.65
540.759,2675.3
541.263,2678.4
541.767,2719.35
542.271,2733.85
542.775,2769.0
543.279,2795.7
543.782,2840.05
544.286,2955.45
544.789,3055.0
545.293,3105.1
545.796,3371.7
546.3,3362.2
546.803,3074.0
547.306,3002.05
547.81,3003.25
548.313,3024.6
548.816,3051.15
549.319,3096.55
549.822,3230.8
550.325,3256.35
550.828,3522.8
551.331,3281.85
551.834,3243.0
552.337,3159.2
552.839,3173.8
553.342,3191.6
553.844,3225.05
554.347,3255.95
554.849,3299.65
555.352,3311.05
555.854,3315.6
556.357,3342.8
556.859,3379.9
557.361,3388.3
557.863,3388.6
558.365,3449.45
558.867,3476.9
559.369,3515.65
559.871,3537.05
560.373,3538.3
560.875,3600.3
561.377,3726.2
561.878,4803.95
562.38,7928.75
562.881,4286.25
563.383,3785.0
563.884,4195.75
564.386,4003.05
564.887,3935.6
565.388,4004.5
565.89,4245.4
566.391,4368.8
566.892,4136.5
567.393,4133.5
567.894,4012.55
568.395,4015.05
568.896,4042.4
569.396,4039.2
569.897,4023.9
570.398,4068.25
570.898,4171.55
571.399,4719.35
571.9,4318.05
572.4,4205.75
572.9,4169.05
573.401,4182.4
573.901,4248.6
574.401,4211.15
574.901,4221.75
575.401,4545.75
575.901,4565.85
576.401,4981.4
576.901,4789.5
577.401,4569.4
577.901,4445.25
578.4,4421.65
578.9,4474.5
579.399,4479.85
579.899,4488.95
580.398,4580.5
580.898,4566.5
581.397,4671.7
581.896,4598.3
582.395,4673.05
582.895,4650.05
583.394,4731.7
583.893,4725.85
584.391,4713.35
584.89,4747.85
585.389,4744.1
585.888,4745.25
586.386,4789.25
586.885,4807.6
587.384,4872.9
587.882,4913.35
588.38,5008.5
588.879,4982.35
589.377,5012.65
589.875,5034.55
590.373,5089.6
590.871,5070.55
591.369,5172.5
591.867,5186.9
592.365,5226.4
592.863,5263.85
593.361,5262.0
593.858,5316.75
594.356,5325.55
594.853,5439.0
595.351,5388.7
595.848,5398.55
596.345,5514.05
596.843,5523.6
597.34,5553.15
597.837,5551.8
598.334,5474.7
598.831,5587.95
599.328,5592.1
599.824,5610.5
600.321,5635.75
600.818,5537.5
601.314,5638.65
601.811,5620.25
602.307,5604.15
602.804,5652.05
603.3,5582.4
603.796,5544.7
604.293,5479.75
604.789,5471.1
605.285,5433.25
605.781,5479.0
606.277,5375.7
606.772,5384.35
607.268,5367.2
607.764,5244.55
608.259,5285.25
608.755,5306.3
609.25,5302.2
609.746,5248.05
610.241,5283.7
610.736,5264.75
611.231,5240.25
611.727,5162.15
612.222,5146.3
612.716,5114.75
613.211,5099.1
613.706,5119.0
614.201,5065.65
614.695,5080.15
615.19,5130.1
615.684,5068.55
616.179,5059.4
616.673,5048.25
617.168,5093.1
617.662,5025.75
618.156,5056.3
618.65,5016.1
619.144,5075.05
619.638,5100.9
620.131,5021.0
620.625,5014.95
621.119,5108.5
621.612,5113.4
622.106,5275.2
622.599,5220.35
623.093,5010.55
623.586,4942.15
624.079,4969.2
624.572,4835.85
625.065,4917.3
625.558,4929.15
626.051,5021.0
626.544,5600.75
627.037,9131.2
627.529,8668.55
628.022,7561.95
628.514,10252.3
629.007,7405.35
629.499,6864.3
629.991,6176.9
630.483,6014.75
630.976,5375.1
631.468,4911.3
631.959,4687.85
632.451,4805.05
632.943,4738.5
633.435,4729.1
633.926,4678.65
634.418,4609.9
634.909,4581.95
635.401,4530.6
635.892,4552.6
636.383,4453.8
636.874,4501.25
637.365,4400.9
637.856,4469.55
638.347,4444.75
638.838,4397.25
639.329,4408.7
639.819,4383.45
640.31,4332.3
640.8,4332.1
641.291,4337.7
641.781,4292.0
642.271,4287.3
642.761,4283.45
643.251,4226.6
643.741,4302.7
644.231,4233.35
644.721,4241.8
645.211,4266.05
645.7,4239.05
646.19,4194.8
646.679,4153.9
647.169,4133.75
647.658,4139.65
648.147,4190.75
648.636,4039.6
649.125,4089.3
649.614,4055.9
650.103,4037.1
650.592,4097.1
651.08,4012.15
651.569,4015.35
652.058,4019.45
652.546,3943.15
653.034,3954.55
653.523,3874.8
654.011,3814.6
654.499,3875.7
654.987,3757.7
655.475,3822.0
655.963,3798.9
656.45,3687.65
656.938,3611.0
657.425,3651.75
657.913,3622.25
658.4,3523.9
658.888,3502.75
659.375,3419.05
659.862,3494.4
660.349,3408.8
660.836,3379.75
661.079,3354.5