File: spectra/VLFR_06-PET_nobio_Raman_81a28ddb.csv
nm,Intensity
526.508,830.3
527.055,829.8
527.602,830.6
528.149,831.1
528.695,830.1
529.241,830.5
529.787,830.1
530.334,829.4
530.879,829.3
531.425,830.9
531.971,835.0
532.516,831.0
533.062,829.0
533.607,835.7
534.152,1723.2
534.697,1477.9
535.242,1230.0
535.786,1077.9
536.331,976.3
536.876,936.8
537.42,924.5
537.964,917.0
538.508,921.6
539.052,919.6
539.596,929.4
540.14,936.1
540.683,908.2
541.227,894.0
541.77,894.1
542.313,892.2
542.856,893.1
543.399,893.0
543.942,898.0
544.485,895.6
545.027,893.2
545.57,899.0
546.112,895.1
546.654,898.6
547.196,899.8
547.738,898.9
548.28,902.2
548.822,904.5
549.363,904.2
549.905,905.7
550.446,922.0
550.988,924.5
551.529,912.0
552.07,912.0
552.611,919.4
553.152,935.5
553.692,922.2
554.233,916.6
554.773,921.5
555.314,931.8
555.854,966.3
556.394,971.3
556.934,976.4
557.474,1076.1
558.014,996.6
558.553,987.7
559.093,957.2
559.632,939.8
560.172,936.2
560.711,940.7
561.25,946.9
561.789,948.7
562.328,959.7
562.867,966.9
563.406,970.6
563.944,963.7
564.483,972.1
565.021,1011.2
565.559,1045.3
566.098,1055.7
566.636,979.7
567.174,976.6
567.711,1033.8
568.249,976.6
568.787,972.6
569.324,978.6
569.862,1000.3
570.399,1031.1
570.936,1130.8
571.474,1224.0
572.011,1095.2
572.548,1020.4
573.084,1002.8
573.621,998.4
574.158,1021.6
574.694,1007.3
575.231,1031.9
575.767,1012.6
576.303,1032.0
576.84,1049.5
577.376,1020.5
577.912,1017.3
578.447,1011.0
578.983,1021.5
579.519,1015.4
580.054,1018.8
580.59,1030.6
581.125,1045.8
581.661,1103.9
582.196,1998.5
582.731,1084.8
583.266,1051.4
583.801,1043.0
584.336,1049.8
584.87,1065.4
585.405,1132.7
585.94,1518.3
586.474,1343.5
587.008,1088.1
587.543,1061.7
588.077,1057.6
588.611,1056.4
589.145,1055.0
589.679,1053.7
590.213,1056.8
590.747,1057.4
591.28,1058.4
591.814,1063.1
592.347,1058.4
592.881,1066.8
593.414,1067.3
593.947,1067.3
594.48,1069.0
595.014,1066.2
595.547,1069.2
596.079,1069.6
596.612,1074.2
597.145,1076.9
597.678,1073.1
598.21,1083.7
598.743,1078.5
599.275,1076.7
599.807,1088.8
600.34,1082.6
600.872,1078.9
601.404,1084.7
601.936,1084.7
602.468,1082.9
603.0,1088.1
603.532,1089.4
604.063,1085.5
604.595,1081.6
605.126,1083.1
605.658,1085.2
606.189,1083.8
606.721,1089.3
607.252,1092.0
607.783,1082.4
608.314,1083.8
608.845,1089.7
609.376,1086.3
609.907,1087.8
610.438,1090.7
610.968,1085.6
611.499,1099.4
612.03,1096.4
612.56,1099.6
613.091,1102.8
613.621,1107.9
614.151,1106.2
614.681,1113.2
615.212,1115.6
615.742,1109.5
616.272,1106.7
616.802,1119.6
617.332,1124.0
617.861,1120.1
618.391,1134.8
618.921,1124.1
619.45,1119.5
619.98,1121.6
620.509,1121.1
621.039,1125.6
621.568,1127.2
622.097,1133.3
622.627,1131.3
623.156,1139.7
623.685,1142.1
624.214,1140.9
624.743,1151.7
625.272,1150.7
625.801,1153.5
626.33,1150.8
626.858,1154.2
627.387,1159.3
627.916,1160.7
628.444,1175.6
628.973,1193.7
629.501,1187.8
630.029,1194.0
630.558,1193.4
631.086,1239.0
631.614,1326.2
632.142,1310.8
632.67,1282.2
633.198,1258.1
633.726,1243.0
634.254,1231.3
634.782,1227.5
635.31,1231.2
635.838,1271.8
636.365,1361.9
636.893,1363.0
637.421,1273.6
637.948,1252.9
638.476,1243.1
639.003,1247.5
639.531,1250.8
640.058,1259.8
640.585,1250.7
641.113,1279.3
641.64,1264.7
642.167,1272.1
642.694,1283.2
643.221,1263.1
643.748,1267.0
644.275,1273.3
644.802,1276.9
645.329,1270.9
645.856,1282.6
646.382,1287.9
646.909,1284.3
647.436,1289.5
647.962,1292.5
648.489,1284.1
649.016,1287.3
649.542,1289.9
650.069,1292.8
650.595,1295.2
651.121,1299.4
651.648,1296.1
652.174,1304.3
652.7,1309.2
653.227,1315.9
653.753,1306.2
654.279,1308.3
654.805,1313.0
655.331,1313.9
655.857,1310.3
656.383,1314.5
656.909,1309.5
657.435,1313.7
657.961,1312.7
658.487,1318.4
659.013,1317.5
659.538,1322.6
660.064,1317.1
660.59,1313.2
661.116,1318.4
661.641,1310.5
662.167,1306.0
662.692,1314.7
663.087,1309.2