File: spectra/VLFR_07-PET_nobio_Raman_6145b6c6.csv
nm,Intensity
782.722,3749.94
783.822,3757.26
784.922,5930.54
786.022,4042.92
787.122,3769.12
788.222,7298.22
789.321,14653.8
790.421,13274.7
791.52,11599.5
792.619,10471.6
793.718,9791.74
794.817,9477.68
795.916,9243.06
797.015,9181.98
798.114,9095.26
799.212,9119.22
800.311,9046.94
801.409,8943.66
802.507,8968.48
803.605,8682.52
804.703,8607.78
805.801,8437.68
806.899,8465.64
807.997,8300.58
809.094,8230.3
810.191,8189.48
811.289,8128.56
812.386,8019.86
813.483,7895.5
814.58,7934.62
815.677,7838.1
816.774,7689.96
817.87,7552.46
818.967,7639.78
820.063,7545.14
821.159,7577.3
822.255,7440.22
823.351,7338.3
824.447,7327.02
825.543,7445.68
826.639,7345.82
827.734,7139.56
828.83,7121.68
829.925,7096.56
831.02,7198.66
832.115,6977.68
833.21,6975.04
834.305,6823.82
835.4,6810.04
836.494,6857.6
837.589,6977.14
838.683,6834.34
839.777,6917.28
840.871,7046.46
841.965,7161.98
843.059,6867.48
844.152,6692.04
845.246,6489.64
846.339,6451.64
847.433,6352.86
848.526,6347.4
849.619,6288.12
850.712,6328.98
851.804,6379.9
852.897,6267.18
853.989,6252.06
855.082,6205.48
856.174,6188.34
857.266,6117.88
858.358,6246.86
859.45,6317.88
860.542,6286.1
861.633,6173.92
862.725,6008.18
863.816,6018.42
864.907,6064.22
865.998,5905.84
867.089,5833.2
868.18,5852.98
869.27,5876.96
870.361,5844.34
871.451,6010.9
872.541,6301.22
873.631,6247.34
874.721,6045.72
875.811,5801.26
876.901,5747.7
877.99,5644.54
879.08,5663.0
880.169,5586.98
881.258,5588.82
882.347,5625.16
883.436,5518.14
884.524,5566.58
885.613,5546.1
886.701,5512.32
887.79,5440.64
888.878,5359.14
889.966,5352.54
891.053,5334.14
892.141,5351.86
893.229,5279.98
894.316,5220.3
895.403,5241.02
896.49,5172.86
897.577,5423.86
898.664,6064.48
899.751,5545.4
900.837,5122.76
901.923,5006.0
903.01,5004.84
904.096,4980.82
905.181,5003.54
906.267,5093.04
907.353,5420.52
908.438,5534.64
909.523,5177.08
910.609,4898.12
911.694,4842.38
912.778,4755.46
913.863,4739.36
914.948,4720.78
916.032,4671.14
917.116,4663.28
918.2,4651.18
919.284,4632.36
920.368,4597.32
921.452,4578.7
922.535,4538.26
923.618,4565.96
924.701,4503.36
925.784,4484.34
926.867,4486.08
927.95,4427.82
929.032,4414.42
930.115,4389.04
931.197,4349.88
932.279,4362.44
933.361,4310.58
934.442,4312.62
935.524,4285.36
936.605,4269.32
937.687,4257.68
938.768,4240.28
939.849,4244.06
940.929,4223.3
942.01,4214.7
943.09,4183.94
944.171,4169.58
945.251,4177.7
946.331,4145.5
947.41,4134.62
948.49,4131.82
949.569,4118.98
950.649,4103.1
951.728,4103.42
952.807,4073.94
953.885,4082.48
954.964,4059.46
956.042,4061.58
957.121,4041.48
958.199,4042.98
959.277,4033.34
960.354,4027.6
961.432,4013.08
962.509,4011.3
963.587,3994.28
964.664,3985.74
965.741,3985.98
966.817,3972.9
967.894,3977.96
968.97,3973.76
970.047,3957.64
971.123,3959.62
972.198,3950.98
973.274,3946.94
974.35,3935.78
975.425,3927.04
976.5,3924.16
977.575,3922.62
978.65,3915.3
979.725,3909.32
980.799,3903.24
981.873,3897.82
982.947,3900.54
984.021,3894.36
985.095,3885.76
986.169,3884.22
987.242,3877.26
988.315,3874.28
989.388,3873.32
990.461,3864.94
991.534,3861.66
992.607,3855.94
993.679,3853.5
994.751,3851.5
995.823,3849.5
996.895,3842.92
997.966,3839.16
999.038,3833.94
1000.11,3832.84
1001.18,3828.26
1002.25,3825.58
1003.32,3825.94
1004.39,3820.4
1005.46,3818.68
1006.53,3814.16
1007.6,3811.74
1008.67,3811.96
1009.74,3805.16
1010.81,3805.26
1011.88,3801.82
1012.95,3799.96
1014.02,3801.78
1015.09,3799.46
1016.16,3796.64
1017.22,3794.62
1018.29,3792.9
1019.36,3791.38
1020.43,3791.86
1021.49,3797.64
1022.56,3799.94
1023.63,3799.96
1024.7,3794.64
1025.76,3789.04
1026.83,3785.12
1027.9,3780.9
1028.96,3777.52
1030.03,3775.58
1031.09,3772.06
1032.16,3771.9
1033.22,3773.76
1034.29,3776.36
1035.35,3779.34
1036.42,3777.16
1037.48,3771.96
1038.55,3767.84
1039.61,3764.22
1040.68,3763.1
1041.74,3761.72
1042.8,3761.26
1043.87,3760.84
1044.93,3760.4
1045.99,3759.62
1047.06,3759.12
1048.12,3758.76
1049.18,3757.4
1050.24,3756.58
1051.31,3757.74
1052.37,3757.58
1053.43,3756.42
1054.49,3755.26
1055.55,3755.52
1056.61,3755.38
1057.67,3754.2
1058.73,3754.16
1059.53,3754.24