File: spectra/VLFR_01-LDPE_bio_Raman_b3902966.csv
nm,Intensity
526.495,829.55
527.042,829.45
527.589,829.45
528.136,828.2
528.682,829.0
529.229,827.6
529.775,829.7
530.321,829.3
530.867,828.85
531.413,829.05
531.959,831.6
532.505,829.95
533.051,828.25
533.596,829.65
534.141,852.2
534.687,847.8
535.232,844.6
535.777,841.25
536.321,837.4
536.866,838.0
537.41,838.8
537.955,837.8
538.499,837.75
539.043,835.8
539.587,835.2
540.131,835.15
540.675,834.75
541.219,834.8
541.762,833.95
542.305,835.0
542.849,834.4
543.392,835.7
543.935,835.3
544.478,835.35
545.02,832.5
545.563,834.4
546.106,833.4
546.648,833.75
547.19,833.95
547.732,833.3
548.274,834.45
548.816,834.5
549.358,832.3
549.9,834.65
550.441,833.2
550.983,833.9
551.524,834.05
552.065,833.95
552.606,833.45
553.147,833.2
553.688,835.0
554.229,835.15
554.769,834.5
555.31,835.45
555.85,836.7
556.391,835.8
556.931,836.2
557.471,836.1
558.011,837.45
558.551,837.9
559.09,837.0
559.63,837.65
560.169,836.25
560.709,835.8
561.248,835.65
561.787,836.35
562.326,836.65
562.865,837.9
563.404,838.1
563.943,849.6
564.481,843.7
565.02,842.25
565.558,838.7
566.096,853.3
566.634,838.4
567.172,839.2
567.71,838.35
568.248,836.35
568.786,836.45
569.324,837.4
569.861,837.75
570.399,838.1
570.936,840.55
571.473,860.4
572.01,848.35
572.547,841.55
573.084,839.0
573.621,840.1
574.158,841.8
574.694,838.15
575.231,840.05
575.767,851.2
576.303,873.3
576.84,860.5
577.376,851.25
577.912,843.3
578.448,842.5
578.984,841.2
579.519,841.85
580.055,842.6
580.59,842.35
581.126,843.25
581.661,844.65
582.196,845.7
582.731,845.95
583.267,847.1
583.801,848.35
584.336,849.15
584.871,849.65
585.406,851.05
585.94,853.25
586.475,852.85
587.009,853.4
587.543,855.55
588.078,857.65
588.612,857.0
589.146,860.35
589.68,862.2
590.214,862.6
590.747,865.15
591.281,862.65
591.815,866.5
592.348,868.45
592.881,867.35
593.415,869.45
593.948,868.85
594.481,869.3
595.014,872.6
595.547,873.7
596.08,874.15
596.613,879.05
597.146,877.45
597.678,880.2
598.211,883.25
598.743,884.55
599.276,885.0
599.808,887.25
600.34,887.05
600.872,883.9
601.404,887.05
601.936,886.6
602.468,889.05
603.0,884.55
603.532,884.55
604.064,881.65
604.595,878.95
605.127,875.5
605.658,874.3
606.189,873.4
606.721,870.65
607.252,870.15
607.783,867.25
608.314,866.65
608.845,867.2
609.376,863.9
609.907,864.9
610.438,862.55
610.968,862.5
611.499,861.45
612.029,859.05
612.56,859.9
613.09,859.65
613.621,857.85
614.151,859.7
614.681,859.05
615.211,857.05
615.741,857.2
616.271,856.1
616.801,856.75
617.331,856.9
617.861,857.2
618.39,857.15
618.92,856.05
619.45,857.15
619.979,857.25
620.509,856.55
621.038,858.8
621.567,861.6
622.096,867.05
622.626,864.55
623.155,858.75
623.684,856.4
624.213,856.9
624.742,857.95
625.271,857.8
625.799,858.8
626.328,867.1
626.857,931.25
627.386,1068.65
627.914,979.95
628.443,1040.45
628.971,1004.35
629.5,971.95
630.028,941.35
630.556,935.2
631.084,892.7
631.613,868.9
632.141,861.75
632.669,859.25
633.197,855.65
633.725,853.4
634.253,854.9
634.781,854.15
635.308,853.0
635.836,852.7
636.364,852.05
636.891,851.0
637.419,852.2
637.947,851.4
638.474,850.6
639.002,852.7
639.529,852.8
640.056,853.9
640.584,853.7
641.111,854.35
641.638,854.25
642.165,854.4
642.692,854.95
643.219,857.2
643.746,856.05
644.273,855.35
644.8,855.7
645.327,854.4
645.854,855.75
646.381,855.1
646.908,854.75
647.434,855.3
647.961,856.4
648.488,857.35
649.014,855.8
649.541,858.6
650.067,856.35
650.594,855.95
651.12,857.2
651.646,857.55
652.173,857.3
652.699,857.75
653.225,857.75
653.752,858.25
654.278,859.0
654.804,859.7
655.33,855.65
655.856,858.9
656.382,857.9
656.908,857.95
657.434,856.95
657.96,856.35
658.486,853.9
659.012,855.75
659.538,853.8
660.064,855.8
660.589,853.2
661.115,853.8
661.641,852.3
662.166,851.1
662.692,851.65
663.086,847.9