File: spectra/VLFR_09-PET_bio_Raman_23c19d96.csv
nm,Intensity
526.508,829.0
527.055,832.0
527.602,830.6
528.149,830.1
528.695,830.5
529.241,829.0
529.787,829.6
530.334,831.0
530.879,829.7
531.425,830.4
531.971,833.7
532.516,831.2
533.062,829.3
533.607,834.0
534.152,1471.1
534.697,1459.3
535.242,1409.4
535.786,1416.7
536.331,1413.3
536.876,1418.5
537.42,1431.9
537.964,1432.2
538.508,1444.9
539.052,1445.9
539.596,1473.3
540.14,1488.2
540.683,1495.4
541.227,1492.6
541.77,1524.7
542.313,1509.4
542.856,1524.0
543.399,1532.2
543.942,1553.6
544.485,1564.8
545.027,1580.7
545.57,1587.1
546.112,1605.6
546.654,1608.2
547.196,1618.8
547.738,1612.4
548.28,1634.3
548.822,1635.0
549.363,1656.9
549.905,1663.9
550.446,1666.6
550.988,1681.0
551.529,1691.1
552.07,1699.1
552.611,1695.2
553.152,1706.6
553.692,1724.0
554.233,1737.0
554.773,1744.4
555.314,1742.1
555.854,1757.5
556.394,1771.6
556.934,1780.3
557.474,1828.1
558.014,1807.0
558.553,1799.2
559.093,1801.0
559.632,1812.5
560.172,1841.2
560.711,1852.5
561.25,1849.4
561.789,1862.5
562.328,1880.8
562.867,1891.4
563.406,1917.1
563.944,1922.8
564.483,1926.6
565.021,1977.7
565.559,1972.3
566.098,1984.4
566.636,1976.0
567.174,1979.2
567.711,1992.7
568.249,1996.7
568.787,2008.9
569.324,2026.6
569.862,2046.9
570.399,2052.8
570.936,2095.2
571.474,2129.4
572.011,2108.8
572.548,2094.8
573.084,2118.3
573.621,2117.6
574.158,2143.9
574.694,2138.7
575.231,2144.5
575.767,2159.4
576.303,2162.5
576.84,2176.8
577.376,2187.9
577.912,2197.6
578.447,2205.1
578.983,2227.8
579.519,2212.5
580.054,2223.5
580.59,2233.2
581.125,2244.5
581.661,2275.5
582.196,2619.8
582.731,2298.1
583.266,2284.6
583.801,2286.5
584.336,2308.3
584.87,2295.5
585.405,2334.1
585.94,2492.3
586.474,2459.7
587.008,2371.4
587.543,2353.3
588.077,2355.3
588.611,2358.2
589.145,2367.5
589.679,2357.2
590.213,2369.0
590.747,2366.0
591.28,2390.1
591.814,2401.3
592.347,2383.5
592.881,2374.4
593.414,2386.8
593.947,2394.1
594.48,2399.8
595.014,2399.8
595.547,2438.8
596.079,2439.3
596.612,2427.9
597.145,2450.6
597.678,2455.6
598.21,2470.4
598.743,2483.4
599.275,2481.1
599.807,2503.4
600.34,2486.2
600.872,2479.9
601.404,2479.9
601.936,2486.8
602.468,2514.2
603.0,2513.1
603.532,2522.3
604.063,2533.4
604.595,2523.7
605.126,2518.7
605.658,2512.1
606.189,2500.3
606.721,2509.4
607.252,2544.1
607.783,2570.1
608.314,2578.3
608.845,2588.6
609.376,2591.9
609.907,2601.1
610.438,2607.2
610.968,2625.5
611.499,2646.6
612.03,2667.9
612.56,2702.1
613.091,2753.1
613.621,2760.6
614.151,2794.9
614.681,2798.8
615.212,2814.4
615.742,2828.4
616.272,2842.6
616.802,2881.7
617.332,2900.7
617.861,2916.9
618.391,2955.7
618.921,2978.3
619.45,2986.2
619.98,3006.7
620.509,3012.9
621.039,3052.0
621.568,3057.7
622.097,3094.0
622.627,3122.4
623.156,3142.0
623.685,3183.8
624.214,3211.3
624.743,3246.6
625.272,3264.9
625.801,3296.6
626.33,3284.7
626.858,3345.8
627.387,3341.5
627.916,3358.1
628.444,3376.8
628.973,3415.7
629.501,3457.5
630.029,3481.4
630.558,3498.7
631.086,3543.5
631.614,3597.7
632.142,3616.2
632.67,3600.9
633.198,3596.3
633.726,3609.1
634.254,3628.9
634.782,3626.4
635.31,3668.7
635.838,3715.0
636.365,3755.4
636.893,3802.5
637.421,3729.3
637.948,3767.1
638.476,3791.5
639.003,3811.2
639.531,3827.8
640.058,3830.3
640.585,3827.4
641.113,3869.2
641.64,3873.6
642.167,3885.0
642.694,3876.8
643.221,3863.4
643.748,3846.5
644.275,3847.3
644.802,3859.6
645.329,3866.7
645.856,3881.8
646.382,3868.3
646.909,3916.4
647.436,3946.9
647.962,3940.7
648.489,3951.5
649.016,3919.3
649.542,3914.0
650.069,3934.0
650.595,3912.5
651.121,3901.5
651.648,3913.1
652.174,3942.2
652.7,3957.6
653.227,3955.8
653.753,3967.6
654.279,3955.4
654.805,3955.4
655.331,3942.8
655.857,3977.4
656.383,3962.1
656.909,3979.0
657.435,3974.5
657.961,3974.4
658.487,3990.5
659.013,3977.8
659.538,3998.4
660.064,3996.5
660.59,3984.1
661.116,3952.9
661.641,3936.3
662.167,3929.4
662.692,3963.6
663.087,3904.4