File: spectra/VLFR_07-PET_nobio_Raman_6b30e466.csv
nm,Intensity
791.588,12490.8
792.685,11700.6
793.781,11274.0
794.878,11091.8
795.975,10807.7
797.071,10879.4
798.168,10729.7
799.264,10653.9
800.36,10672.2
801.456,10693.7
802.552,10555.8
803.648,10353.3
804.744,10223.7
805.84,10175.0
806.936,10148.7
808.031,10086.9
809.127,10044.2
810.222,9838.4
811.317,9788.4
812.412,9685.0
813.507,9687.5
814.602,9480.1
815.697,9434.4
816.792,9300.9
817.887,9164.6
818.981,9098.0
820.076,9010.2
821.17,8916.1
822.265,8818.7
823.359,8680.1
824.453,8680.4
825.547,8680.7
826.641,8606.4
827.735,8421.5
828.828,8365.7
829.922,8184.9
831.016,8302.1
832.109,8116.1
833.202,8029.3
834.295,8006.2
835.388,7898.0
836.481,7879.3
837.574,7857.9
838.667,7805.4
839.76,7756.2
840.852,7914.8
841.945,7988.2
843.037,7725.1
844.129,7585.4
845.221,7360.1
846.314,7380.0
847.405,7308.3
848.497,7133.2
849.589,7155.7
850.681,7118.9
851.772,7033.4
852.863,7088.8
853.955,7022.7
855.046,6958.6
856.137,6891.3
857.228,6866.1
858.318,6939.2
859.409,6916.2
860.5,6870.5
861.59,6740.3
862.681,6628.8
863.771,6584.4
864.861,6629.3
865.951,6535.7
867.041,6479.6
868.131,6425.7
869.22,6449.3
870.31,6472.7
871.399,6489.0
872.488,6608.1
873.578,6560.0
874.667,6414.0
875.756,6310.6
876.845,6242.1
877.933,6154.9
879.022,6152.6
880.11,6084.5
881.199,6012.7
882.287,6044.0
883.375,6014.1
884.463,5967.1
885.551,5969.2
886.639,5887.8
887.726,5861.6
888.814,5792.6
889.901,5755.4
890.988,5780.5
892.075,5734.1
893.162,5638.7
894.249,5574.7
895.336,5577.7
896.423,5558.4
897.509,5771.9
898.595,6038.1
899.682,5703.3
900.768,5468.7
901.854,5361.0
902.94,5301.2
904.025,5331.1
905.111,5287.5
906.196,5367.0
907.282,5570.3
908.367,5519.6
909.452,5329.5
910.537,5110.6
911.622,5054.1
912.706,5030.6
913.791,4983.0
914.875,4970.6
915.959,4918.9
917.044,4853.6
918.128,4859.0
919.211,4839.9
920.295,4832.9
921.379,4749.9
922.462,4762.5
923.546,4715.8
924.629,4716.3
925.712,4645.4
926.795,4627.5
927.877,4594.7
928.96,4582.9
930.043,4541.3
931.125,4497.3
932.207,4509.3
933.289,4470.6
934.371,4440.0
935.453,4421.9
936.535,4402.5
937.616,4371.7
938.697,4363.1
939.779,4335.9
940.86,4324.5
941.941,4283.9
943.022,4275.4
944.102,4270.4
945.183,4240.7
946.263,4223.3
947.343,4211.2
948.423,4193.2
949.503,4189.9
950.583,4161.6
951.663,4162.2
952.742,4146.9
953.822,4126.5
954.901,4118.7
955.98,4108.4
957.059,4103.7
958.137,4091.1
959.216,4076.3
960.294,4063.3
961.373,4049.2
962.451,4040.6
963.529,4029.9
964.607,4018.4
965.684,4012.5
966.762,4006.0
967.839,3997.8
968.917,3987.7
969.994,3977.0
971.071,3976.7
972.147,3959.4
973.224,3954.1
974.3,3953.1
975.377,3945.4
976.453,3936.6
977.529,3933.5
978.605,3931.2
979.68,3914.9
980.756,3921.0
981.831,3908.8
982.907,3904.9
983.982,3900.8
985.057,3900.2
986.131,3894.8
987.206,3890.4
988.28,3877.3
989.355,3878.9
990.429,3880.4
991.503,3871.4
992.576,3865.4
993.65,3860.1
994.723,3853.4
995.797,3850.9
996.87,3851.4
997.943,3846.1
999.016,3838.7
1000.09,3838.2
1001.16,3839.5
1002.23,3834.0
1003.31,3827.4
1004.38,3828.1
1005.45,3823.4
1006.52,3826.0
1007.59,3817.4
1008.66,3816.0
1009.73,3814.1
1010.81,3811.0
1011.88,3803.8
1012.95,3808.0
1014.02,3809.2
1015.09,3803.3
1016.16,3803.8
1017.23,3800.7
1018.3,3796.6
1019.37,3797.3
1020.44,3797.2
1021.51,3797.5
1022.58,3799.3
1023.64,3797.1
1024.71,3795.5
1025.78,3790.3
1026.85,3787.7
1027.92,3786.3
1028.99,3783.5
1030.05,3780.3
1031.12,3780.6
1032.19,3781.1
1033.26,3779.8
1034.32,3780.5
1035.39,3779.7
1036.46,3782.8
1037.52,3777.2
1038.59,3775.5
1039.66,3776.4
1040.72,3771.3
1041.79,3771.1
1042.86,3773.0
1043.92,3769.7
1044.99,3768.1
1046.05,3768.4
1047.12,3767.3
1048.18,3768.1
1049.25,3769.2
1050.31,3764.5
1051.37,3764.1
1052.44,3765.3
1053.5,3765.3
1054.57,3765.9
1055.63,3764.8
1056.69,3764.4
1057.76,3765.9
1058.82,3764.6
1059.88,3766.6
1060.95,3764.6
1062.01,3763.6
1063.07,3762.7
1064.13,3764.0
1065.19,3762.2
1066.26,3763.0
1067.32,3763.8
1068.11,3763.2