File: spectra/VLFR_08-PLA_nobio_Raman_7ad56e36.csv
cm-1,Intensity
-123.878,1852.85
-105.821,1851.8
-87.8007,1853.45
-69.8161,1853.9
-51.8675,1853.5
-33.9547,1854.4
-16.0776,1888.8
1.76388,3375.05
19.5698,1855.85
37.3403,1856.7
55.0755,2134.35
72.7754,2713.95
90.4402,2609.1
108.07,2526.05
125.665,2467.1
143.225,2439.45
160.75,2467.1
178.241,2422.7
195.697,2453.95
213.119,2398.9
230.506,2385.1
247.859,2393.2
265.178,2343.25
282.463,2395.9
299.713,2435.5
316.93,2446.0
334.113,2405.6
351.263,2404.9
368.379,2424.9
385.461,2505.55
402.51,2580.15
419.526,2505.15
436.508,2443.15
453.458,2444.4
470.374,2421.1
487.257,2438.0
504.107,2462.1
520.925,2454.6
537.71,2482.65
554.462,2494.95
571.182,2506.65
587.87,2509.5
604.525,2515.95
621.148,2535.15
637.739,2550.8
654.297,2558.6
670.824,2571.45
687.319,2583.55
703.782,2578.25
720.213,2567.35
736.613,2653.3
752.981,2597.15
769.317,2600.25
785.623,2573.35
801.897,2584.15
818.139,2564.7
834.351,2582.9
850.532,2687.55
866.681,3141.75
882.8,2943.35
898.888,2685.1
914.945,2693.75
930.972,2673.25
946.968,2645.75
962.934,2646.2
978.869,2626.65
994.774,2645.35
1010.65,2659.9
1026.49,2740.55
1042.31,2868.1
1058.09,2770.55
1073.85,2727.6
1089.57,2863.7
1105.27,2828.65
1120.93,2934.2
1136.57,2908.6
1152.18,2744.2
1167.75,2739.25
1183.3,2799.75
1198.82,2789.8
1214.31,2788.1
1229.77,2783.45
1245.2,2785.0
1260.6,2804.15
1275.97,2795.8
1291.32,2912.1
1306.63,2938.05
1321.92,2868.6
1337.18,2894.8
1352.41,2923.8
1367.61,2860.7
1382.78,2960.05
1397.93,2865.45
1413.05,2834.45
1428.14,2863.6
1443.2,3074.4
1458.23,3232.8
1473.23,2922.3
1488.21,2847.0
1503.16,2814.3
1518.08,2824.5
1532.97,2817.2
1547.84,2815.85
1562.68,2832.75
1577.49,2834.75
1592.27,2835.0
1607.03,2834.6
1621.76,2829.7
1636.46,2843.1
1651.14,2824.6
1665.78,2843.35
1680.41,2815.25
1695.0,2830.45
1709.57,2802.8
1724.11,2858.2
1738.62,2862.55
1753.11,3073.5
1767.57,3183.15
1782.01,3025.2
1796.41,2862.35
1810.8,2823.6
1825.15,2799.1
1839.48,2831.5
1853.79,2812.4
1868.06,2811.85
1882.31,2800.8
1896.54,2806.75
1910.74,2844.05
1924.91,2819.95
1939.06,2784.25
1953.19,2803.95
1967.28,2788.15
1981.35,2809.6
1995.4,2796.7
2009.42,2826.6
2023.42,2831.7
2037.39,2807.45
2051.33,2795.5
2065.25,2804.8
2079.15,2816.55
2093.01,2807.7
2106.86,2818.2
2120.68,2804.85
2134.47,2813.75
2148.24,2803.25
2161.99,2810.5
2175.71,2818.05
2189.41,2799.4
2203.08,2826.05
2216.73,2813.05
2230.35,2800.0
2243.95,2809.7
2257.52,2819.05
2271.07,2791.85
2284.6,2798.65
2298.1,2805.1
2311.58,2823.35
2325.03,2800.25
2338.46,2823.0
2351.87,2798.7
2365.25,2810.5
2378.61,2808.8
2391.94,2807.3
2405.26,2816.4
2418.54,2833.55
2431.81,2806.3
2445.05,2784.3
2458.27,2803.5
2471.46,2768.95
2484.63,2812.25
2497.78,2792.55
2510.9,2792.5
2524.0,2793.85
2537.08,2805.15
2550.14,2800.85
2563.17,2790.15
2576.18,2789.55
2589.17,2789.0
2602.13,2778.15
2615.07,2772.7
2627.99,2773.2
2640.89,2784.8
2653.76,2766.65
2666.61,2749.05
2679.44,2764.65
2692.25,2775.35
2705.03,2772.55
2717.79,2779.1
2730.53,2807.1
2743.25,2843.9
2755.94,2793.05
2768.61,2750.5
2781.27,2744.5
2793.89,2748.3
2806.5,2729.65
2819.09,2714.95
2831.65,2723.25
2844.19,2728.5
2856.71,2772.55
2869.21,2850.85
2881.69,3197.2
2894.14,3056.6
2906.58,3073.45
2918.99,3110.45
2931.38,3485.7
2943.75,5357.7
2956.1,4419.9
2968.42,3454.6
2980.73,3250.4
2993.01,3561.8
3005.28,3713.1
3017.52,3286.05
3029.74,2900.2
3041.94,2729.65
3054.12,2653.6
3066.28,2628.6
3078.42,2644.0
3090.54,2604.45
3102.63,2591.6
3114.71,2584.55
3126.77,2584.75
3138.8,2557.3
3150.82,2583.25
3162.81,2576.2
3174.78,2556.75
3186.74,2557.3
3198.67,2537.45
3210.58,2551.75
3222.47,2532.3
3234.35,2515.3
3246.2,2501.9
3258.03,2484.55
3269.84,2477.45
3281.64,2491.0
3293.41,2477.35
3305.16,2482.45
3316.89,2439.15
3328.61,2415.95
3340.3,2434.35
3351.97,2434.4
3363.63,2421.8
3375.26,2417.45
3386.88,2406.65
3398.47,2407.4
3410.05,2399.05
3421.6,2380.15
3433.14,2414.85
3444.66,2382.8
3456.15,2373.7
3467.63,2364.85
3479.09,2378.6
3490.53,2336.7
3501.96,2344.8
3513.36,2358.9
3524.74,2340.45
3536.11,2340.65
3547.45,2320.3
3558.78,2317.8
3570.09,2309.1
3581.37,2308.75
3592.64,2320.95
3603.9,2290.9
3615.13,2270.8
3626.34,2260.65
3637.54,2276.65
3648.72,2258.85
3659.87,2256.55
3665.45,2267.3