File: spectra/VLFR_06-PET_bio_Raman_c63d015b.csv
nm,Intensity
528.626,1865.0
529.132,1865.4
529.637,1865.3
530.143,1865.8
530.648,1867.0
531.153,1870.5
531.658,1921.4
532.164,6209.4
532.669,1871.3
533.174,1878.9
533.679,3137.3
534.184,7108.8
534.689,5564.7
535.194,4401.1
535.699,3462.0
536.203,2862.5
536.708,2650.0
537.213,2526.2
537.717,2503.1
538.222,2500.3
538.726,2509.0
539.231,2547.7
539.735,2632.7
540.239,2519.5
540.744,2386.3
541.248,2304.9
541.752,2314.5
542.256,2319.2
542.76,2308.0
543.264,2302.9
543.768,2321.4
544.272,2322.2
544.776,2318.5
545.28,2343.0
545.784,2338.2
546.287,2350.1
546.791,2361.0
547.294,2370.0
547.798,2395.9
548.301,2388.9
548.805,2425.7
549.308,2404.1
549.811,2404.3
550.315,2516.5
550.818,2997.4
551.321,2475.1
551.824,2480.2
552.327,2487.5
552.83,2840.7
553.333,2525.4
553.835,2553.3
554.338,2534.6
554.841,2548.0
555.343,2715.1
555.846,2936.7
556.349,3000.1
556.851,3088.5
557.353,3782.3
557.856,3472.5
558.358,3178.7
558.86,2994.2
559.362,2720.0
559.864,2680.9
560.366,2684.3
560.868,2698.2
561.37,2773.2
561.872,2808.3
562.374,2900.7
562.876,2968.5
563.377,2927.5
563.879,2823.0
564.38,2882.7
564.882,3103.8
565.383,3519.9
565.885,3727.4
566.386,3189.2
566.887,2943.8
567.388,3095.5
567.889,3310.8
568.391,3008.8
568.892,2954.4
569.392,3027.6
569.893,3200.0
570.394,3577.2
570.895,4386.0
571.395,5080.3
571.896,4112.8
572.397,3465.8
572.897,3183.3
573.397,3207.1
573.898,3275.7
574.398,3266.6
574.898,3291.6
575.398,3554.0
575.898,3285.8
576.398,3448.6
576.898,3528.9
577.398,3339.5
577.898,3231.7
578.398,3239.7
578.897,3239.4
579.397,3260.9
579.896,3311.6
580.396,3361.1
580.895,3455.1
581.395,3662.5
581.894,6938.4
582.393,6997.8
582.892,3542.4
583.391,3417.4
583.89,3443.4
584.389,3497.8
584.888,3649.6
585.387,4533.9
585.886,7545.8
586.384,6104.0
586.883,3895.9
587.381,3489.3
587.88,3490.6
588.378,3477.9
588.876,3483.8
589.375,3463.0
589.873,3437.7
590.371,3434.2
590.869,3433.8
591.367,3476.4
591.865,3442.1
592.363,3496.7
592.86,3445.3
593.358,3413.2
593.856,3452.7
594.353,3459.2
594.851,3467.6
595.348,3540.6
595.845,3470.0
596.342,3534.9
596.84,3524.3
597.337,3438.2
597.834,3516.4
598.331,3525.0
598.828,3502.1
599.324,3533.6
599.821,3544.1
600.318,3598.0
600.814,3541.4
601.311,3556.8
601.807,3588.9
602.304,3561.3
602.8,3537.9
603.296,3543.5
603.792,3616.5
604.288,3586.1
604.784,3584.5
605.28,3547.3
605.776,3597.8
606.272,3597.5
606.767,3648.2
607.263,3566.8
607.759,3618.9
608.254,3615.3
608.749,3667.0
609.245,3625.8
609.74,3698.2
610.235,3646.9
610.73,3637.6
611.225,3649.1
611.72,3653.1
612.215,3710.1
612.71,3667.8
613.204,3690.2
613.699,3700.3
614.194,3722.2
614.688,3754.2
615.182,3708.2
615.677,3714.6
616.171,3728.1
616.665,3720.9
617.159,3780.0
617.653,3809.7
618.147,3827.7
618.641,3790.8
619.135,3820.1
619.628,3821.5
620.122,3772.0
620.615,3836.0
621.109,3804.8
621.602,3826.3
622.095,3839.4
622.589,3863.3
623.082,3823.8
623.575,3837.0
624.068,3928.0
624.561,3994.0
625.053,3977.3
625.546,3884.2
626.039,3841.8
626.531,3915.4
627.024,3982.5
627.516,3981.0
628.008,4037.0
628.501,4135.3
628.993,4279.8
629.485,4261.5
629.977,4223.9
630.469,4256.9
630.96,4584.3
631.452,5254.6
631.944,5517.4
632.435,4935.7
632.927,4718.2
633.418,4704.7
633.91,4471.8
634.401,4394.1
634.892,4298.4
635.383,4435.1
635.874,4882.4
636.365,5644.5
636.856,5425.1
637.346,4648.1
637.837,4413.4
638.327,4366.9
638.818,4376.7
639.308,4338.2
639.799,4337.8
640.289,4225.5
640.779,4247.9
641.269,4290.0
641.759,4283.8
642.249,4415.3
642.738,4358.8
643.228,4228.0
643.718,4295.8
644.207,4341.4
644.697,4217.0
645.186,4369.1
645.675,4335.4
646.164,4322.7
646.653,4216.2
647.142,4348.0
647.631,4310.3
648.12,4161.3
648.609,4283.9
649.098,4122.1
649.586,4214.6
650.075,4176.8
650.563,4227.7
651.051,4193.5
651.539,4172.7
652.027,4119.0
652.515,4035.5
653.003,4104.2
653.491,4028.7
653.979,4125.8
654.467,4104.6
654.954,4042.2
655.442,4003.7
655.929,4005.3
656.416,4034.1
656.904,3997.0
657.391,3960.3
657.878,3978.6
658.365,3872.3
658.851,3861.6
659.338,3819.0
659.825,3785.8
660.311,3823.0
660.798,3744.2
661.041,3769.9