File: spectra/VLFR_08-PLA_nobio_Raman_2cad28d9.csv
nm,Intensity
526.508,830.8
527.055,829.6
527.602,830.4
528.149,830.2
528.695,830.2
529.241,830.55
529.787,830.45
530.334,830.1
530.879,830.1
531.425,830.35
531.971,832.7
532.516,830.1
533.062,830.25
533.607,831.1
534.152,1074.25
534.697,1031.15
535.242,994.35
535.786,972.5
536.331,964.65
536.876,970.6
537.42,960.3
537.964,956.75
538.508,947.65
539.052,945.35
539.596,939.3
540.14,937.05
540.683,951.4
541.227,956.45
541.77,946.45
542.313,938.9
542.856,942.05
543.399,964.9
543.942,976.05
544.485,956.2
545.027,946.7
545.57,943.2
546.112,942.2
546.654,942.5
547.196,942.55
547.738,943.65
548.28,945.1
548.822,947.95
549.363,947.2
549.905,951.25
550.446,950.5
550.988,953.6
551.529,955.65
552.07,960.05
552.611,960.3
553.152,960.95
553.692,957.6
554.233,968.65
554.773,960.8
555.314,955.4
555.854,951.7
556.394,953.45
556.934,953.95
557.474,972.45
558.014,1090.2
558.553,993.4
559.093,971.85
559.632,971.65
560.172,969.75
560.711,965.8
561.25,963.0
561.789,959.25
562.328,963.7
562.867,975.6
563.406,1007.2
563.944,988.55
564.483,985.25
565.021,1000.25
565.559,996.55
566.098,1026.7
566.636,999.45
567.174,977.75
567.711,979.7
568.249,986.95
568.787,986.4
569.324,988.85
569.862,984.0
570.399,984.45
570.936,984.9
571.474,1004.15
572.011,1006.55
572.548,1001.95
573.084,1003.45
573.621,1009.5
574.158,1004.65
574.694,1019.0
575.231,995.25
575.767,995.55
576.303,1013.55
576.84,1075.65
577.376,1023.65
577.912,1000.05
578.447,994.85
578.983,997.45
579.519,997.5
580.054,998.95
580.59,996.55
581.125,997.65
581.661,1000.1
582.196,997.85
582.731,1001.25
583.266,1007.25
583.801,1003.9
584.336,1004.05
584.87,1003.55
585.405,1001.05
585.94,1007.25
586.474,1018.3
587.008,1054.35
587.543,1077.95
588.077,1027.65
588.611,1008.25
589.145,1007.85
589.679,1003.7
590.213,1000.2
590.747,1003.2
591.28,1001.25
591.814,1007.2
592.347,1006.3
592.881,1002.1
593.414,1000.7
593.947,1003.25
594.48,1001.1
595.014,1002.6
595.547,1002.5
596.079,1005.55
596.612,1001.6
597.145,1004.45
597.678,1004.85
598.21,1004.45
598.743,1002.95
599.275,1006.8
599.807,1005.5
600.34,1004.4
600.872,1005.15
601.404,1004.5
601.936,1003.7
602.468,1006.35
603.0,1004.2
603.532,1001.85
604.063,1004.3
604.595,1003.55
605.126,1007.35
605.658,999.7
606.189,994.9
606.721,997.7
607.252,999.65
607.783,998.05
608.314,1000.05
608.845,1002.45
609.376,999.95
609.907,999.75
610.438,997.95
610.968,999.55
611.499,999.3
612.03,1000.4
612.56,1000.05
613.091,1003.2
613.621,1002.8
614.151,1006.7
614.681,1002.2
615.212,998.8
615.742,1002.55
616.272,1003.15
616.802,1003.5
617.332,1004.35
617.861,1002.7
618.391,997.95
618.921,1001.1
619.45,998.15
619.98,1002.4
620.509,997.8
621.039,997.95
621.568,997.6
622.097,1000.95
622.627,1008.6
623.156,1017.5
623.685,1008.15
624.214,1005.05
624.743,1001.15
625.272,1000.7
625.801,1000.1
626.33,998.35
626.858,1000.15
627.387,999.15
627.916,1011.15
628.444,1073.75
628.973,1066.0
629.501,1059.1
630.029,1065.7
630.558,1125.3
631.086,1502.3
631.614,1268.85
632.142,1131.0
632.67,1109.0
633.198,1201.7
633.726,1168.0
634.254,1065.0
634.782,1015.9
635.31,997.7
635.838,995.4
636.365,990.0
636.893,989.2
637.421,988.7
637.948,982.9
638.476,983.6
639.003,985.7
639.531,986.35
640.058,984.0
640.585,987.3
641.113,983.2
641.64,985.0
642.167,982.55
642.694,977.0
643.221,978.5
643.748,974.7
644.275,975.1
644.802,972.35
645.329,972.85
645.856,971.3
646.382,969.75
646.909,968.35
647.436,966.0
647.962,966.95
648.489,963.95
649.016,965.1
649.542,965.15
650.069,964.8
650.595,960.0
651.121,963.45
651.648,961.3
652.174,962.0
652.7,960.75
653.227,959.6
653.753,961.3
654.279,957.6
654.805,956.7
655.331,955.45
655.857,958.45
656.383,955.55
656.909,957.5
657.435,956.8
657.961,955.55
658.487,957.4
659.013,952.9
659.538,953.95
660.064,955.85
660.59,951.3
661.116,952.2
661.641,950.7
662.167,948.55
662.692,950.5
663.087,947.45