File: spectra/VLFR_08-PLA_nobio_Raman_f70e02df.csv
nm,Intensity
526.547,831.9
527.094,833.3
527.641,831.7
528.188,832.7
528.734,832.4
529.281,832.0
529.827,833.9
530.373,832.8
530.92,833.2
531.466,833.3
532.011,839.4
532.557,832.2
533.103,830.9
533.648,837.4
534.193,1117.8
534.738,1072.3
535.283,1028.3
535.828,1005.0
536.373,998.5
536.917,1004.0
537.462,993.4
538.006,990.2
538.55,978.5
539.094,978.1
539.638,970.8
540.182,961.0
540.726,988.5
541.269,994.5
541.812,983.2
542.356,979.6
542.899,986.7
543.442,1010.4
543.985,1015.8
544.527,988.8
545.07,982.6
545.612,977.3
546.155,977.6
546.697,981.5
547.239,987.5
547.781,982.3
548.323,983.7
548.865,985.4
549.406,988.9
549.948,990.8
550.489,995.1
551.03,999.7
551.572,1001.0
552.113,1008.7
552.654,1008.1
553.194,1008.3
553.735,1008.7
554.276,1017.2
554.816,1008.1
555.356,1004.0
555.896,1000.7
556.437,1001.1
556.977,1009.3
557.516,1027.7
558.056,1179.9
558.596,1044.5
559.135,1022.4
559.675,1017.3
560.214,1011.8
560.753,1014.2
561.292,1008.6
561.831,1008.7
562.37,1014.8
562.909,1024.0
563.448,1065.0
563.986,1039.4
564.525,1033.0
565.063,1060.5
565.601,1052.5
566.139,1090.2
566.677,1046.0
567.215,1027.9
567.753,1034.3
568.291,1036.6
568.828,1036.6
569.366,1042.9
569.903,1035.8
570.441,1034.4
570.978,1038.9
571.515,1061.9
572.052,1059.7
572.589,1054.0
573.126,1059.1
573.662,1058.7
574.199,1054.8
574.735,1064.1
575.272,1042.7
575.808,1047.8
576.344,1070.7
576.88,1140.9
577.416,1072.8
577.952,1055.3
578.488,1054.0
579.024,1053.1
579.559,1050.0
580.095,1051.1
580.63,1053.0
581.166,1045.1
581.701,1049.5
582.236,1051.9
582.771,1052.9
583.306,1056.7
583.841,1049.9
584.376,1053.9
584.911,1057.5
585.445,1053.6
585.98,1059.3
586.514,1076.8
587.048,1113.5
587.583,1150.2
588.117,1088.5
588.651,1055.3
589.185,1055.8
589.719,1050.7
590.253,1057.1
590.786,1054.6
591.32,1057.5
591.853,1055.3
592.387,1051.1
592.92,1056.2
593.454,1049.4
593.987,1049.3
594.52,1052.2
595.053,1051.5
595.586,1049.0
596.119,1050.5
596.651,1054.4
597.184,1054.6
597.717,1055.1
598.249,1055.9
598.782,1062.2
599.314,1062.0
599.846,1053.2
600.379,1051.1
600.911,1051.1
601.443,1052.8
601.975,1049.7
602.507,1049.7
603.038,1051.2
603.57,1049.0
604.102,1053.2
604.633,1046.0
605.165,1044.0
605.696,1039.8
606.228,1041.4
606.759,1038.6
607.29,1045.7
607.821,1045.8
608.352,1045.0
608.883,1042.4
609.414,1037.5
609.945,1048.2
610.476,1040.6
611.006,1044.6
611.537,1039.5
612.067,1037.4
612.598,1043.4
613.128,1042.6
613.659,1048.7
614.189,1047.0
614.719,1041.7
615.249,1048.6
615.779,1043.4
616.309,1046.0
616.839,1042.1
617.369,1046.1
617.899,1046.5
618.428,1050.0
618.958,1040.5
619.487,1041.5
620.017,1040.5
620.546,1036.9
621.076,1040.4
621.605,1038.5
622.134,1041.1
622.663,1049.4
623.193,1056.0
623.722,1052.6
624.251,1046.1
624.78,1043.9
625.308,1037.6
625.837,1037.4
626.366,1046.9
626.895,1043.0
627.423,1049.5
627.952,1051.4
628.48,1137.9
629.009,1107.5
629.537,1109.9
630.065,1118.3
630.594,1198.9
631.122,1675.2
631.65,1326.7
632.178,1189.2
632.706,1168.6
633.234,1288.0
633.762,1227.3
634.29,1102.5
634.818,1052.6
635.346,1035.3
635.873,1032.9
636.401,1027.9
636.929,1024.8
637.456,1021.2
637.984,1021.7
638.511,1019.3
639.039,1019.6
639.566,1013.7
640.093,1015.3
640.62,1013.7
641.148,1015.5
641.675,1016.0
642.202,1022.4
642.729,1009.1
643.256,1009.2
643.783,1007.5
644.31,999.9
644.837,1003.1
645.364,1003.4
645.891,1000.5
646.417,999.2
646.944,1001.6
647.471,997.1
647.997,1000.4
648.524,994.4
649.051,992.9
649.577,995.7
650.104,996.0
650.63,995.7
651.157,991.5
651.683,993.9
652.209,992.7
652.736,988.7
653.262,989.1
653.788,985.4
654.314,987.0
654.84,986.4
655.366,986.5
655.893,988.4
656.419,983.8
656.945,987.6
657.471,987.7
657.997,985.6
658.522,984.2
659.048,979.2
659.574,981.1
660.1,981.0
660.626,978.0
661.152,975.3
661.677,980.1
662.203,975.6
662.729,979.2
663.123,974.2