File: spectra/VLFR_07-PET_bio_Raman_08f04aa7.csv
nm,Intensity
791.496,9365.3
792.594,8828.5
793.692,8665.3
794.79,8579.1
795.888,8512.7
796.986,8477.6
798.083,8518.6
799.181,8439.3
800.278,8481.8
801.375,8573.3
802.473,8391.6
803.57,8367.8
804.667,8233.7
805.764,8248.5
806.86,8095.0
807.957,8167.3
809.054,8050.9
810.15,7966.2
811.246,7970.3
812.343,7924.4
813.439,7797.1
814.535,7748.4
815.631,7661.5
816.727,7693.8
817.822,7533.5
818.918,7546.5
820.013,7487.9
821.109,7476.3
822.204,7334.8
823.299,7340.8
824.394,7272.3
825.489,7335.2
826.584,7164.1
827.679,7139.5
828.774,7014.0
829.868,7075.3
830.963,7004.7
832.057,6939.2
833.151,6814.5
834.245,6798.4
835.339,6764.1
836.433,6830.2
837.527,6802.5
838.621,6721.2
839.714,6677.4
840.808,6723.7
841.901,6648.6
842.994,6572.6
844.087,6516.1
845.18,6355.9
846.273,6368.4
847.366,6289.7
848.458,6252.4
849.551,6204.1
850.643,6179.1
851.735,6159.9
852.828,6156.2
853.92,6110.3
855.012,6062.6
856.103,6050.8
857.195,6019.1
858.287,6025.0
859.378,6029.9
860.469,6021.7
861.56,5894.2
862.651,5879.0
863.742,5885.4
864.833,5825.4
865.924,5769.0
867.014,5721.6
868.105,5666.9
869.195,5726.2
870.285,5731.0
871.376,5762.3
872.465,5840.1
873.555,5794.5
874.645,5644.2
875.735,5557.1
876.824,5553.3
877.913,5508.4
879.002,5475.3
880.092,5451.2
881.18,5467.0
882.269,5405.9
883.358,5417.4
884.446,5389.0
885.535,5348.7
886.623,5343.5
887.711,5254.7
888.799,5286.9
889.887,5197.3
890.975,5218.5
892.062,5201.4
893.15,5134.6
894.237,5107.6
895.325,5073.0
896.412,5075.6
897.499,5310.2
898.585,5336.9
899.672,5088.9
900.759,4935.5
901.845,4939.3
902.931,4907.6
904.017,4897.9
905.103,4887.7
906.189,4944.4
907.275,4995.6
908.361,4986.6
909.446,4838.5
910.531,4731.5
911.616,4714.3
912.701,4664.1
913.786,4639.0
914.871,4619.3
915.956,4588.6
917.04,4576.4
918.124,4547.7
919.209,4539.4
920.293,4512.7
921.376,4489.4
922.46,4448.3
923.544,4445.4
924.627,4423.2
925.711,4409.4
926.794,4364.6
927.877,4363.7
928.96,4318.3
930.042,4316.5
931.125,4282.5
932.207,4267.4
933.29,4242.9
934.372,4233.9
935.454,4197.0
936.536,4209.2
937.617,4178.9
938.699,4167.4
939.78,4147.6
940.861,4140.2
941.943,4114.5
943.023,4127.7
944.104,4087.4
945.185,4076.2
946.265,4075.3
947.346,4071.0
948.426,4047.3
949.506,4038.5
950.586,4007.2
951.665,4023.0
952.745,4002.4
953.824,3990.0
954.904,3985.9
955.983,3968.1
957.062,3963.5
958.141,3952.0
959.219,3939.4
960.298,3935.5
961.376,3931.1
962.454,3923.9
963.532,3908.2
964.61,3906.1
965.688,3895.0
966.765,3897.7
967.842,3895.3
968.92,3882.6
969.997,3877.8
971.074,3876.4
972.15,3869.1
973.227,3853.8
974.303,3849.1
975.379,3844.0
976.455,3834.1
977.531,3830.7
978.607,3828.4
979.683,3827.4
980.758,3824.7
981.833,3822.0
982.908,3817.8
983.983,3802.6
985.058,3802.9
986.133,3805.6
987.207,3799.4
988.281,3797.2
989.355,3786.0
990.429,3784.6
991.503,3784.2
992.577,3781.9
993.65,3775.7
994.723,3771.6
995.796,3766.3
996.869,3767.5
997.942,3766.4
999.014,3762.1
1000.09,3764.5
1001.16,3756.4
1002.23,3759.0
1003.3,3753.9
1004.37,3749.7
1005.45,3745.0
1006.52,3743.9
1007.59,3740.5
1008.66,3742.1
1009.73,3737.4
1010.8,3732.5
1011.87,3736.7
1012.94,3735.0
1014.01,3734.2
1015.08,3729.7
1016.15,3729.0
1017.22,3723.9
1018.29,3725.9
1019.36,3726.2
1020.43,3724.3
1021.5,3723.7
1022.57,3722.0
1023.64,3722.3
1024.7,3717.7
1025.77,3719.6
1026.84,3716.1
1027.91,3714.3
1028.97,3711.4
1030.04,3710.9
1031.11,3711.8
1032.18,3711.6
1033.24,3710.2
1034.31,3710.1
1035.38,3709.1
1036.44,3707.5
1037.51,3706.9
1038.58,3706.7
1039.64,3704.1
1040.71,3702.8
1041.77,3704.0
1042.84,3701.9
1043.9,3703.9
1044.97,3702.3
1046.03,3700.0
1047.1,3700.2
1048.16,3699.3
1049.22,3698.4
1050.29,3698.5
1051.35,3697.8
1052.42,3696.9
1053.48,3699.0
1054.54,3699.3
1055.61,3698.3
1056.67,3697.5
1057.73,3695.7
1058.79,3695.8
1059.86,3696.5
1060.92,3696.0
1061.98,3697.3
1063.04,3695.7
1064.1,3695.9
1065.16,3695.5
1066.22,3694.0
1067.29,3695.0
1068.08,3694.9