File: spectra/VLFR_06-PET_bio_Raman_0a65e96b.csv
nm,Intensity
528.626,1868.4
529.132,1866.2
529.637,1866.8
530.143,1869.0
530.648,1867.5
531.153,1871.0
531.658,1907.8
532.164,4953.8
532.669,1873.3
533.174,1879.9
533.679,3042.9
534.184,6606.6
534.689,5270.6
535.194,4284.6
535.699,3375.8
536.203,2864.9
536.708,2657.0
537.213,2567.5
537.717,2544.4
538.222,2557.2
538.726,2560.8
539.231,2585.4
539.735,2678.8
540.239,2635.5
540.744,2493.5
541.248,2422.2
541.752,2420.9
542.256,2405.1
542.76,2432.4
543.264,2399.2
543.768,2438.0
544.272,2433.9
544.776,2455.0
545.28,2443.6
545.784,2478.4
546.287,2474.9
546.791,2507.7
547.294,2499.6
547.798,2515.7
548.301,2523.4
548.805,2574.2
549.308,2537.7
549.811,2560.5
550.315,2658.5
550.818,3173.9
551.321,2631.1
551.824,2639.3
552.327,2679.5
552.83,3038.5
553.333,2714.1
553.835,2708.0
554.338,2697.8
554.841,2734.3
555.343,2855.3
555.846,3110.6
556.349,3122.4
556.851,3199.7
557.353,3805.9
557.856,3528.3
558.358,3341.5
558.86,3164.9
559.362,2936.8
559.864,2905.2
560.366,2916.7
560.868,2966.3
561.37,3036.1
561.872,3068.9
562.374,3163.3
562.876,3189.1
563.377,3210.3
563.879,3074.0
564.38,3138.9
564.882,3355.3
565.383,3702.5
565.885,3992.9
566.386,3477.5
566.887,3242.7
567.388,3392.2
567.889,3607.7
568.391,3311.7
568.892,3286.1
569.392,3324.4
569.893,3486.4
570.394,3881.5
570.895,4597.9
571.395,5336.3
571.896,4403.1
572.397,3788.1
572.897,3562.4
573.397,3510.8
573.898,3606.6
574.398,3611.8
574.898,3592.9
575.398,3890.3
575.898,3660.2
576.398,3870.9
576.898,3871.1
577.398,3672.3
577.898,3651.2
578.398,3604.6
578.897,3669.2
579.397,3688.1
579.896,3774.9
580.396,3772.3
580.895,3853.3
581.395,4113.2
581.894,7136.9
582.393,7334.8
582.892,3950.3
583.391,3888.7
583.89,3840.1
584.389,3938.7
584.888,3973.2
585.387,4903.1
585.886,7620.6
586.384,6359.2
586.883,4342.1
587.381,4033.4
587.88,3967.4
588.378,3921.0
588.876,3946.5
589.375,3912.7
589.873,3887.5
590.371,3952.7
590.869,3917.7
591.367,3937.4
591.865,3973.6
592.363,4011.0
592.86,3945.8
593.358,3987.7
593.856,3942.0
594.353,3994.0
594.851,4009.0
595.348,4004.6
595.845,3987.9
596.342,3978.4
596.84,4083.5
597.337,4032.5
597.834,4025.4
598.331,4043.1
598.828,4060.4
599.324,4056.2
599.821,4086.7
600.318,4072.9
600.814,4126.0
601.311,4091.2
601.807,4079.4
602.304,4065.1
602.8,4124.1
603.296,4100.8
603.792,4124.0
604.288,4104.4
604.784,4171.4
605.28,4115.1
605.776,4114.6
606.272,4200.3
606.767,4161.4
607.263,4123.2
607.759,4184.9
608.254,4125.5
608.749,4235.9
609.245,4175.2
609.74,4239.3
610.235,4232.0
610.73,4176.2
611.225,4276.9
611.72,4195.6
612.215,4208.8
612.71,4178.8
613.204,4245.1
613.699,4342.1
614.194,4364.9
614.688,4354.7
615.182,4312.0
615.677,4327.8
616.171,4334.5
616.665,4409.3
617.159,4415.9
617.653,4468.2
618.147,4380.4
618.641,4460.9
619.135,4427.9
619.628,4380.8
620.122,4376.7
620.615,4470.3
621.109,4437.4
621.602,4442.0
622.095,4411.4
622.589,4432.1
623.082,4570.9
623.575,4526.2
624.068,4543.2
624.561,4605.9
625.053,4614.2
625.546,4600.7
626.039,4654.6
626.531,4578.7
627.024,4563.5
627.516,4712.0
628.008,4697.9
628.501,4901.2
628.993,4965.3
629.485,4905.5
629.977,4853.7
630.469,4973.6
630.96,5200.9
631.452,5998.7
631.944,6076.9
632.435,5667.1
632.927,5364.4
633.418,5376.9
633.91,5312.9
634.401,5145.8
634.892,5047.8
635.383,5235.1
635.874,5567.7
636.365,6436.4
636.856,6119.9
637.346,5396.7
637.837,5155.4
638.327,5094.1
638.818,5063.9
639.308,5166.2
639.799,5013.7
640.289,5057.3
640.779,5037.9
641.269,4996.3
641.759,5034.8
642.249,5071.8
642.738,5084.8
643.228,5043.0
643.718,5109.3
644.207,5071.8
644.697,5041.2
645.186,5047.4
645.675,5059.8
646.164,5046.8
646.653,5087.1
647.142,5155.5
647.631,4908.5
648.12,4999.1
648.609,5111.3
649.098,4933.1
649.586,4993.0
650.075,5112.4
650.563,4948.8
651.051,4917.5
651.539,4869.3
652.027,4868.2
652.515,4822.5
653.003,4898.2
653.491,4824.2
653.979,4817.8
654.467,4774.4
654.954,4786.1
655.442,4685.3
655.929,4823.9
656.416,4779.3
656.904,4605.2
657.391,4614.2
657.878,4549.1
658.365,4407.1
658.851,4582.5
659.338,4603.6
659.825,4350.9
660.311,4387.0
660.798,4419.2
661.041,4442.0