File: spectra/VLFR_07-PET_bio_Raman_2d23cffb.csv
nm,Intensity
791.75,11295.6
792.846,10596.3
793.942,10319.7
795.037,10256.9
796.133,10095.8
797.228,10039.2
798.324,10071.2
799.419,10031.1
800.514,9940.65
801.61,10027.0
802.705,9990.15
803.8,9722.3
804.894,9865.45
805.989,9717.7
807.084,9576.5
808.178,9555.9
809.273,9496.0
810.367,9403.1
811.461,9284.1
812.556,9174.1
813.65,9203.4
814.744,8998.65
815.837,8897.4
816.931,8900.6
818.025,8763.15
819.118,8650.95
820.212,8719.55
821.305,8511.85
822.398,8450.15
823.491,8454.55
824.585,8415.15
825.677,8429.7
826.77,8221.0
827.863,8122.95
828.956,8022.75
830.048,8041.5
831.14,7980.2
832.233,7811.6
833.325,7824.15
834.417,7761.75
835.509,7758.4
836.601,7657.95
837.692,7739.35
838.784,7645.3
839.876,7596.95
840.967,7707.3
842.058,7644.35
843.149,7440.45
844.24,7378.85
845.331,7236.35
846.422,7196.85
847.513,7152.05
848.604,7054.4
849.694,6993.05
850.784,7002.85
851.875,7006.65
852.965,6903.0
854.055,6909.35
855.145,6755.7
856.235,6742.35
857.324,6765.2
858.414,6777.85
859.503,6830.0
860.593,6782.15
861.682,6570.9
862.771,6552.7
863.86,6626.25
864.949,6504.55
866.038,6482.35
867.126,6403.85
868.215,6414.95
869.303,6239.75
870.391,6437.35
871.479,6438.0
872.567,6559.5
873.655,6502.75
874.743,6322.5
875.831,6259.45
876.918,6179.95
878.006,6164.1
879.093,6071.3
880.18,6054.6
881.267,6000.2
882.354,6091.35
883.441,5982.7
884.527,5968.4
885.614,5984.1
886.7,5841.95
887.786,5851.5
888.872,5831.7
889.958,5733.9
891.044,5722.5
892.13,5711.1
893.216,5631.4
894.301,5671.15
895.386,5588.7
896.472,5559.9
897.557,5809.8
898.642,5900.55
899.726,5654.6
900.811,5415.05
901.896,5351.3
902.98,5368.55
904.064,5359.25
905.148,5328.95
906.232,5422.6
907.316,5552.1
908.4,5470.8
909.484,5308.45
910.567,5192.7
911.65,5105.6
912.734,5065.45
913.817,5049.5
914.9,5005.3
915.982,4947.0
917.065,4964.65
918.147,4866.55
919.23,4893.15
920.312,4853.2
921.394,4817.55
922.476,4777.8
923.558,4773.55
924.639,4715.85
925.721,4713.6
926.802,4662.25
927.884,4639.55
928.965,4643.65
930.046,4557.4
931.126,4530.4
932.207,4530.6
933.288,4513.3
934.368,4474.05
935.448,4432.2
936.528,4427.95
937.608,4385.75
938.688,4384.75
939.767,4363.4
940.847,4337.75
941.926,4310.95
943.005,4303.0
944.084,4279.8
945.163,4263.95
946.242,4235.0
947.321,4237.45
948.399,4215.45
949.477,4200.25
950.556,4192.6
951.634,4162.4
952.711,4171.05
953.789,4137.05
954.867,4139.4
955.944,4105.8
957.021,4103.2
958.098,4091.0
959.175,4085.55
960.252,4064.25
961.328,4058.75
962.405,4046.1
963.481,4037.95
964.557,4027.55
965.633,4025.0
966.709,4016.65
967.785,3999.9
968.86,3998.6
969.936,3985.1
971.011,3979.8
972.086,3969.6
973.161,3952.25
974.235,3953.3
975.31,3949.85
976.384,3944.65
977.459,3937.4
978.533,3934.0
979.607,3917.75
980.68,3912.6
981.754,3905.4
982.827,3900.35
983.901,3897.15
984.974,3896.85
986.047,3892.3
987.119,3887.85
988.192,3879.1
989.264,3871.7
990.337,3866.9
991.409,3862.15
992.481,3857.9
993.553,3852.75
994.624,3853.85
995.696,3846.4
996.767,3838.8
997.838,3840.55
998.909,3833.45
999.98,3832.25
1001.05,3828.55
1002.12,3823.2
1003.19,3823.8
1004.26,3815.4
1005.33,3814.85
1006.4,3812.9
1007.47,3806.1
1008.54,3804.65
1009.61,3798.85
1010.68,3803.55
1011.75,3799.1
1012.82,3793.05
1013.88,3794.2
1014.95,3789.55
1016.02,3788.0
1017.09,3784.35
1018.16,3784.4
1019.22,3784.75
1020.29,3784.1
1021.36,3782.3
1022.43,3786.05
1023.49,3779.9
1024.56,3777.15
1025.63,3776.8
1026.69,3771.0
1027.76,3769.2
1028.83,3766.05
1029.89,3762.75
1030.96,3762.4
1032.02,3761.45
1033.09,3761.15
1034.15,3763.35
1035.22,3765.05
1036.28,3761.35
1037.35,3758.85
1038.41,3756.15
1039.48,3753.95
1040.54,3753.3
1041.6,3752.95
1042.67,3752.9
1043.73,3750.55
1044.79,3751.05
1045.86,3749.55
1046.92,3750.05
1047.98,3748.3
1049.05,3747.15
1050.11,3747.85
1051.17,3746.8
1052.23,3746.7
1053.29,3746.05
1054.36,3745.35
1055.42,3745.1
1056.48,3745.45
1057.54,3745.1
1058.6,3743.9
1059.66,3744.75
1060.72,3745.05
1061.78,3741.95
1062.84,3743.75
1063.9,3743.05
1064.96,3742.35
1066.02,3742.25
1067.08,3743.0
1067.88,3741.85