File: spectra/VLFR_02-HDPE_bio_Raman_5169e534.csv
nm,Intensity
526.494,834.42
527.041,835.12
527.588,834.84
528.135,834.66
528.682,834.52
529.229,835.24
529.775,834.36
530.321,834.1
530.868,834.38
531.414,834.86
531.96,847.36
532.506,836.48
533.051,834.98
533.597,835.06
534.142,905.5
534.687,907.58
535.232,905.0
535.777,872.2
536.322,859.94
536.867,856.76
537.411,856.8
537.956,855.76
538.5,852.92
539.044,850.16
539.588,848.38
540.132,847.68
540.676,846.5
541.22,846.18
541.763,846.86
542.306,846.88
542.85,845.96
543.393,845.1
543.936,846.24
544.479,845.54
545.021,844.88
545.564,844.94
546.106,845.36
546.649,844.84
547.191,845.58
547.733,845.04
548.275,843.86
548.817,844.18
549.359,843.82
549.9,844.18
550.442,845.16
550.983,844.6
551.524,844.94
552.066,844.46
552.607,844.94
553.148,846.1
553.688,847.2
554.229,846.62
554.77,848.46
555.31,848.46
555.85,849.7
556.39,850.04
556.931,850.96
557.471,853.06
558.01,855.48
558.55,854.48
559.09,853.18
559.629,852.6
560.169,851.22
560.708,851.12
561.247,850.48
561.786,851.56
562.325,853.04
562.864,854.9
563.403,858.48
563.941,953.44
564.48,876.34
565.018,869.06
565.557,862.88
566.095,924.7
566.633,862.34
567.171,860.04
567.709,867.16
568.247,854.78
568.784,855.76
569.322,856.1
569.859,856.28
570.397,859.64
570.934,866.36
571.471,1015.82
572.008,884.64
572.545,863.24
573.082,856.4
573.619,858.6
574.155,866.38
574.692,856.04
575.228,861.0
575.765,900.58
576.301,1040.8
576.837,953.06
577.373,923.08
577.909,870.76
578.445,862.32
578.981,861.8
579.516,860.92
580.052,861.28
580.587,861.86
581.123,862.24
581.658,861.46
582.193,863.84
582.728,864.2
583.263,865.92
583.798,866.26
584.333,866.96
584.868,867.9
585.402,869.74
585.937,872.46
586.471,874.9
587.005,876.64
587.54,880.14
588.074,881.92
588.608,885.88
589.142,888.56
589.676,890.52
590.21,895.48
590.743,898.58
591.277,901.0
591.81,903.76
592.344,908.52
592.877,911.5
593.411,914.7
593.944,916.54
594.477,920.36
595.01,923.14
595.543,927.64
596.076,929.34
596.608,932.3
597.141,935.12
597.674,938.32
598.206,940.38
598.739,942.44
599.271,944.78
599.803,945.66
600.335,943.46
600.868,945.44
601.4,941.74
601.931,946.26
602.463,944.08
602.995,938.66
603.527,936.52
604.058,936.32
604.59,934.86
605.121,928.58
605.653,926.88
606.184,925.2
606.715,922.18
607.246,917.8
607.778,918.16
608.309,916.84
608.839,915.8
609.37,913.36
609.901,913.82
610.432,913.18
610.962,912.78
611.493,911.1
612.023,909.6
612.554,910.52
613.084,908.66
613.614,908.4
614.145,907.12
614.675,906.38
615.205,904.62
615.735,906.16
616.265,907.18
616.795,909.56
617.324,916.46
617.854,920.1
618.384,919.26
618.913,913.5
619.443,919.98
619.972,921.14
620.502,918.82
621.031,925.8
621.56,949.5
622.089,995.88
622.618,988.62
623.147,933.14
623.676,918.4
624.205,915.0
624.734,915.0
625.263,919.08
625.792,935.0
626.32,985.6
626.849,1469.22
627.377,2184.12
627.906,1637.66
628.434,2137.34
628.963,1578.46
629.491,1421.6
630.019,1249.54
630.547,1209.58
631.076,1034.06
631.604,933.7
632.132,914.94
632.66,906.56
633.188,902.5
633.715,896.64
634.243,893.22
634.771,890.24
635.299,888.8
635.826,886.14
636.354,885.78
636.881,885.3
637.409,879.56
637.936,878.02
638.464,877.84
638.991,879.1
639.518,878.02
640.045,876.74
640.573,877.68
641.1,876.08
641.627,876.62
642.154,877.3
642.681,877.18
643.208,877.88
643.735,878.5
644.261,877.86
644.788,878.38
645.315,877.92
645.842,877.88
646.368,878.16
646.895,878.66
647.421,880.36
647.948,879.12
648.474,879.3
649.001,878.52
649.527,878.68
650.054,878.42
650.58,876.96
651.106,879.02
651.633,877.48
652.159,878.52
652.685,877.6
653.211,877.34
653.737,877.52
654.263,877.72
654.789,876.38
655.315,876.28
655.841,875.8
656.367,875.64
656.893,875.84
657.419,875.56
657.945,873.34
658.47,875.7
658.996,874.82
659.522,874.98
660.047,878.34
660.573,874.64
661.099,873.5
661.624,871.48
662.15,870.5
662.675,869.5
663.07,869.08