File: spectra/VLFR_02-HDPE_bio_Raman_9776e179.csv
nm,Intensity
528.629,1850.75
529.134,1852.2
529.639,1851.25
530.145,1851.05
530.65,1852.05
531.155,1852.9
531.66,1869.05
532.165,2580.55
532.67,1851.55
533.175,1852.05
533.68,1868.4
534.185,1899.1
534.69,1902.4
535.195,1896.85
535.699,1889.1
536.204,1885.65
536.709,1884.0
537.213,1881.45
537.718,1882.5
538.222,1883.6
538.727,1884.6
539.231,1886.95
539.735,1881.45
540.239,1883.2
540.744,1878.8
541.248,1878.0
541.752,1882.8
542.256,1882.9
542.76,1884.8
543.264,1882.8
543.768,1882.7
544.271,1884.4
544.775,1880.6
545.279,1879.85
545.783,1881.5
546.286,1879.45
546.79,1883.8
547.293,1885.25
547.797,1884.2
548.3,1883.65
548.803,1884.7
549.306,1885.95
549.81,1885.15
550.313,1883.85
550.816,1886.95
551.319,1890.3
551.822,1889.4
552.325,1885.45
552.828,1889.25
553.33,1887.25
553.833,1889.95
554.336,1890.6
554.838,1890.4
555.341,1891.8
555.843,1893.45
556.346,1888.8
556.848,1894.55
557.35,1894.9
557.853,1892.05
558.355,1896.35
558.857,1895.55
559.359,1895.55
559.861,1899.55
560.363,1898.7
560.865,1896.8
561.367,1899.1
561.869,1898.3
562.37,1901.55
562.872,1902.0
563.374,1907.4
563.875,1970.3
564.376,1918.45
564.878,1916.1
565.379,1912.15
565.881,1956.8
566.382,1955.35
566.883,1908.05
567.384,1915.75
567.885,1904.2
568.386,1907.55
568.887,1904.85
569.388,1909.8
569.888,1903.3
570.389,1917.15
570.89,1918.4
571.39,2023.1
571.891,1934.55
572.391,1920.75
572.892,1909.4
573.392,1907.45
573.892,1913.4
574.393,1908.1
574.893,1905.55
575.393,1972.4
575.893,1954.95
576.393,1984.1
576.893,1967.35
577.392,1932.55
577.892,1908.65
578.392,1910.8
578.891,1906.15
579.391,1910.1
579.89,1908.45
580.39,1907.5
580.889,1909.5
581.388,1907.0
581.888,1906.5
582.387,1903.05
582.886,1904.4
583.385,1904.95
583.884,1907.35
584.383,1904.25
584.881,1903.5
585.38,1898.55
585.879,1904.5
586.377,1903.1
586.876,1903.85
587.374,1904.15
587.873,1902.6
588.371,1905.2
588.869,1905.65
589.368,1908.2
589.866,1903.95
590.364,1905.9
590.862,1898.5
591.36,1905.15
591.857,1905.25
592.355,1908.95
592.853,1906.8
593.35,1907.5
593.848,1905.85
594.345,1904.7
594.843,1904.05
595.34,1905.4
595.837,1911.85
596.335,1906.15
596.832,1913.0
597.329,1908.7
597.826,1909.15
598.323,1909.5
598.819,1912.4
599.316,1912.7
599.813,1911.65
600.309,1910.2
600.806,1909.2
601.302,1909.6
601.799,1911.35
602.295,1915.8
602.791,1909.85
603.288,1910.1
603.784,1907.55
604.28,1910.05
604.776,1909.5
605.272,1904.9
605.767,1909.3
606.263,1907.4
606.759,1908.75
607.254,1910.2
607.75,1911.0
608.245,1908.3
608.74,1911.65
609.236,1907.95
609.731,1907.9
610.226,1905.85
610.721,1913.5
611.216,1913.0
611.711,1908.9
612.206,1904.9
612.7,1910.6
613.195,1906.15
613.69,1914.05
614.184,1908.55
614.679,1909.5
615.173,1909.5
615.667,1904.0
616.161,1907.35
616.656,1905.5
617.15,1912.05
617.644,1911.0
618.137,1913.45
618.631,1913.7
619.125,1917.15
619.619,1922.2
620.112,1917.9
620.606,1919.7
621.099,1925.7
621.592,1940.65
622.086,1950.5
622.579,1947.15
623.072,1925.2
623.565,1917.9
624.058,1918.4
624.551,1916.7
625.043,1921.4
625.536,1923.95
626.029,1938.85
626.521,2040.35
627.014,2512.3
627.506,2395.4
627.998,2287.2
628.49,2578.85
628.983,2230.1
629.475,2161.55
629.966,2102.4
630.458,2087.0
630.95,1989.2
631.442,1933.3
631.933,1923.05
632.425,1918.4
632.916,1910.9
633.408,1908.4
633.899,1906.35
634.39,1904.0
634.881,1901.35
635.372,1904.95
635.863,1901.2
636.354,1900.2
636.845,1898.65
637.336,1900.9
637.826,1897.5
638.317,1894.6
638.807,1897.6
639.298,1894.55
639.788,1891.6
640.278,1893.25
640.768,1893.7
641.258,1895.1
641.748,1892.35
642.238,1892.45
642.728,1893.5
643.217,1888.5
643.707,1890.95
644.197,1890.75
644.686,1888.65
645.175,1892.1
645.664,1891.8
646.154,1890.2
646.643,1893.05
647.132,1892.85
647.621,1890.35
648.109,1890.35
648.598,1893.25
649.087,1890.25
649.575,1892.65
650.064,1888.1
650.552,1891.2
651.04,1887.55
651.528,1889.15
652.017,1885.85
652.505,1890.3
652.992,1889.15
653.48,1886.1
653.968,1884.35
654.456,1887.2
654.943,1884.85
655.431,1883.95
655.918,1881.8
656.405,1887.35
656.893,1882.65
657.38,1881.95
657.867,1882.4
658.354,1881.9
658.84,1881.25
659.327,1881.7
659.814,1882.75
660.3,1878.4
660.787,1879.0
661.03,1879.3