File: spectra/VLFR_07-PET_bio_Raman_52134ace.csv
nm,Intensity
791.588,6093.5
792.685,6004.2
793.781,6011.6
794.878,5962.5
795.975,5954.5
797.071,5986.2
798.168,5927.5
799.264,5941.1
800.36,5928.8
801.456,5888.6
802.552,5892.8
803.648,5837.9
804.744,5808.0
805.84,5820.9
806.936,5843.5
808.031,5761.0
809.127,5751.6
810.222,5679.2
811.317,5678.3
812.412,5673.3
813.507,5592.7
814.602,5566.9
815.697,5551.9
816.792,5498.8
817.887,5483.2
818.981,5447.8
820.076,5460.8
821.17,5448.7
822.265,5371.7
823.359,5324.8
824.453,5336.8
825.547,5317.6
826.641,5323.4
827.735,5230.2
828.828,5220.8
829.922,5215.9
831.016,5178.6
832.109,5153.4
833.202,5156.9
834.295,5132.0
835.388,5098.1
836.481,5062.9
837.574,5091.1
838.667,5079.4
839.76,5029.1
840.852,5072.2
841.945,5057.7
843.037,5014.0
844.129,4980.7
845.221,4951.5
846.314,4912.7
847.405,4929.7
848.497,4915.1
849.589,4896.4
850.68,4871.4
851.772,4911.1
852.863,4851.6
853.955,4824.2
855.046,4842.8
856.137,4815.4
857.228,4813.2
858.318,4800.9
859.409,4811.9
860.5,4811.4
861.59,4763.2
862.681,4757.8
863.771,4748.9
864.861,4771.4
865.951,4724.0
867.041,4704.1
868.131,4710.9
869.22,4697.5
870.31,4680.5
871.399,4709.0
872.488,4701.7
873.578,4691.8
874.667,4696.1
875.756,4656.1
876.845,4646.4
877.933,4613.8
879.022,4608.7
880.11,4619.1
881.199,4605.9
882.287,4585.9
883.375,4562.2
884.463,4590.7
885.551,4554.4
886.639,4552.8
887.726,4510.6
888.814,4526.2
889.901,4500.2
890.988,4482.0
892.075,4484.0
893.162,4456.9
894.249,4450.4
895.336,4444.5
896.423,4431.7
897.509,4453.6
898.595,4474.0
899.682,4424.9
900.768,4349.9
901.854,4358.3
902.94,4343.3
904.025,4333.6
905.111,4335.3
906.196,4329.7
907.282,4354.8
908.367,4353.8
909.452,4302.9
910.537,4273.5
911.622,4260.2
912.706,4245.3
913.791,4218.5
914.875,4191.4
915.959,4191.9
917.044,4206.0
918.128,4167.7
919.211,4177.1
920.295,4152.4
921.379,4162.9
922.462,4136.8
923.546,4129.4
924.629,4120.4
925.712,4103.9
926.795,4100.1
927.877,4076.1
928.96,4053.6
930.043,4056.0
931.125,4044.8
932.207,4036.5
933.289,4020.9
934.371,4020.0
935.453,4009.4
936.535,3997.1
937.616,3994.6
938.697,3983.8
939.779,3996.0
940.86,3971.2
941.941,3963.4
943.022,3965.1
944.102,3951.8
945.183,3940.5
946.263,3940.2
947.343,3941.7
948.423,3934.2
949.503,3918.0
950.583,3916.4
951.663,3916.6
952.742,3909.9
953.822,3899.1
954.901,3897.5
955.98,3894.0
957.059,3881.3
958.137,3880.6
959.216,3874.0
960.294,3872.7
961.373,3870.9
962.451,3860.7
963.529,3860.9
964.607,3859.8
965.684,3848.1
966.762,3854.5
967.839,3851.5
968.917,3840.9
969.994,3846.1
971.071,3836.8
972.147,3835.7
973.224,3839.8
974.3,3831.9
975.377,3828.6
976.453,3828.2
977.529,3827.1
978.605,3822.4
979.68,3823.8
980.756,3817.8
981.831,3816.5
982.907,3808.8
983.982,3813.0
985.057,3811.5
986.131,3806.8
987.206,3805.7
988.28,3804.7
989.355,3802.7
990.429,3800.3
991.503,3798.4
992.576,3796.3
993.65,3797.8
994.723,3796.9
995.797,3793.6
996.87,3790.7
997.943,3788.3
999.016,3789.2
1000.09,3784.2
1001.16,3785.5
1002.23,3783.6
1003.31,3780.9
1004.38,3777.5
1005.45,3779.6
1006.52,3779.3
1007.59,3777.6
1008.66,3776.4
1009.73,3774.1
1010.81,3772.5
1011.88,3774.3
1012.95,3773.5
1014.02,3774.1
1015.09,3770.8
1016.16,3772.2
1017.23,3771.6
1018.3,3768.4
1019.37,3768.6
1020.44,3767.3
1021.51,3766.4
1022.58,3767.5
1023.64,3765.3
1024.71,3765.0
1025.78,3764.9
1026.85,3761.7
1027.92,3763.6
1028.99,3760.4
1030.05,3761.7
1031.12,3759.8
1032.19,3760.1
1033.26,3758.3
1034.32,3759.3
1035.39,3758.4
1036.46,3758.9
1037.52,3759.7
1038.59,3756.0
1039.66,3755.8
1040.72,3756.1
1041.79,3754.9
1042.86,3754.6
1043.92,3756.6
1044.99,3755.9
1046.05,3752.9
1047.12,3754.6
1048.18,3754.2
1049.25,3752.7
1050.31,3751.6
1051.37,3752.6
1052.44,3752.7
1053.5,3751.4
1054.57,3751.0
1055.63,3750.6
1056.69,3752.2
1057.76,3751.5
1058.82,3750.2
1059.88,3752.0
1060.95,3752.3
1062.01,3751.8
1063.07,3751.8
1064.13,3752.3
1065.19,3750.6
1066.26,3749.1
1067.32,3752.3
1068.11,3747.5