File: spectra/VLFR_06-PET_bio_Raman_c4d3fb5c.csv
nm,Intensity
526.508,830.1
527.055,831.7
527.602,829.3
528.149,830.3
528.695,829.9
529.241,830.4
529.787,831.2
530.334,830.1
530.879,830.3
531.425,830.7
531.971,836.7
532.516,832.0
533.062,830.0
533.607,846.1
534.152,2411.2
534.697,1966.0
535.242,1509.5
535.786,1248.2
536.331,1092.4
536.876,1023.9
537.42,1005.3
537.964,993.3
538.508,990.4
539.052,991.1
539.596,1012.8
540.14,1015.1
540.683,965.6
541.227,949.3
541.77,944.2
542.313,941.5
542.856,944.1
543.399,942.3
543.942,952.2
544.485,949.0
545.027,952.7
545.57,949.3
546.112,960.2
546.654,954.2
547.196,955.4
547.738,956.9
548.28,961.7
548.822,965.6
549.363,968.8
549.905,966.3
550.446,989.2
550.988,994.2
551.529,971.6
552.07,981.6
552.611,992.8
553.152,1010.1
553.692,995.7
554.233,989.5
554.773,996.0
555.314,1015.3
555.854,1074.4
556.394,1087.1
556.934,1102.4
557.474,1271.9
558.014,1131.7
558.553,1125.4
559.093,1061.2
559.632,1029.1
560.172,1030.9
560.711,1031.0
561.25,1038.8
561.789,1042.8
562.328,1063.7
562.867,1078.0
563.406,1079.2
563.944,1066.2
564.483,1080.5
565.021,1135.8
565.559,1217.5
566.098,1224.6
566.636,1106.2
567.174,1089.5
567.711,1188.2
568.249,1099.8
568.787,1092.9
569.324,1105.7
569.862,1132.6
570.399,1191.2
570.936,1352.0
571.474,1519.2
572.011,1305.6
572.548,1175.2
573.084,1133.5
573.621,1136.4
574.158,1173.0
574.694,1149.7
575.231,1194.3
575.767,1154.5
576.303,1194.4
576.84,1213.0
577.376,1173.7
577.912,1153.9
578.447,1160.7
578.983,1158.0
579.519,1170.4
580.054,1170.0
580.59,1183.6
581.125,1208.2
581.661,1313.4
582.196,2813.6
582.731,1268.5
583.266,1203.0
583.801,1201.3
584.336,1215.3
584.87,1240.2
585.405,1368.8
585.94,2038.1
586.474,1690.0
587.008,1273.9
587.543,1226.0
588.077,1223.0
588.611,1223.3
589.145,1210.7
589.679,1223.3
590.213,1225.5
590.747,1220.7
591.28,1227.0
591.814,1227.3
592.347,1230.9
592.881,1229.2
593.414,1228.9
593.947,1214.0
594.48,1230.1
595.014,1239.9
595.547,1251.6
596.079,1239.9
596.612,1241.0
597.145,1240.5
597.678,1244.2
598.21,1249.1
598.743,1256.5
599.275,1251.3
599.807,1252.7
600.34,1253.6
600.872,1253.8
601.404,1252.7
601.936,1252.5
602.468,1257.5
603.0,1258.0
603.532,1262.9
604.063,1255.7
604.595,1261.0
605.126,1256.2
605.658,1248.6
606.189,1247.4
606.721,1247.7
607.252,1249.8
607.783,1255.7
608.314,1260.0
608.845,1254.6
609.376,1262.5
609.907,1254.4
610.438,1260.6
610.968,1256.6
611.499,1259.7
612.03,1266.2
612.56,1273.1
613.091,1276.2
613.621,1280.8
614.151,1289.7
614.681,1292.2
615.212,1288.0
615.742,1286.7
616.272,1286.7
616.802,1290.6
617.332,1295.8
617.861,1308.2
618.391,1317.2
618.921,1307.4
619.45,1302.7
619.98,1300.3
620.509,1303.8
621.039,1299.2
621.568,1309.7
622.097,1312.1
622.627,1314.4
623.156,1316.8
623.685,1320.3
624.214,1328.5
624.743,1335.4
625.272,1336.4
625.801,1332.0
626.33,1335.1
626.858,1335.3
627.387,1345.6
627.916,1356.1
628.444,1372.4
628.973,1413.6
629.501,1412.3
630.029,1395.7
630.558,1406.1
631.086,1489.7
631.614,1637.2
632.142,1622.7
632.67,1523.4
633.198,1502.5
633.726,1477.7
634.254,1448.0
634.782,1433.1
635.31,1441.7
635.838,1521.2
636.365,1681.1
636.893,1682.5
637.421,1507.9
637.948,1474.4
638.476,1466.5
639.003,1456.5
639.531,1468.6
640.058,1457.0
640.585,1468.9
641.113,1481.2
641.64,1481.7
642.167,1496.0
642.694,1496.8
643.221,1482.1
643.748,1485.2
644.275,1480.5
644.802,1486.3
645.329,1489.7
645.856,1495.2
646.382,1493.0
646.909,1496.8
647.436,1511.3
647.962,1510.5
648.489,1507.4
649.016,1507.5
649.542,1511.2
650.069,1501.3
650.595,1514.5
651.121,1518.9
651.648,1526.0
652.174,1523.5
652.7,1519.0
653.227,1525.1
653.753,1531.4
654.279,1537.4
654.805,1525.7
655.331,1524.8
655.857,1536.0
656.383,1536.7
656.909,1533.3
657.435,1547.8
657.961,1537.1
658.487,1532.3
659.013,1538.8
659.538,1542.3
660.064,1536.5
660.59,1549.3
661.116,1532.8
661.641,1530.1
662.167,1534.6
662.692,1531.5
663.087,1524.2