File: spectra/VLFR_07-PET_bio_Raman_284c321c.csv
nm,Intensity
791.377,13014.0
792.477,12415.3
793.576,12176.9
794.676,12098.5
795.775,11966.2
796.874,12091.5
797.973,12026.4
799.072,11948.6
800.171,11959.9
801.27,11974.5
802.368,11767.5
803.467,11704.9
804.565,11481.9
805.664,11428.8
806.762,11312.2
807.86,11200.5
808.958,11036.6
810.056,10881.3
811.153,11078.6
812.251,10894.7
813.349,10722.6
814.446,10775.6
815.543,10583.2
816.64,10409.4
817.737,10409.0
818.834,10304.8
819.931,10150.0
821.028,10115.0
822.125,10022.0
823.221,9787.0
824.317,9744.3
825.414,9825.42
826.51,9673.38
827.606,9387.0
828.702,9385.64
829.797,9309.9
830.893,9265.08
831.988,9114.74
833.084,9109.58
834.179,8927.66
835.274,8833.9
836.369,8800.42
837.464,8786.12
838.559,8746.24
839.654,8542.16
840.748,8662.26
841.843,8615.14
842.937,8467.3
844.031,8302.7
845.125,8178.54
846.219,8151.56
847.313,8042.14
848.407,7856.04
849.5,7926.46
850.593,7890.34
851.687,7796.7
852.78,7829.48
853.873,7788.7
854.966,7732.14
856.059,7692.7
857.151,7540.26
858.244,7692.72
859.336,7608.74
860.428,7475.8
861.52,7444.64
862.612,7385.66
863.704,7370.14
864.796,7341.82
865.888,7264.32
866.979,7227.12
868.07,7161.26
869.162,7101.36
870.253,7061.6
871.344,7142.64
872.434,7335.82
873.525,7224.16
874.615,7019.5
875.706,6983.28
876.796,6879.5
877.886,6779.04
878.976,6722.02
880.066,6758.96
881.156,6701.4
882.245,6636.12
883.335,6660.74
884.424,6581.86
885.513,6571.66
886.602,6404.66
887.691,6420.62
888.78,6380.6
889.868,6242.94
890.957,6308.98
892.045,6223.58
893.133,6221.5
894.221,6128.34
895.309,6051.82
896.397,6044.42
897.484,6117.92
898.571,6322.24
899.659,6093.7
900.746,5815.76
901.833,5802.0
902.92,5795.82
904.006,5706.82
905.093,5716.26
906.179,5704.88
907.266,5905.08
908.352,5824.32
909.438,5671.26
910.523,5532.12
911.609,5404.5
912.695,5437.04
913.78,5342.56
914.865,5286.48
915.95,5254.26
917.035,5222.66
918.12,5203.22
919.204,5189.96
920.289,5135.26
921.373,5097.58
922.457,5046.08
923.541,5044.02
924.625,4998.84
925.709,4969.36
926.792,4909.48
927.876,4882.34
928.959,4844.86
930.042,4807.22
931.125,4770.68
932.208,4758.66
933.29,4729.6
934.373,4694.0
935.455,4635.94
936.537,4634.9
937.619,4612.32
938.701,4571.12
939.782,4577.26
940.864,4535.9
941.945,4528.46
943.026,4488.46
944.107,4465.96
945.188,4445.66
946.269,4446.28
947.349,4425.98
948.43,4407.8
949.51,4375.02
950.59,4345.42
951.67,4324.12
952.75,4326.02
953.829,4295.06
954.909,4276.18
955.988,4271.94
957.067,4256.74
958.146,4239.64
959.224,4229.1
960.303,4193.34
961.381,4179.96
962.459,4180.7
963.537,4176.26
964.615,4147.26
965.693,4140.56
966.771,4134.88
967.848,4120.88
968.925,4121.38
970.002,4092.42
971.079,4083.82
972.156,4073.54
973.232,4059.42
974.309,4058.02
975.385,4047.22
976.461,4043.56
977.537,4033.84
978.612,4018.44
979.688,4013.46
980.763,4011.18
981.838,3996.74
982.913,3987.06
983.988,3984.4
985.063,3974.34
986.137,3965.34
987.211,3955.38
988.285,3954.62
989.359,3946.1
990.433,3943.76
991.506,3933.38
992.58,3935.7
993.653,3920.62
994.726,3914.14
995.799,3909.8
996.872,3911.04
997.944,3899.84
999.016,3896.6
1000.09,3896.5
1001.16,3889.72
1002.23,3883.62
1003.3,3877.82
1004.38,3875.84
1005.45,3870.86
1006.52,3866.58
1007.59,3864.04
1008.66,3859.54
1009.73,3854.76
1010.8,3849.48
1011.87,3850.22
1012.94,3847.14
1014.01,3844.44
1015.08,3842.22
1016.15,3837.92
1017.22,3838.64
1018.29,3833.36
1019.36,3831.14
1020.42,3828.3
1021.49,3830.12
1022.56,3833.04
1023.63,3828.12
1024.7,3824.84
1025.76,3820.7
1026.83,3818.32
1027.9,3816.1
1028.97,3811.26
1030.03,3811.98
1031.1,3808.54
1032.17,3806.88
1033.23,3807.02
1034.3,3808.1
1035.36,3808.82
1036.43,3804.84
1037.5,3805.02
1038.56,3799.46
1039.63,3799.26
1040.69,3798.44
1041.76,3796.18
1042.82,3794.0
1043.89,3793.16
1044.95,3793.0
1046.01,3792.1
1047.08,3791.88
1048.14,3790.62
1049.2,3790.52
1050.27,3789.78
1051.33,3789.48
1052.39,3788.52
1053.46,3787.86
1054.52,3787.7
1055.58,3789.1
1056.64,3787.4
1057.7,3787.54
1058.77,3786.38
1059.83,3786.7
1060.89,3785.8
1061.95,3786.16
1063.01,3785.14
1064.07,3784.56
1065.13,3784.88
1066.19,3783.82
1067.25,3784.54
1068.05,3783.8