File: spectra/VLFR_08-PLA_nobio_Raman_be8dd6f9.csv
nm,Intensity
526.5,830.3
527.047,827.7
527.594,828.5
528.14,828.7
528.687,828.4
529.233,828.6
529.779,827.0
530.325,828.8
530.871,828.4
531.417,829.1
531.962,831.9
532.508,830.2
533.053,828.3
533.599,830.0
534.144,994.5
534.689,955.9
535.234,934.8
535.778,924.6
536.323,915.3
536.867,913.1
537.412,902.9
537.956,902.5
538.5,896.9
539.044,892.6
539.588,893.4
540.132,887.4
540.675,905.9
541.219,909.4
541.762,895.7
542.305,893.0
542.848,892.5
543.391,914.7
543.934,933.3
544.477,902.4
545.02,893.5
545.562,891.5
546.105,888.5
546.647,890.0
547.189,893.5
547.731,892.3
548.273,891.1
548.815,894.7
549.356,896.2
549.898,895.3
550.439,897.0
550.981,901.9
551.522,903.4
552.063,906.1
552.604,905.9
553.145,910.2
553.686,906.1
554.226,911.4
554.767,904.2
555.307,899.2
555.848,899.6
556.388,900.8
556.928,899.8
557.468,913.2
558.008,1004.2
558.547,923.9
559.087,909.7
559.626,920.0
560.166,906.1
560.705,907.2
561.244,901.3
561.783,902.4
562.322,904.7
562.861,909.7
563.4,936.4
563.939,922.9
564.477,916.5
565.015,940.3
565.554,928.3
566.092,958.1
566.63,930.1
567.168,912.5
567.706,914.6
568.244,912.7
568.781,914.3
569.319,922.2
569.857,912.9
570.394,916.8
570.931,916.8
571.468,937.9
572.005,929.2
572.542,924.2
573.079,928.0
573.616,933.7
574.153,928.0
574.689,941.1
575.226,922.2
575.762,923.8
576.298,931.6
576.834,985.8
577.371,938.6
577.907,921.1
578.442,926.0
578.978,920.3
579.514,924.6
580.049,918.8
580.585,916.3
581.12,920.8
581.656,918.7
582.191,916.8
582.726,922.6
583.261,922.8
583.796,923.6
584.331,921.7
584.865,920.1
585.4,926.3
585.935,923.9
586.469,932.8
587.004,962.7
587.538,989.3
588.072,943.5
588.606,925.4
589.14,923.3
589.674,925.9
590.208,923.3
590.742,923.4
591.275,922.6
591.809,922.2
592.342,920.8
592.876,921.6
593.409,921.4
593.942,918.9
594.476,924.1
595.009,916.6
595.542,920.1
596.075,921.8
596.607,919.5
597.14,922.6
597.673,921.6
598.205,923.7
598.738,924.7
599.27,924.8
599.803,927.2
600.335,919.5
600.867,923.0
601.399,920.2
601.931,923.9
602.463,918.8
602.995,923.7
603.527,920.7
604.058,921.6
604.59,920.2
605.122,917.1
605.653,922.1
606.184,917.2
606.716,918.0
607.247,916.7
607.778,918.3
608.309,916.7
608.84,918.0
609.371,917.2
609.902,918.5
610.433,914.2
610.964,914.8
611.494,918.1
612.025,917.9
612.556,915.5
613.086,919.0
613.616,918.6
614.147,915.6
614.677,921.5
615.207,918.4
615.737,917.8
616.267,920.0
616.797,923.5
617.327,917.9
617.857,916.1
618.387,917.6
618.917,914.8
619.446,919.0
619.976,918.8
620.505,917.5
621.035,913.4
621.564,918.7
622.093,920.4
622.623,921.7
623.152,931.7
623.681,931.6
624.21,925.8
624.739,920.1
625.268,917.6
625.797,916.3
626.326,918.0
626.855,916.3
627.383,918.8
627.912,929.9
628.441,981.6
628.969,979.3
629.498,977.9
630.026,980.3
630.554,1031.7
631.083,1402.4
631.611,1191.8
632.139,1051.5
632.667,1006.7
633.195,1090.6
633.724,1070.1
634.252,984.0
634.779,935.8
635.307,920.3
635.835,916.5
636.363,917.1
636.891,914.3
637.418,909.4
637.946,908.1
638.474,910.3
639.001,908.5
639.529,906.2
640.056,905.4
640.583,909.1
641.111,907.6
641.638,908.6
642.165,907.6
642.692,900.8
643.22,906.1
643.747,904.4
644.274,899.6
644.801,901.0
645.328,898.9
645.854,897.8
646.381,900.6
646.908,900.6
647.435,900.4
647.962,897.9
648.488,898.0
649.015,896.0
649.542,896.0
650.068,895.6
650.595,893.5
651.121,895.9
651.648,896.6
652.174,894.9
652.7,892.1
653.227,893.3
653.753,891.0
654.279,891.9
654.805,893.0
655.331,895.4
655.858,894.2
656.384,893.2
656.91,894.5
657.436,892.1
657.962,893.9
658.488,893.1
659.013,895.9
659.539,891.6
660.065,893.6
660.591,890.9
661.117,893.1
661.642,890.7
662.168,889.8
662.694,885.8
663.088,887.2