File: spectra/VLFR_02-HDPE_bio_Raman_7efea7c1.csv
nm,Intensity
528.629,1850.2
529.134,1850.95
529.639,1850.05
530.145,1850.4
530.65,1850.35
531.155,1851.2
531.66,1875.0
532.165,2933.75
532.67,1850.7
533.175,1851.45
533.68,1893.65
534.185,2008.5
534.69,2006.65
535.195,1982.1
535.699,1924.65
536.204,1909.55
536.709,1903.95
537.213,1902.9
537.718,1899.15
538.222,1899.1
538.727,1888.7
539.231,1886.35
539.735,1887.75
540.239,1882.2
540.744,1881.3
541.248,1878.95
541.752,1883.25
542.256,1881.3
542.76,1878.1
543.264,1877.65
543.768,1879.95
544.271,1879.45
544.775,1880.6
545.279,1877.6
545.783,1880.7
546.286,1880.55
546.79,1879.7
547.293,1878.85
547.797,1879.85
548.3,1877.25
548.803,1877.15
549.306,1877.75
549.81,1877.9
550.313,1879.6
550.816,1880.2
551.319,1879.15
551.822,1879.7
552.325,1882.45
552.828,1882.7
553.33,1887.55
553.833,1886.25
554.336,1888.1
554.838,1889.9
555.341,1891.05
555.843,1897.25
556.346,1896.15
556.848,1903.85
557.35,1906.85
557.853,1909.8
558.355,1912.95
558.857,1911.5
559.359,1908.0
559.861,1907.85
560.363,1900.95
560.865,1899.0
561.367,1899.9
561.869,1904.95
562.37,1913.2
562.872,1918.95
563.374,1926.25
563.875,2218.0
564.376,1984.45
564.878,1963.4
565.379,1956.8
565.881,2137.75
566.382,2142.15
566.883,1932.7
567.384,1968.2
567.885,1922.6
568.386,1914.55
568.887,1917.9
569.388,1919.95
569.888,1916.7
570.389,1929.95
570.89,1952.9
571.39,2399.0
571.891,2028.05
572.391,1945.7
572.892,1914.85
573.392,1913.75
573.892,1949.6
574.393,1909.9
574.893,1915.4
575.393,2172.75
575.893,2112.8
576.393,2269.5
576.893,2141.05
577.392,2007.05
577.892,1928.8
578.392,1911.9
578.891,1906.5
579.391,1907.2
579.89,1908.5
580.39,1904.55
580.889,1903.1
581.388,1901.2
581.888,1903.7
582.387,1899.3
582.886,1900.7
583.385,1897.1
583.884,1894.65
584.383,1897.9
584.881,1894.4
585.38,1895.15
585.879,1894.3
586.377,1896.35
586.876,1894.95
587.374,1898.1
587.873,1895.25
588.371,1893.8
588.869,1895.65
589.368,1891.9
589.866,1892.85
590.364,1895.05
590.862,1894.25
591.36,1893.55
591.857,1893.75
592.355,1898.05
592.853,1897.3
593.35,1896.05
593.848,1895.75
594.345,1900.8
594.843,1893.35
595.34,1895.8
595.837,1904.35
596.335,1899.2
596.832,1901.5
597.329,1899.0
597.826,1900.0
598.323,1906.15
598.819,1903.6
599.316,1908.05
599.813,1909.65
600.309,1904.15
600.806,1901.85
601.302,1903.95
601.799,1912.75
602.295,1912.75
602.791,1906.05
603.288,1908.5
603.784,1913.4
604.28,1907.65
604.776,1905.7
605.272,1902.8
605.767,1905.6
606.263,1899.65
606.759,1904.15
607.254,1906.0
607.75,1900.55
608.245,1903.9
608.74,1903.55
609.236,1902.3
609.731,1900.5
610.226,1904.35
610.721,1909.25
611.216,1914.55
611.711,1909.65
612.206,1906.15
612.7,1903.1
613.195,1902.9
613.69,1900.35
614.184,1902.45
614.679,1903.3
615.173,1905.15
615.667,1905.95
616.161,1905.9
616.656,1913.1
617.15,1935.0
617.644,1930.65
618.137,1935.5
618.631,1930.55
619.125,1940.9
619.619,1948.8
620.112,1943.85
620.606,1946.8
621.099,1968.3
621.592,2028.95
622.086,2081.15
622.579,2043.85
623.072,1968.75
623.565,1953.5
624.058,1943.7
624.551,1945.15
625.043,1960.4
625.536,1974.3
626.029,2031.15
626.521,2371.7
627.014,4114.4
627.506,3641.4
627.998,3326.95
628.49,4343.7
628.983,3090.55
629.475,2898.1
629.966,2599.65
630.458,2539.9
630.95,2219.9
631.442,2015.3
631.933,1976.4
632.425,1955.3
632.916,1939.9
633.408,1927.6
633.899,1923.25
634.39,1918.6
634.881,1911.0
635.372,1907.4
635.863,1905.4
636.354,1902.75
636.845,1898.1
637.336,1893.7
637.826,1890.15
638.317,1886.25
638.807,1887.6
639.298,1886.6
639.788,1884.9
640.278,1881.4
640.768,1884.8
641.258,1881.05
641.748,1882.7
642.238,1882.5
642.728,1881.25
643.217,1880.5
643.707,1880.9
644.197,1881.85
644.686,1879.55
645.175,1878.6
645.664,1880.05
646.154,1879.95
646.643,1883.85
647.132,1878.2
647.621,1878.6
648.109,1880.6
648.598,1879.1
649.087,1879.2
649.575,1878.45
650.064,1878.8
650.552,1876.8
651.04,1879.45
651.528,1875.7
652.017,1877.45
652.505,1876.3
652.992,1878.3
653.48,1877.3
653.968,1876.05
654.456,1875.4
654.943,1876.0
655.431,1873.95
655.918,1875.35
656.405,1876.4
656.893,1871.75
657.38,1873.55
657.867,1872.95
658.354,1872.7
658.84,1876.1
659.327,1874.6
659.814,1874.35
660.3,1874.95
660.787,1873.7
661.03,1871.25