File: spectra/VLFR_07-PET_nobio_Raman_05a773a0.csv
cm-1,Intensity
109.24,8210.8
126.699,7781.7
144.108,7549.65
161.468,7408.35
178.779,7334.2
196.04,7289.55
213.253,7362.35
230.417,7309.45
247.532,7269.8
264.599,7255.7
281.618,7223.85
298.59,7124.35
315.513,7094.6
332.389,7038.75
349.218,6974.75
365.999,6940.55
382.734,6863.95
399.422,6808.05
416.064,6777.1
432.659,6669.75
449.208,6606.5
465.711,6513.05
482.168,6487.35
498.579,6423.3
514.946,6344.95
531.267,6308.5
547.542,6327.8
563.773,6258.3
579.96,6101.15
596.102,6153.6
612.199,6093.95
628.252,6197.85
644.261,6068.6
660.227,5958.6
676.149,5907.9
692.027,5939.15
707.862,5898.25
723.654,5870.25
739.403,5793.3
755.109,5741.95
770.773,5766.3
786.394,5781.4
801.973,5733.65
817.509,5769.65
833.004,5690.95
848.457,5790.95
863.868,5708.05
879.238,5638.65
894.567,5557.85
909.854,5536.7
925.1,5421.65
940.306,5438.85
955.471,5396.15
970.595,5346.55
985.679,5347.45
1000.72,5352.4
1015.73,5309.9
1030.69,5283.55
1045.61,5252.95
1060.5,5197.7
1075.34,5218.4
1090.15,5237.15
1104.92,5258.15
1119.64,5215.05
1134.33,5160.55
1148.98,5100.35
1163.6,5105.05
1178.17,5079.1
1192.7,5019.25
1207.2,5019.2
1221.66,5002.85
1236.08,4997.85
1250.46,4998.0
1264.81,5082.3
1279.12,5120.65
1293.39,5055.85
1307.62,5012.2
1321.82,4934.4
1335.98,4916.4
1350.11,4871.5
1364.19,4873.3
1378.24,4830.95
1392.26,4830.9
1406.24,4824.6
1420.18,4803.7
1434.08,4823.75
1447.96,4802.55
1461.79,4748.2
1475.59,4730.55
1489.35,4730.1
1503.08,4709.15
1516.78,4692.9
1530.44,4675.95
1544.06,4650.2
1557.65,4641.1
1571.2,4581.05
1584.72,4589.75
1598.21,4740.55
1611.66,4855.1
1625.08,4645.2
1638.46,4513.05
1651.81,4488.6
1665.13,4479.8
1678.41,4478.2
1691.66,4453.3
1704.88,4521.45
1718.06,4647.3
1731.21,4595.45
1744.32,4472.75
1757.41,4374.4
1770.46,4356.1
1783.48,4323.55
1796.46,4314.5
1809.42,4283.25
1822.34,4271.6
1835.23,4285.95
1848.08,4257.25
1860.91,4261.05
1873.7,4207.3
1886.46,4218.35
1899.19,4207.7
1911.89,4190.0
1924.56,4174.0
1937.19,4163.7
1949.8,4145.75
1962.37,4126.5
1974.91,4109.6
1987.42,4097.2
1999.9,4075.65
2012.36,4055.4
2024.78,4053.95
2037.16,4037.0
2049.52,4037.95
2061.85,4017.75
2074.15,4008.85
2086.42,4012.75
2098.66,3989.3
2110.87,3980.2
2123.05,3986.3
2135.2,3970.2
2147.32,3960.2
2159.41,3956.3
2171.47,3946.0
2183.51,3939.25
2195.51,3936.85
2207.49,3925.8
2219.43,3918.3
2231.35,3917.35
2243.24,3908.6
2255.1,3901.1
2266.93,3901.9
2278.73,3894.35
2290.51,3886.55
2302.26,3883.5
2313.97,3873.1
2325.67,3879.4
2337.33,3868.5
2348.96,3866.75
2360.57,3859.4
2372.15,3858.15
2383.7,3856.25
2395.23,3852.6
2406.73,3851.9
2418.2,3846.65
2429.64,3844.95
2441.06,3841.15
2452.45,3835.7
2463.81,3828.4
2475.15,3829.55
2486.46,3827.4
2497.74,3826.1
2509.0,3820.3
2520.23,3816.7
2531.43,3813.25
2542.61,3811.75
2553.76,3812.65
2564.88,3807.15
2575.98,3804.9
2587.06,3806.65
2598.1,3803.1
2609.13,3801.6
2620.12,3798.5
2631.09,3797.85
2642.04,3792.1
2652.96,3791.15
2663.85,3793.25
2674.72,3788.25
2685.57,3783.1
2696.39,3785.45
2707.18,3783.55
2717.95,3780.8
2728.69,3777.05
2739.41,3776.9
2750.11,3774.6
2760.78,3774.65
2771.43,3772.45
2782.05,3769.3
2792.65,3771.0
2803.22,3767.55
2813.77,3765.85
2824.3,3763.35
2834.8,3763.85
2845.27,3762.05
2855.73,3764.2
2866.16,3761.6
2876.56,3760.85
2886.95,3761.25
2897.3,3760.15
2907.64,3756.65
2917.95,3759.45
2928.24,3754.2
2938.51,3757.3
2948.75,3758.3
2958.97,3758.05
2969.17,3754.55
2979.34,3755.15
2989.49,3750.9
2999.62,3750.25
3009.72,3750.3
3019.81,3748.05
3029.87,3746.65
3039.9,3744.75
3049.92,3745.85
3059.91,3748.1
3069.88,3748.15
3079.83,3747.4
3089.76,3746.95
3099.66,3743.35
3109.54,3743.6
3119.4,3742.15
3129.24,3741.05
3139.06,3742.7
3148.85,3740.9
3158.62,3741.4
3168.38,3740.9
3178.11,3739.2
3187.81,3739.4
3197.5,3738.65
3207.17,3737.75
3216.81,3738.05
3226.44,3738.7
3236.04,3738.4
3245.62,3738.5
3255.18,3738.35
3264.72,3737.5
3274.24,3736.85
3283.73,3736.85
3293.21,3736.9
3302.67,3737.35
3312.1,3736.35
3321.52,3737.35
3330.91,3738.85
3340.29,3737.1
3349.64,3736.45
3358.97,3737.55
3368.29,3735.7
3375.26,3735.65