File: spectra/VLFR_01-LDPE_bio_Raman_e556cb1e.csv
nm,Intensity
528.626,1868.9
529.132,1869.1
529.637,1867.8
530.143,1870.2
530.648,1869.0
531.153,1871.4
531.658,1893.7
532.164,3474.3
532.669,1867.3
533.174,1870.8
533.679,1928.9
534.184,2136.3
534.689,2155.0
535.194,2147.5
535.699,2120.9
536.203,2116.8
536.708,2110.3
537.213,2112.4
537.717,2117.3
538.222,2115.2
538.726,2126.6
539.231,2120.4
539.735,2115.5
540.239,2133.6
540.744,2127.6
541.248,2129.7
541.752,2132.2
542.256,2147.3
542.76,2144.5
543.264,2160.0
543.768,2145.5
544.272,2140.9
544.776,2153.0
545.28,2168.5
545.784,2152.3
546.287,2153.0
546.791,2162.5
547.294,2173.9
547.798,2163.0
548.301,2185.2
548.805,2169.5
549.308,2181.2
549.811,2179.3
550.315,2184.5
550.818,2185.5
551.321,2208.7
551.824,2185.5
552.327,2205.9
552.83,2186.1
553.333,2198.9
553.835,2194.7
554.338,2226.5
554.841,2201.9
555.343,2239.0
555.846,2215.8
556.349,2226.7
556.851,2240.9
557.353,2236.4
557.856,2235.4
558.358,2265.0
558.86,2253.0
559.362,2244.6
559.864,2250.4
560.366,2262.8
560.868,2283.7
561.37,2286.9
561.872,2283.1
562.374,2276.4
562.876,2296.3
563.377,2308.5
563.879,2371.2
564.38,2337.7
564.882,2342.2
565.383,2321.5
565.885,2342.1
566.386,2363.4
566.887,2309.6
567.388,2328.1
567.889,2308.4
568.391,2321.3
568.892,2323.2
569.392,2323.1
569.893,2337.6
570.394,2358.6
570.895,2353.8
571.395,2466.2
571.896,2409.1
572.397,2388.4
572.897,2384.8
573.397,2371.8
573.898,2395.9
574.398,2371.0
574.898,2388.5
575.398,2396.4
575.898,2440.5
576.398,2533.2
576.898,2504.9
577.398,2459.9
577.898,2423.7
578.398,2423.0
578.897,2437.0
579.397,2436.5
579.896,2441.9
580.396,2458.3
580.895,2467.0
581.395,2466.2
581.894,2468.4
582.393,2474.8
582.892,2478.1
583.391,2494.0
583.89,2482.6
584.389,2505.2
584.888,2514.2
585.387,2510.2
585.886,2525.4
586.384,2541.3
586.883,2566.7
587.381,2554.2
587.88,2608.5
588.378,2606.0
588.876,2631.3
589.375,2643.9
589.873,2646.5
590.371,2670.0
590.869,2678.0
591.367,2715.6
591.865,2743.9
592.363,2752.1
592.86,2800.6
593.358,2798.2
593.856,2844.1
594.353,2850.3
594.851,2900.2
595.348,2984.4
595.845,3021.6
596.342,3042.4
596.84,3089.5
597.337,3136.0
597.834,3193.2
598.331,3224.3
598.828,3315.5
599.324,3319.0
599.821,3369.8
600.318,3370.5
600.814,3428.2
601.311,3419.0
601.807,3447.4
602.304,3436.6
602.8,3387.2
603.296,3394.3
603.792,3375.8
604.288,3344.5
604.784,3316.2
605.28,3219.3
605.776,3217.1
606.272,3203.9
606.767,3164.9
607.263,3141.5
607.759,3111.6
608.254,3101.5
608.749,3070.1
609.245,3056.2
609.74,3043.8
610.235,3057.8
610.73,3076.7
611.225,3003.6
611.72,3003.6
612.215,3022.1
612.71,3028.5
613.204,3004.5
613.699,2970.7
614.194,2963.4
614.688,2957.8
615.182,2951.9
615.677,2905.6
616.171,2914.2
616.665,2869.1
617.159,2916.3
617.653,2884.0
618.147,2884.3
618.641,2891.9
619.135,2903.6
619.628,2885.4
620.122,2871.7
620.615,2843.0
621.109,2852.4
621.602,2853.6
622.095,2855.6
622.589,2848.8
623.082,2831.9
623.575,2825.5
624.068,2807.8
624.561,2792.6
625.053,2781.6
625.546,2788.9
626.039,2797.1
626.531,2863.3
627.024,3344.5
627.516,3362.8
628.008,3207.5
628.501,3473.2
628.993,3207.1
629.485,3085.1
629.977,2994.6
630.469,2963.1
630.96,2817.8
631.452,2739.0
631.944,2712.2
632.435,2695.6
632.927,2670.9
633.418,2670.9
633.91,2647.6
634.401,2627.5
634.892,2652.9
635.383,2631.7
635.874,2615.4
636.365,2629.0
636.856,2626.8
637.346,2618.0
637.837,2611.3
638.327,2611.2
638.818,2601.2
639.308,2600.4
639.799,2596.8
640.289,2599.5
640.779,2583.2
641.269,2582.9
641.759,2589.9
642.249,2600.4
642.738,2615.9
643.228,2603.8
643.718,2604.4
644.207,2588.2
644.697,2580.4
645.186,2605.5
645.675,2590.8
646.164,2578.0
646.653,2586.9
647.142,2600.4
647.631,2595.4
648.12,2581.1
648.609,2589.6
649.098,2592.5
649.586,2579.4
650.075,2595.4
650.563,2597.5
651.051,2597.2
651.539,2584.7
652.027,2576.0
652.515,2569.4
653.003,2582.8
653.491,2574.6
653.979,2587.7
654.467,2552.8
654.954,2545.8
655.442,2529.2
655.929,2564.4
656.416,2534.3
656.904,2501.6
657.391,2508.7
657.878,2519.1
658.365,2452.4
658.851,2476.4
659.338,2428.4
659.825,2428.2
660.311,2451.2
660.798,2410.6
661.041,2418.7