File: spectra/VLFR_02-HDPE_bio_Raman_6bf2f0cc.csv
nm,Intensity
526.547,831.8
527.095,831.7
527.642,831.9
528.189,832.35
528.736,832.45
529.283,831.75
529.829,831.7
530.376,831.7
530.922,832.35
531.468,831.8
532.014,840.6
532.56,832.75
533.106,830.9
533.651,833.05
534.196,923.25
534.742,920.4
535.287,913.55
535.832,895.9
536.376,888.3
536.921,885.85
537.465,885.65
538.01,886.3
538.554,883.1
539.098,880.65
539.642,877.7
540.186,880.6
540.729,876.75
541.273,877.15
541.816,874.55
542.36,877.25
542.903,878.65
543.446,875.85
543.988,878.7
544.531,880.45
545.074,879.5
545.616,880.9
546.158,880.4
546.701,881.8
547.243,881.55
547.785,880.4
548.326,880.45
548.868,882.7
549.41,881.05
549.951,881.65
550.492,882.75
551.034,880.25
551.575,880.45
552.116,881.3
552.656,880.15
553.197,881.3
553.738,882.25
554.278,882.1
554.819,884.2
555.359,884.6
555.899,880.95
556.439,882.3
556.979,884.4
557.519,883.2
558.058,887.0
558.598,885.95
559.137,885.5
559.677,885.9
560.216,886.65
560.755,882.65
561.294,885.95
561.833,888.2
562.371,888.3
562.91,892.0
563.449,896.3
563.987,972.55
564.525,909.35
565.064,905.75
565.602,899.35
566.14,970.85
566.678,901.65
567.216,901.9
567.753,902.75
568.291,900.9
568.828,900.85
569.366,902.05
569.903,905.35
570.44,907.45
570.977,914.2
571.514,1040.7
572.051,928.0
572.588,915.35
573.125,914.7
573.661,917.85
574.198,924.1
574.734,919.85
575.271,928.45
575.807,961.25
576.343,1074.95
576.879,1008.7
577.415,986.95
577.951,959.8
578.486,963.2
579.022,966.2
579.557,975.35
580.093,983.7
580.628,994.85
581.164,1001.6
581.699,1015.2
582.234,1023.65
582.769,1034.5
583.304,1042.35
583.838,1050.85
584.373,1059.85
584.908,1069.85
585.442,1080.15
585.977,1088.0
586.511,1100.9
587.045,1115.55
587.58,1124.9
588.114,1142.95
588.648,1145.5
589.182,1161.0
589.715,1166.1
590.249,1181.65
590.783,1195.05
591.316,1201.45
591.85,1213.95
592.383,1220.6
592.917,1224.4
593.45,1234.3
593.983,1236.75
594.516,1247.75
595.049,1251.8
595.582,1263.2
596.115,1271.4
596.648,1283.4
597.18,1295.65
597.713,1307.75
598.245,1313.7
598.778,1322.95
599.31,1333.1
599.842,1334.05
600.375,1334.3
600.907,1335.85
601.439,1327.6
601.971,1323.55
602.503,1319.9
603.034,1307.3
603.566,1299.5
604.098,1284.55
604.629,1266.35
605.161,1248.55
605.692,1225.95
606.224,1209.5
606.755,1201.9
607.286,1185.2
607.817,1179.05
608.348,1167.65
608.879,1155.5
609.41,1146.05
609.941,1138.65
610.472,1132.0
611.002,1119.6
611.533,1118.25
612.063,1109.25
612.594,1106.35
613.124,1105.85
613.655,1101.65
614.185,1095.25
614.715,1084.55
615.245,1081.65
615.775,1075.55
616.305,1068.8
616.835,1073.0
617.365,1068.75
617.895,1065.35
618.425,1063.45
618.954,1057.45
619.484,1060.0
620.013,1056.25
620.543,1051.85
621.072,1056.95
621.602,1071.1
622.131,1098.9
622.66,1084.45
623.189,1053.0
623.718,1042.1
624.247,1042.55
624.776,1036.8
625.305,1036.85
625.834,1048.1
626.363,1084.85
626.891,1464.2
627.42,1923.55
627.949,1550.7
628.477,1950.3
629.006,1535.65
629.534,1418.85
630.062,1296.05
630.591,1270.55
631.119,1130.6
631.647,1059.75
632.175,1047.25
632.703,1040.85
633.231,1039.65
633.759,1042.5
634.287,1037.75
634.815,1035.95
635.343,1034.55
635.871,1037.65
636.398,1043.2
636.926,1043.05
637.454,1038.6
637.981,1040.85
638.509,1045.0
639.036,1045.85
639.564,1048.0
640.091,1048.35
640.618,1053.6
641.146,1053.1
641.673,1054.6
642.2,1060.4
642.727,1059.9
643.254,1061.55
643.781,1066.7
644.308,1061.75
644.835,1062.5
645.362,1061.25
645.889,1060.8
646.416,1064.55
646.942,1062.55
647.469,1065.65
647.996,1071.55
648.522,1066.25
649.049,1066.7
649.576,1064.75
650.102,1063.7
650.629,1059.15
651.155,1059.25
651.682,1065.35
652.208,1066.2
652.734,1065.2
653.261,1062.8
653.787,1063.75
654.313,1061.75
654.839,1060.75
655.365,1054.8
655.892,1053.2
656.418,1055.35
656.944,1050.45
657.47,1042.9
657.996,1040.2
658.522,1038.9
659.048,1030.7
659.574,1024.85
660.099,1027.8
660.625,1018.25
661.151,1008.0
661.677,999.25
662.203,997.75
662.728,993.5
663.123,986.4