File: spectra/VLFR_02-HDPE_nobio_Raman_c0c2440b.csv
nm,Intensity
526.532,833.45
527.079,833.0
527.625,833.55
528.172,833.1
528.718,832.4
529.265,833.5
529.811,832.6
530.357,833.75
530.903,833.25
531.449,833.2
531.994,836.9
532.54,834.45
533.085,833.3
533.63,835.35
534.176,927.0
534.721,924.55
535.266,916.8
535.81,905.2
536.355,906.55
536.9,897.35
537.444,895.9
537.988,895.45
538.533,895.7
539.077,896.1
539.621,892.25
540.165,894.35
540.708,893.15
541.252,897.35
541.795,897.6
542.339,895.95
542.882,896.65
543.425,899.15
543.968,901.0
544.511,902.8
545.054,899.6
545.597,906.1
546.139,906.7
546.682,906.45
547.224,906.05
547.766,906.9
548.308,907.35
548.85,909.0
549.392,908.55
549.934,909.3
550.475,908.95
551.017,911.15
551.558,911.35
552.1,911.5
552.641,908.85
553.182,911.3
553.723,915.0
554.264,913.15
554.804,913.15
555.345,912.1
555.885,912.45
556.426,913.65
556.966,918.15
557.506,918.9
558.046,917.35
558.586,918.25
559.126,917.9
559.665,917.75
560.205,918.8
560.745,920.65
561.284,918.8
561.823,921.35
562.362,920.6
562.901,921.65
563.44,926.15
563.979,980.35
564.518,938.9
565.056,934.85
565.595,932.6
566.133,986.2
566.671,937.55
567.21,935.85
567.748,934.95
568.285,933.3
568.823,937.2
569.361,939.6
569.899,939.75
570.436,945.95
570.974,950.15
571.511,1048.35
572.048,963.35
572.585,958.8
573.122,956.75
573.659,960.2
574.196,968.4
574.733,966.2
575.269,979.4
575.806,1002.95
576.342,1081.05
576.878,1045.05
577.414,1037.55
577.951,1016.0
578.486,1025.55
579.022,1041.6
579.558,1051.2
580.094,1058.4
580.629,1070.6
581.165,1083.55
581.7,1097.3
582.236,1112.55
582.771,1122.35
583.306,1149.8
583.841,1156.35
584.376,1174.85
584.911,1190.05
585.445,1211.15
585.98,1229.4
586.514,1245.7
587.049,1265.45
587.583,1282.3
588.117,1302.75
588.651,1317.55
589.186,1334.85
589.72,1350.8
590.253,1366.15
590.787,1391.05
591.321,1405.2
591.854,1415.2
592.388,1429.05
592.921,1449.25
593.455,1457.3
593.988,1463.85
594.521,1480.0
595.054,1490.2
595.587,1506.0
596.12,1517.9
596.653,1533.1
597.186,1543.9
597.718,1557.8
598.251,1567.75
598.783,1579.2
599.316,1586.85
599.848,1586.25
600.38,1583.6
600.912,1577.35
601.444,1570.55
601.976,1570.0
602.508,1554.8
603.04,1544.05
603.572,1527.4
604.103,1512.8
604.635,1482.45
605.167,1454.0
605.698,1435.15
606.229,1412.6
606.761,1387.9
607.292,1380.15
607.823,1358.3
608.354,1350.65
608.885,1330.0
609.416,1315.0
609.947,1296.6
610.477,1289.15
611.008,1278.95
611.539,1265.5
612.069,1264.65
612.6,1257.25
613.13,1252.05
613.66,1239.1
614.19,1231.15
614.721,1224.6
615.251,1206.9
615.781,1205.15
616.311,1196.4
616.841,1191.7
617.37,1189.75
617.9,1182.15
618.43,1169.85
618.96,1167.75
619.489,1161.45
620.019,1156.7
620.548,1147.9
621.077,1147.65
621.607,1151.5
622.136,1164.7
622.665,1158.7
623.194,1136.6
623.723,1126.25
624.252,1119.05
624.781,1122.7
625.31,1123.2
625.839,1120.45
626.368,1135.3
626.896,1334.25
627.425,1569.05
627.953,1370.45
628.482,1578.35
629.01,1373.25
629.539,1302.85
630.067,1246.75
630.596,1231.35
631.124,1156.5
631.652,1114.3
632.18,1109.0
632.708,1109.8
633.236,1105.05
633.764,1102.15
634.292,1102.75
634.82,1097.35
635.348,1104.15
635.876,1106.05
636.403,1105.7
636.931,1105.4
637.459,1108.6
637.986,1109.5
638.514,1110.6
639.041,1118.7
639.568,1115.55
640.096,1121.8
640.623,1125.2
641.15,1128.05
641.678,1127.25
642.205,1127.85
642.732,1131.05
643.259,1132.1
643.786,1132.9
644.313,1131.3
644.84,1134.55
645.367,1129.15
645.894,1135.9
646.421,1139.2
646.948,1135.55
647.474,1137.55
648.001,1136.25
648.528,1138.2
649.054,1132.95
649.581,1133.6
650.108,1132.95
650.634,1135.75
651.161,1131.95
651.687,1125.4
652.214,1129.95
652.74,1130.85
653.266,1126.85
653.793,1124.65
654.319,1122.75
654.845,1120.5
655.371,1116.6
655.897,1116.85
656.424,1110.55
656.95,1110.1
657.476,1103.0
658.002,1097.75
658.528,1091.9
659.054,1089.0
659.58,1079.3
660.106,1072.65
660.631,1066.45
661.157,1060.95
661.683,1052.3
662.209,1044.75
662.735,1038.45
663.129,1036.1