File: spectra/VLFR_07-PET_nobio_Raman_15a68930.csv
nm,Intensity
791.75,7511.15
792.846,7344.0
793.942,7209.5
795.037,7192.7
796.133,7152.45
797.228,7109.7
798.324,7113.35
799.419,7141.2
800.514,7069.15
801.61,7034.1
802.705,7098.45
803.8,6968.2
804.894,6948.45
805.989,6945.4
807.084,6892.5
808.178,6913.15
809.273,6854.25
810.367,6827.75
811.461,6759.3
812.556,6796.65
813.65,6620.4
814.744,6661.0
815.837,6545.8
816.931,6542.5
818.025,6501.85
819.118,6453.35
820.212,6440.9
821.305,6362.0
822.398,6303.4
823.491,6301.7
824.585,6217.1
825.677,6277.2
826.77,6203.2
827.863,6119.3
828.956,6065.3
830.048,6082.3
831.14,6060.8
832.233,5953.7
833.325,5999.3
834.417,5930.3
835.509,5898.65
836.601,5899.5
837.692,5896.65
838.784,5861.2
839.876,5847.85
840.967,5892.45
842.058,5808.05
843.149,5788.9
844.24,5729.0
845.331,5650.7
846.422,5582.4
847.513,5617.25
848.604,5551.0
849.694,5561.8
850.784,5535.5
851.875,5517.9
852.965,5520.3
854.055,5475.15
855.145,5452.7
856.235,5425.3
857.324,5442.6
858.414,5465.3
859.503,5465.55
860.593,5384.1
861.682,5345.15
862.771,5307.1
863.86,5325.2
864.949,5332.75
866.038,5232.0
867.126,5238.2
868.215,5220.6
869.303,5215.95
870.391,5256.55
871.479,5224.25
872.567,5292.25
873.655,5187.95
874.743,5190.55
875.831,5182.15
876.918,5101.6
878.006,5070.9
879.093,5085.85
880.18,5046.0
881.267,5070.5
882.354,5012.8
883.441,4999.7
884.527,4997.85
885.614,4986.7
886.7,4934.5
887.786,4934.85
888.872,4878.35
889.958,4912.2
891.044,4861.55
892.13,4850.6
893.216,4832.65
894.301,4813.05
895.386,4760.55
896.472,4826.85
897.557,4944.0
898.642,4918.2
899.726,4750.75
900.811,4690.3
901.896,4656.15
902.98,4676.95
904.064,4633.75
905.148,4644.8
906.232,4720.65
907.316,4751.9
908.4,4699.2
909.484,4593.0
910.567,4553.65
911.65,4516.15
912.734,4479.8
913.817,4478.3
914.9,4461.5
915.982,4441.5
917.065,4411.6
918.147,4403.35
919.23,4403.3
920.312,4363.95
921.394,4346.3
922.476,4337.35
923.558,4326.4
924.639,4297.75
925.721,4288.45
926.802,4277.55
927.884,4266.65
928.965,4227.7
930.046,4208.0
931.126,4203.25
932.207,4172.55
933.288,4159.7
934.368,4155.0
935.448,4140.5
936.528,4121.2
937.608,4116.15
938.688,4102.7
939.767,4086.75
940.847,4085.25
941.926,4055.05
943.005,4051.9
944.084,4049.15
945.163,4038.0
946.242,4017.55
947.321,4015.35
948.399,4005.55
949.477,3986.4
950.556,3982.25
951.634,3967.75
952.711,3959.6
953.789,3955.9
954.867,3944.65
955.944,3946.95
957.021,3930.2
958.098,3929.8
959.175,3915.65
960.252,3910.9
961.328,3898.05
962.405,3916.6
963.481,3897.4
964.557,3881.1
965.633,3880.65
966.709,3878.2
967.785,3869.5
968.86,3863.6
969.936,3858.65
971.011,3853.75
972.086,3850.65
973.161,3844.75
974.235,3841.45
975.31,3834.45
976.384,3832.6
977.459,3826.0
978.533,3821.75
979.607,3825.2
980.68,3812.7
981.754,3805.4
982.827,3811.4
983.901,3806.85
984.974,3806.1
986.047,3796.0
987.119,3795.05
988.192,3796.45
989.264,3785.55
990.337,3787.1
991.409,3784.1
992.481,3779.4
993.553,3777.1
994.624,3776.05
995.696,3772.8
996.767,3771.0
997.838,3767.85
998.909,3768.0
999.98,3766.3
1001.05,3762.4
1002.12,3758.55
1003.19,3758.3
1004.26,3753.5
1005.33,3751.25
1006.4,3750.7
1007.47,3749.25
1008.54,3748.5
1009.61,3746.1
1010.68,3743.7
1011.75,3743.65
1012.82,3739.15
1013.88,3741.15
1014.95,3738.75
1016.02,3737.7
1017.09,3736.5
1018.16,3732.4
1019.22,3733.85
1020.29,3732.2
1021.36,3734.55
1022.43,3732.75
1023.49,3731.65
1024.56,3728.9
1025.63,3726.9
1026.69,3726.2
1027.76,3723.95
1028.83,3721.8
1029.89,3721.9
1030.96,3721.0
1032.02,3721.45
1033.09,3720.25
1034.15,3720.45
1035.22,3721.75
1036.28,3718.0
1037.35,3715.5
1038.41,3715.7
1039.48,3712.45
1040.54,3713.75
1041.6,3713.55
1042.67,3712.25
1043.73,3711.55
1044.79,3711.9
1045.86,3711.0
1046.92,3711.95
1047.98,3709.3
1049.05,3708.9
1050.11,3710.2
1051.17,3709.35
1052.23,3709.2
1053.29,3709.25
1054.36,3707.2
1055.42,3706.7
1056.48,3708.55
1057.54,3708.85
1058.6,3707.75
1059.66,3708.85
1060.72,3708.25
1061.78,3707.25
1062.84,3706.1
1063.9,3707.1
1064.96,3705.4
1066.02,3704.35
1067.08,3706.3
1067.88,3705.75