File: spectra/VLFR_07-PET_bio_Raman_9a128a40.csv
nm,Intensity
791.377,11735.5
792.477,11184.8
793.576,10840.3
794.676,10355.4
795.775,10043.0
796.874,10000.5
797.973,9950.48
799.072,10011.1
800.171,9841.66
801.27,9799.06
802.368,9873.58
803.467,9665.62
804.565,9516.88
805.664,9478.74
806.762,9434.92
807.86,9326.52
808.958,9184.88
810.056,9100.48
811.153,8973.4
812.251,8901.42
813.349,8721.6
814.446,8498.3
815.543,8566.88
816.64,8363.54
817.737,8358.66
818.834,8267.68
819.931,8281.4
821.028,8292.12
822.125,8099.48
823.221,7901.06
824.317,7999.1
825.414,8101.96
826.51,8071.86
827.606,7739.34
828.702,7749.32
829.797,7696.24
830.893,7744.72
831.988,7603.14
833.084,7460.98
834.179,7496.74
835.274,7449.84
836.369,7491.96
837.464,7480.34
838.559,7428.24
839.654,7319.0
840.748,7433.88
841.843,7702.04
842.937,7308.1
844.031,7118.04
845.125,7101.8
846.219,6972.98
847.313,6968.44
848.407,7004.62
849.5,6806.32
850.593,6786.66
851.687,6833.96
852.78,6782.72
853.873,6591.0
854.966,6539.58
856.059,6666.6
857.151,6552.8
858.244,6693.52
859.336,6762.7
860.428,6602.36
861.52,6527.48
862.612,6379.2
863.704,6366.24
864.796,6438.38
865.888,6292.24
866.979,6212.22
868.07,6203.3
869.162,6175.62
870.253,6233.56
871.344,6305.06
872.434,6364.92
873.525,6418.44
874.615,6251.02
875.706,6050.7
876.796,5993.52
877.886,5997.1
878.976,5947.32
880.066,5856.7
881.156,5894.22
882.245,5899.34
883.335,5859.8
884.424,5823.64
885.513,5843.46
886.602,5759.52
887.691,5672.92
888.78,5645.1
889.868,5620.04
890.957,5627.64
892.045,5593.08
893.133,5474.4
894.221,5451.36
895.309,5365.54
896.397,5389.32
897.484,5462.58
898.571,5832.84
899.659,5554.52
900.746,5244.12
901.833,5201.78
902.92,5167.3
904.006,5168.12
905.093,5183.38
906.179,5150.98
907.266,5357.86
908.352,5401.48
909.438,5137.72
910.523,5019.04
911.609,4982.7
912.695,4893.88
913.78,4865.64
914.865,4836.8
915.95,4830.34
917.035,4807.94
918.12,4767.62
919.204,4769.18
920.289,4768.44
921.373,4727.96
922.457,4693.9
923.541,4663.28
924.625,4639.18
925.709,4645.16
926.792,4599.82
927.876,4563.66
928.959,4499.04
930.042,4452.54
931.125,4409.74
932.208,4385.7
933.29,4343.0
934.373,4305.52
935.455,4308.34
936.537,4293.22
937.619,4281.32
938.701,4284.62
939.782,4304.82
940.864,4284.42
941.945,4249.7
943.026,4223.52
944.107,4200.98
945.188,4197.14
946.269,4186.06
947.349,4177.62
948.43,4171.58
949.51,4152.44
950.59,4155.78
951.67,4138.42
952.75,4116.7
953.829,4108.36
954.909,4105.22
955.988,4099.62
957.067,4094.5
958.146,4077.44
959.224,4080.34
960.303,4070.94
961.381,4062.2
962.459,4058.88
963.537,4038.5
964.615,4042.52
965.693,4035.52
966.771,4030.88
967.848,4046.74
968.925,4026.22
970.002,4032.16
971.079,4018.66
972.156,4010.16
973.232,4000.2
974.309,3997.32
975.385,3978.96
976.461,3979.6
977.537,3975.82
978.612,3975.86
979.688,3967.02
980.763,3961.4
981.838,3963.0
982.913,3962.22
983.988,3953.6
985.063,3956.7
986.137,3952.36
987.211,3949.36
988.285,3944.86
989.359,3942.38
990.433,3930.44
991.506,3927.34
992.58,3922.68
993.653,3920.88
994.726,3917.06
995.799,3916.12
996.872,3904.42
997.944,3898.92
999.016,3899.4
1000.09,3893.48
1001.16,3892.24
1002.23,3887.22
1003.3,3875.92
1004.38,3881.04
1005.45,3869.52
1006.52,3866.82
1007.59,3866.56
1008.66,3863.94
1009.73,3856.06
1010.8,3855.64
1011.87,3855.28
1012.94,3847.22
1014.01,3847.36
1015.08,3847.02
1016.15,3841.64
1017.22,3841.0
1018.29,3839.68
1019.36,3835.68
1020.42,3832.64
1021.49,3834.76
1022.56,3832.52
1023.63,3828.92
1024.7,3828.02
1025.76,3825.04
1026.83,3820.26
1027.9,3818.6
1028.97,3816.98
1030.03,3812.32
1031.1,3812.02
1032.17,3812.8
1033.23,3813.36
1034.3,3809.26
1035.36,3811.72
1036.43,3812.78
1037.5,3805.64
1038.56,3803.94
1039.63,3806.2
1040.69,3802.28
1041.76,3799.22
1042.82,3800.64
1043.89,3800.96
1044.95,3796.32
1046.01,3795.42
1047.08,3797.82
1048.14,3797.06
1049.2,3793.42
1050.27,3793.06
1051.33,3795.84
1052.39,3793.68
1053.46,3791.12
1054.52,3792.7
1055.58,3792.48
1056.64,3790.76
1057.7,3790.18
1058.77,3791.02
1059.83,3791.02
1060.89,3788.78
1061.95,3789.64
1063.01,3791.06
1064.07,3789.1
1065.13,3788.26
1066.19,3787.9
1067.25,3790.24
1068.05,3788.26