File: spectra/VLFR_07-PET_bio_Raman_be19cfe9.csv
nm,Intensity
791.75,13896.5
792.846,12975.8
793.942,12479.6
795.037,12413.2
796.133,12287.8
797.228,11917.8
798.324,12154.2
799.419,12062.0
800.514,12128.5
801.61,11925.8
802.705,12006.2
803.8,11794.9
804.894,11623.8
805.989,11656.3
807.084,11500.5
808.178,11316.4
809.273,11097.3
810.367,11040.8
811.461,11015.5
812.556,10991.9
813.65,10938.0
814.744,10691.1
815.837,10374.4
816.931,10329.3
818.025,10313.5
819.118,10292.2
820.212,10144.2
821.305,10176.5
822.398,9948.15
823.491,9876.5
824.585,9817.25
825.677,10040.9
826.77,9505.25
827.863,9507.75
828.956,9479.75
830.048,9390.8
831.14,9169.5
832.233,9075.1
833.325,8975.35
834.417,8897.4
835.509,8800.7
836.601,8961.4
837.692,8880.6
838.784,8829.55
839.876,8832.4
840.967,9140.3
842.058,8675.4
843.149,8655.15
844.24,8411.75
845.331,8205.9
846.422,8138.15
847.513,8039.5
848.604,8011.25
849.694,7883.85
850.784,7890.3
851.875,7846.85
852.965,7929.5
854.055,7856.9
855.145,7714.25
856.235,7662.2
857.324,7613.7
858.414,7782.15
859.503,7810.05
860.593,7708.2
861.682,7488.05
862.771,7445.95
863.86,7456.1
864.949,7415.25
866.038,7318.7
867.126,7183.15
868.215,7223.95
869.303,7217.5
870.391,7334.55
871.479,7462.1
872.567,7676.75
873.655,7481.25
874.743,7148.5
875.831,7042.0
876.918,6965.8
878.006,6854.9
879.093,6833.9
880.18,6847.4
881.267,6765.15
882.354,6753.8
883.441,6719.05
884.527,6599.8
885.614,6712.25
886.7,6569.7
887.786,6448.9
888.872,6440.0
889.958,6361.0
891.044,6424.55
892.13,6301.2
893.216,6207.8
894.301,6134.8
895.386,6139.85
896.472,6259.9
897.557,6794.15
898.642,6875.4
899.726,6082.75
900.811,5898.25
901.896,5833.55
902.98,5812.25
904.064,5814.2
905.148,5833.35
906.232,6111.5
907.316,6385.85
908.4,6158.85
909.484,5756.95
910.567,5541.35
911.65,5486.05
912.734,5394.95
913.817,5403.6
914.9,5327.05
915.982,5266.6
917.065,5295.6
918.147,5210.05
919.23,5224.0
920.312,5166.7
921.394,5071.4
922.476,5081.25
923.558,5016.25
924.639,4986.8
925.721,4948.05
926.802,4883.4
927.884,4920.4
928.965,4848.9
930.046,4785.0
931.126,4744.9
932.207,4740.85
933.288,4707.8
934.368,4661.3
935.448,4640.15
936.528,4595.95
937.608,4589.45
938.688,4561.15
939.767,4538.85
940.847,4496.05
941.926,4482.05
943.005,4456.85
944.084,4415.6
945.163,4407.2
946.242,4395.6
947.321,4373.15
948.399,4351.15
949.477,4322.1
950.556,4306.8
951.634,4266.75
952.711,4284.1
953.789,4258.85
954.867,4227.1
955.944,4209.15
957.021,4196.8
958.098,4185.9
959.175,4168.9
960.252,4148.55
961.328,4147.55
962.405,4131.15
963.481,4111.4
964.557,4107.0
965.633,4102.25
966.709,4077.25
967.785,4062.2
968.86,4054.25
969.936,4056.4
971.011,4033.0
972.086,4008.5
973.161,4015.85
974.235,3996.65
975.31,3983.55
976.384,3981.95
977.459,3985.2
978.533,3956.05
979.607,3956.25
980.68,3939.6
981.754,3938.25
982.827,3942.05
983.901,3924.9
984.974,3922.7
986.047,3913.15
987.119,3905.75
988.192,3891.1
989.264,3895.4
990.337,3883.45
991.409,3869.7
992.481,3870.25
993.553,3859.4
994.624,3855.2
995.696,3857.4
996.767,3846.5
997.838,3837.05
998.909,3836.45
999.98,3825.7
1001.05,3822.9
1002.12,3826.6
1003.19,3822.35
1004.26,3811.65
1005.33,3806.75
1006.4,3804.2
1007.47,3798.15
1008.54,3792.25
1009.61,3786.9
1010.68,3787.05
1011.75,3783.6
1012.82,3779.45
1013.88,3779.4
1014.95,3780.05
1016.02,3776.85
1017.09,3772.85
1018.16,3767.8
1019.22,3769.4
1020.29,3767.1
1021.36,3774.45
1022.43,3773.2
1023.49,3769.2
1024.56,3763.05
1025.63,3757.55
1026.69,3749.25
1027.76,3748.95
1028.83,3742.1
1029.89,3741.25
1030.96,3739.05
1032.02,3738.05
1033.09,3740.0
1034.15,3741.8
1035.22,3746.2
1036.28,3739.45
1037.35,3732.65
1038.41,3728.4
1039.48,3723.15
1040.54,3723.0
1041.6,3722.4
1042.67,3720.35
1043.73,3721.0
1044.79,3718.6
1045.86,3716.8
1046.92,3717.95
1047.98,3716.25
1049.05,3715.9
1050.11,3715.6
1051.17,3715.05
1052.23,3714.2
1053.29,3715.2
1054.36,3712.25
1055.42,3713.3
1056.48,3712.65
1057.54,3712.45
1058.6,3711.35
1059.66,3712.7
1060.72,3711.9
1061.78,3711.2
1062.84,3710.4
1063.9,3711.4
1064.96,3710.45
1066.02,3710.75
1067.08,3709.9
1067.88,3708.2