File: spectra/VLFR_06-PET_bio_Raman_362aa3ba.csv
nm,Intensity
526.508,829.5
527.055,829.7
527.602,830.3
528.149,830.8
528.695,830.5
529.241,832.6
529.787,831.2
530.334,830.5
530.879,830.4
531.425,830.9
531.971,836.1
532.516,832.2
533.062,830.2
533.607,832.9
534.152,984.1
534.697,950.8
535.242,923.0
535.786,899.8
536.331,890.6
536.876,882.0
537.42,878.9
537.964,881.8
538.508,880.8
539.052,881.9
539.596,882.1
540.14,883.9
540.683,878.5
541.227,879.0
541.77,881.2
542.313,879.0
542.856,880.1
543.399,883.2
543.942,883.3
544.485,886.6
545.027,886.2
545.57,883.2
546.112,886.9
546.654,888.7
547.196,886.4
547.738,887.3
548.28,888.4
548.822,888.7
549.363,894.0
549.905,888.6
550.446,895.1
550.988,894.3
551.529,891.8
552.07,896.4
552.611,901.7
553.152,896.1
553.692,894.9
554.233,899.3
554.773,898.8
555.314,900.3
555.854,906.6
556.394,904.4
556.934,909.2
557.474,927.1
558.014,917.7
558.553,914.0
559.093,909.5
559.632,907.4
560.172,908.6
560.711,912.1
561.25,910.4
561.789,912.5
562.328,917.3
562.867,914.1
563.406,919.4
563.944,920.7
564.483,924.1
565.021,931.2
565.559,936.9
566.098,934.2
566.636,928.8
567.174,924.3
567.711,931.5
568.249,931.5
568.787,927.3
569.324,935.3
569.862,935.0
570.399,934.0
570.936,958.2
571.474,969.0
572.011,951.0
572.548,943.4
573.084,943.2
573.621,949.1
574.158,949.2
574.694,943.2
575.231,951.2
575.767,948.5
576.303,946.7
576.84,957.5
577.376,951.3
577.912,952.2
578.447,955.0
578.983,959.9
579.519,959.1
580.054,956.7
580.59,960.1
581.125,963.8
581.661,969.7
582.196,1099.8
582.731,973.2
583.266,966.3
583.801,965.6
584.336,969.3
584.87,976.2
585.405,983.1
585.94,1042.2
586.474,1014.4
587.008,982.6
587.543,975.8
588.077,974.3
588.611,978.8
589.145,973.3
589.679,970.6
590.213,975.1
590.747,977.6
591.28,979.6
591.814,980.2
592.347,980.2
592.881,977.6
593.414,980.9
593.947,978.0
594.48,981.6
595.014,987.6
595.547,986.1
596.079,988.6
596.612,988.0
597.145,990.0
597.678,985.3
598.21,992.6
598.743,986.4
599.275,989.7
599.807,993.3
600.34,989.2
600.872,986.6
601.404,987.1
601.936,993.3
602.468,990.2
603.0,994.5
603.532,997.4
604.063,991.8
604.595,989.7
605.126,990.0
605.658,988.7
606.189,992.5
606.721,985.3
607.252,991.2
607.783,990.4
608.314,998.7
608.845,996.5
609.376,994.9
609.907,992.6
610.438,991.9
610.968,992.2
611.499,992.7
612.03,995.0
612.56,998.8
613.091,998.6
613.621,999.6
614.151,1006.5
614.681,1000.8
615.212,999.9
615.742,1006.9
616.272,999.2
616.802,1000.7
617.332,1010.1
617.861,1008.9
618.391,1006.4
618.921,1015.1
619.45,1009.3
619.98,1005.0
620.509,1003.6
621.039,1008.5
621.568,1006.7
622.097,1007.4
622.627,1009.7
623.156,1010.9
623.685,1015.0
624.214,1013.7
624.743,1018.2
625.272,1013.2
625.801,1015.9
626.33,1021.6
626.858,1023.1
627.387,1018.5
627.916,1021.5
628.444,1020.3
628.973,1020.6
629.501,1033.7
630.029,1026.3
630.558,1033.8
631.086,1037.8
631.614,1055.0
632.142,1054.6
632.67,1040.1
633.198,1041.9
633.726,1038.9
634.254,1032.1
634.782,1041.0
635.31,1043.6
635.838,1043.9
636.365,1061.7
636.893,1062.1
637.421,1046.6
637.948,1045.4
638.476,1048.3
639.003,1050.3
639.531,1048.2
640.058,1047.7
640.585,1055.7
641.113,1051.3
641.64,1054.3
642.167,1060.9
642.694,1059.1
643.221,1058.4
643.748,1051.9
644.275,1054.7
644.802,1047.0
645.329,1056.4
645.856,1053.1
646.382,1056.0
646.909,1062.4
647.436,1063.4
647.962,1062.7
648.489,1062.3
649.016,1058.1
649.542,1063.7
650.069,1059.8
650.595,1059.1
651.121,1059.1
651.648,1057.2
652.174,1058.8
652.7,1058.9
653.227,1058.7
653.753,1062.0
654.279,1055.0
654.805,1054.4
655.331,1055.3
655.857,1059.9
656.383,1056.6
656.909,1052.2
657.435,1053.9
657.961,1047.1
658.487,1053.0
659.013,1050.6
659.538,1049.0
660.064,1052.1
660.59,1048.0
661.116,1045.5
661.641,1044.8
662.167,1044.5
662.692,1044.2
663.087,1040.0