File: spectra/VLFR_07-PET_bio_Raman_cba08596.csv
nm,Intensity
791.377,15085.2
792.477,13640.9
793.576,12537.3
794.676,12440.8
795.775,11769.9
796.874,11798.1
797.973,11674.2
799.072,11710.1
800.171,11700.5
801.27,11525.0
802.368,11709.3
803.467,11404.6
804.565,11170.9
805.664,11112.4
806.762,10985.3
807.86,10810.9
808.958,10840.0
810.056,10610.7
811.153,10556.8
812.251,10572.8
813.349,10326.3
814.446,10297.9
815.543,10341.1
816.64,10176.3
817.737,9964.22
818.834,9840.68
819.931,9828.66
821.028,9611.64
822.125,9663.3
823.221,9406.14
824.317,9410.48
825.414,9487.28
826.51,9406.92
827.606,9133.4
828.702,9051.88
829.797,8863.24
830.893,9238.02
831.988,8711.04
833.084,8763.2
834.179,8639.82
835.274,8631.86
836.369,8563.28
837.464,8730.26
838.559,8535.08
839.654,8606.16
840.748,8717.14
841.843,8902.04
842.937,8505.38
844.031,8371.14
845.125,8177.62
846.219,7975.92
847.313,7886.38
848.407,7770.1
849.5,7729.78
850.593,7712.82
851.687,7730.24
852.78,7787.72
853.873,7719.66
854.966,7608.2
856.059,7496.58
857.151,7443.16
858.244,7498.48
859.336,7648.5
860.428,7584.72
861.52,7561.78
862.612,7276.24
863.704,7192.3
864.796,7305.88
865.888,7152.66
866.979,7022.8
868.07,7022.72
869.162,7050.28
870.253,7008.4
871.344,7200.52
872.434,7460.82
873.525,7530.2
874.615,7255.08
875.706,6942.72
876.796,6853.8
877.886,6745.18
878.976,6626.58
880.066,6644.78
881.156,6668.1
882.245,6612.5
883.335,6638.04
884.424,6565.7
885.513,6561.0
886.602,6473.78
887.691,6433.42
888.78,6322.56
889.868,6291.72
890.957,6295.2
892.045,6329.84
893.133,6220.88
894.221,6188.08
895.309,6125.94
896.397,6081.34
897.484,6418.22
898.571,7166.74
899.659,6692.28
900.746,5968.26
901.833,5850.44
902.92,5865.9
904.006,5803.6
905.093,5814.62
906.179,5867.34
907.266,6382.56
908.352,6420.9
909.438,6079.64
910.523,5671.94
911.609,5497.4
912.695,5441.68
913.78,5430.68
914.865,5389.56
915.95,5337.58
917.035,5302.12
918.12,5240.76
919.204,5227.84
920.289,5168.82
921.373,5128.72
922.457,5087.36
923.541,5049.18
924.625,5070.5
925.709,4999.08
926.792,4954.32
927.876,4923.44
928.959,4881.26
930.042,4857.68
931.125,4807.82
932.208,4833.18
933.29,4755.8
934.373,4734.94
935.455,4705.12
936.537,4664.02
937.619,4631.84
938.701,4634.38
939.782,4594.58
940.864,4601.94
941.945,4553.14
943.026,4519.56
944.107,4490.1
945.188,4475.38
946.269,4446.36
947.349,4424.78
948.43,4414.42
949.51,4382.76
950.59,4373.94
951.67,4348.42
952.75,4351.16
953.829,4321.72
954.909,4299.9
955.988,4300.6
957.067,4255.08
958.146,4244.4
959.224,4238.98
960.303,4217.28
961.381,4210.68
962.459,4190.52
963.537,4174.98
964.615,4161.08
965.693,4166.26
966.771,4149.86
967.848,4130.98
968.925,4132.86
970.002,4103.38
971.079,4103.08
972.156,4083.44
973.232,4079.7
974.309,4068.7
975.385,4074.62
976.461,4051.86
977.537,4041.06
978.612,4027.78
979.688,4018.2
980.763,4024.46
981.838,4006.92
982.913,4002.52
983.988,3991.7
985.063,3987.0
986.137,3984.38
987.211,3971.94
988.285,3964.22
989.359,3958.3
990.433,3955.64
991.506,3946.22
992.58,3932.66
993.653,3933.84
994.726,3930.42
995.799,3916.2
996.872,3916.22
997.944,3913.18
999.016,3903.56
1000.09,3902.24
1001.16,3894.38
1002.23,3896.82
1003.3,3888.72
1004.38,3887.46
1005.45,3877.82
1006.52,3877.2
1007.59,3875.2
1008.66,3868.3
1009.73,3865.7
1010.8,3859.6
1011.87,3860.36
1012.94,3855.24
1014.01,3853.72
1015.08,3851.8
1016.15,3849.84
1017.22,3846.56
1018.29,3840.98
1019.36,3842.58
1020.42,3846.56
1021.49,3846.5
1022.56,3853.2
1023.63,3850.62
1024.7,3844.56
1025.76,3833.94
1026.83,3829.66
1027.9,3825.98
1028.97,3818.64
1030.03,3815.9
1031.1,3812.76
1032.17,3814.5
1033.23,3814.66
1034.3,3819.9
1035.36,3821.3
1036.43,3818.82
1037.5,3812.9
1038.56,3804.48
1039.63,3802.26
1040.69,3801.48
1041.76,3798.74
1042.82,3795.94
1043.89,3796.42
1044.95,3795.44
1046.01,3793.0
1047.08,3794.1
1048.14,3792.12
1049.2,3791.46
1050.27,3791.38
1051.33,3792.4
1052.39,3791.18
1053.46,3790.36
1054.52,3789.62
1055.58,3789.98
1056.64,3789.3
1057.7,3789.02
1058.77,3788.54
1059.83,3788.82
1060.89,3787.76
1061.95,3787.78
1063.01,3786.82
1064.07,3788.76
1065.13,3786.98
1066.19,3785.92
1067.25,3785.96
1068.05,3785.26