File: spectra/VLFR_07-PET_nobio_Raman_378a06b1.csv
nm,Intensity
791.377,11855.8
792.477,10755.2
793.576,10265.2
794.676,9862.5
795.775,9810.78
796.874,9763.84
797.973,9668.1
799.072,9711.78
800.171,9626.6
801.27,9581.34
802.368,9503.66
803.467,9389.28
804.565,9265.0
805.664,9071.36
806.762,9027.56
807.86,9062.84
808.958,9029.06
810.056,8799.98
811.153,8823.74
812.251,8809.36
813.349,8669.4
814.446,8549.14
815.543,8549.24
816.64,8359.82
817.737,8396.48
818.834,8255.76
819.931,8357.18
821.028,8112.64
822.125,8165.58
823.221,7973.04
824.317,7979.58
825.414,8128.68
826.51,7905.8
827.606,7839.5
828.702,7840.22
829.797,7738.8
830.893,7808.62
831.988,7646.66
833.084,7514.54
834.179,7448.56
835.274,7501.2
836.369,7397.38
837.464,7501.04
838.559,7418.94
839.654,7372.8
840.748,7574.12
841.843,7647.08
842.937,7323.22
844.031,7219.2
845.125,7040.0
846.219,6914.04
847.313,6905.04
848.407,6862.38
849.5,6786.62
850.593,6796.12
851.687,6786.1
852.78,6775.08
853.873,6711.62
854.966,6626.72
856.059,6522.04
857.151,6538.66
858.244,6621.28
859.336,6718.62
860.428,6746.88
861.52,6576.64
862.612,6402.22
863.704,6374.34
864.796,6531.98
865.888,6241.88
866.979,6231.98
868.07,6168.52
869.162,6230.64
870.253,6250.98
871.344,6342.54
872.434,6570.8
873.525,6563.7
874.615,6244.74
875.706,6062.76
876.796,6056.32
877.886,5952.1
878.976,5940.62
880.066,5930.6
881.156,5897.86
882.245,5881.94
883.335,5781.68
884.424,5843.82
885.513,5766.88
886.602,5736.92
887.691,5668.82
888.78,5563.0
889.868,5617.14
890.957,5519.98
892.045,5575.6
893.133,5493.46
894.221,5420.16
895.309,5406.16
896.397,5403.2
897.484,5692.38
898.571,6120.7
899.659,5720.38
900.746,5273.64
901.833,5239.36
902.92,5225.52
904.006,5145.14
905.093,5170.54
906.179,5264.88
907.266,5690.44
908.352,5515.76
909.438,5274.84
910.523,5091.86
911.609,4970.74
912.695,4892.26
913.78,4895.62
914.865,4848.06
915.95,4847.08
917.035,4811.18
918.12,4774.5
919.204,4768.34
920.289,4712.34
921.373,4686.56
922.457,4693.46
923.541,4658.54
924.625,4621.74
925.709,4596.14
926.792,4583.92
927.876,4537.16
928.959,4531.7
930.042,4506.54
931.125,4468.34
932.208,4442.64
933.29,4433.16
934.373,4408.92
935.455,4395.86
936.537,4344.56
937.619,4349.44
938.701,4323.88
939.782,4308.9
940.864,4302.38
941.945,4285.56
943.026,4267.7
944.107,4229.56
945.188,4236.3
946.269,4218.84
947.349,4191.32
948.43,4181.78
949.51,4195.48
950.59,4158.32
951.67,4147.2
952.75,4121.68
953.829,4123.0
954.909,4112.0
955.988,4098.06
957.067,4085.86
958.146,4067.12
959.224,4067.22
960.303,4055.22
961.381,4031.44
962.459,4031.02
963.537,4021.32
964.615,4011.88
965.693,4006.82
966.771,3995.18
967.848,3986.86
968.925,3989.04
970.002,3973.42
971.079,3960.7
972.156,3957.76
973.232,3951.94
974.309,3936.4
975.385,3934.96
976.461,3929.88
977.537,3923.26
978.612,3914.98
979.688,3905.06
980.763,3908.44
981.838,3895.56
982.913,3892.98
983.988,3891.44
985.063,3880.38
986.137,3877.56
987.211,3875.5
988.285,3871.48
989.359,3866.9
990.433,3856.38
991.506,3852.64
992.58,3849.14
993.653,3841.4
994.726,3836.16
995.799,3835.54
996.872,3832.3
997.944,3826.5
999.016,3823.52
1000.09,3818.9
1001.16,3817.26
1002.23,3815.2
1003.3,3808.34
1004.38,3805.28
1005.45,3804.86
1006.52,3801.1
1007.59,3799.22
1008.66,3793.32
1009.73,3791.48
1010.8,3791.18
1011.87,3787.44
1012.94,3783.08
1014.01,3787.0
1015.08,3783.78
1016.15,3782.2
1017.22,3778.66
1018.29,3775.72
1019.36,3776.78
1020.42,3774.8
1021.49,3777.58
1022.56,3783.76
1023.63,3782.26
1024.7,3776.38
1025.76,3769.74
1026.83,3764.42
1027.9,3762.14
1028.97,3759.3
1030.03,3755.66
1031.1,3754.08
1032.17,3754.94
1033.23,3756.06
1034.3,3759.0
1035.36,3760.1
1036.43,3757.68
1037.5,3751.64
1038.56,3747.5
1039.63,3747.32
1040.69,3745.36
1041.76,3744.24
1042.82,3743.86
1043.89,3742.08
1044.95,3741.42
1046.01,3740.3
1047.08,3740.38
1048.14,3738.3
1049.2,3739.1
1050.27,3739.86
1051.33,3737.74
1052.39,3738.54
1053.46,3737.22
1054.52,3737.66
1055.58,3737.88
1056.64,3736.76
1057.7,3736.1
1058.77,3736.8
1059.83,3736.02
1060.89,3735.74
1061.95,3736.6
1063.01,3736.04
1064.07,3735.88
1065.13,3735.06
1066.19,3735.58
1067.25,3734.02
1068.05,3733.54