File: spectra/VLFR_08-PLA_nobio_Raman_926513f5.csv
nm,Intensity
526.486,830.9
527.033,829.8
527.579,830.6
528.126,830.2
528.672,830.5
529.219,830.6
529.765,831.1
530.311,828.8
530.857,830.0
531.403,831.0
531.948,835.4
532.494,831.9
533.039,831.0
533.585,832.7
534.13,1066.5
534.675,1029.0
535.22,993.2
535.764,977.1
536.309,973.6
536.854,1008.2
537.398,968.5
537.942,964.7
538.486,959.9
539.03,955.9
539.574,952.4
540.118,953.7
540.662,967.8
541.205,970.6
541.749,961.0
542.292,959.2
542.835,961.5
543.378,982.5
543.921,987.3
544.464,976.6
545.006,964.3
545.549,961.3
546.091,961.0
546.634,959.4
547.176,966.6
547.718,969.5
548.26,971.7
548.802,972.0
549.343,972.2
549.885,972.1
550.426,975.4
550.968,979.9
551.509,987.1
552.05,983.5
552.591,987.6
553.132,987.4
553.673,985.4
554.214,993.2
554.754,990.5
555.295,982.9
555.835,987.7
556.375,985.3
556.915,982.7
557.455,1001.3
557.995,1105.7
558.535,1022.7
559.075,1004.0
559.614,998.6
560.154,995.5
560.693,998.2
561.232,992.0
561.772,994.8
562.311,991.8
562.85,1005.6
563.388,1033.8
563.927,1023.4
564.466,1009.4
565.004,1034.9
565.543,1031.0
566.081,1059.0
566.619,1030.1
567.157,1011.3
567.695,1014.5
568.233,1018.1
568.771,1015.3
569.309,1019.5
569.846,1018.5
570.384,1016.5
570.921,1018.6
571.458,1038.5
571.995,1038.3
572.532,1035.7
573.069,1035.2
573.606,1039.6
574.143,1040.5
574.68,1052.7
575.216,1033.2
575.753,1036.6
576.289,1044.3
576.825,1104.1
577.361,1057.8
577.897,1034.0
578.433,1032.6
578.969,1030.4
579.505,1036.3
580.041,1036.5
580.576,1035.4
581.112,1037.7
581.647,1037.0
582.183,1034.0
582.718,1033.1
583.253,1039.3
583.788,1035.6
584.323,1042.1
584.858,1040.2
585.392,1042.3
585.927,1041.6
586.462,1061.8
586.996,1092.6
587.53,1117.0
588.065,1077.5
588.599,1049.8
589.133,1046.4
589.667,1043.9
590.201,1040.0
590.735,1046.4
591.268,1043.2
591.802,1040.7
592.335,1041.6
592.869,1039.2
593.402,1044.3
593.936,1043.0
594.469,1042.2
595.002,1042.0
595.535,1045.1
596.068,1042.2
596.601,1037.2
597.133,1047.9
597.666,1051.3
598.199,1047.4
598.731,1042.9
599.264,1047.2
599.796,1047.7
600.328,1050.4
600.86,1046.7
601.393,1044.9
601.925,1042.8
602.457,1035.7
602.988,1044.6
603.52,1044.1
604.052,1043.4
604.583,1040.7
605.115,1035.2
605.646,1032.5
606.178,1035.2
606.709,1037.1
607.24,1037.7
607.771,1039.1
608.302,1041.6
608.833,1034.3
609.364,1035.6
609.895,1033.7
610.426,1030.0
610.957,1032.2
611.487,1032.2
612.018,1032.3
612.548,1038.4
613.078,1039.7
613.609,1043.2
614.139,1038.9
614.669,1042.4
615.199,1038.3
615.729,1039.3
616.259,1037.0
616.789,1041.0
617.319,1036.0
617.849,1042.3
618.378,1038.7
618.908,1034.1
619.437,1039.3
619.967,1033.1
620.496,1038.7
621.025,1037.4
621.555,1031.8
622.084,1033.6
622.613,1043.7
623.142,1044.6
623.671,1048.0
624.2,1036.2
624.729,1039.9
625.258,1028.7
625.786,1028.2
626.315,1030.2
626.844,1028.5
627.372,1035.1
627.901,1043.4
628.429,1101.2
628.957,1094.6
629.486,1092.0
630.014,1093.6
630.542,1145.0
631.07,1527.1
631.598,1293.0
632.126,1162.7
632.654,1131.2
633.182,1222.0
633.71,1189.4
634.237,1102.2
634.765,1048.3
635.293,1026.5
635.82,1029.4
636.348,1023.3
636.875,1016.3
637.403,1017.2
637.93,1019.8
638.458,1012.6
638.985,1013.7
639.512,1013.7
640.039,1013.7
640.566,1011.3
641.093,1018.2
641.62,1014.7
642.147,1015.2
642.674,1012.0
643.201,1009.0
643.728,1004.3
644.255,1000.7
644.781,1003.0
645.308,998.9
645.835,997.1
646.361,998.9
646.888,997.7
647.414,1001.3
647.941,995.2
648.467,998.2
648.993,991.5
649.52,994.8
650.046,994.4
650.572,991.0
651.098,988.4
651.625,987.7
652.151,991.2
652.677,987.9
653.203,987.9
653.729,984.7
654.255,989.7
654.78,984.5
655.306,980.0
655.832,982.5
656.358,986.1
656.884,986.6
657.409,986.5
657.935,984.2
658.461,982.3
658.986,974.5
659.512,980.4
660.037,981.9
660.563,981.7
661.088,970.8
661.614,977.4
662.139,965.7
662.664,973.9
663.058,969.6