File: spectra/VLFR_06-PET_bio_Raman_bbaedad5.csv
nm,Intensity
526.508,830.4
527.055,830.3
527.602,831.0
528.149,830.2
528.695,829.3
529.241,828.1
529.787,830.3
530.334,830.2
530.879,829.4
531.425,829.0
531.971,834.2
532.516,831.5
533.062,830.1
533.607,841.7
534.152,2354.5
534.697,1915.5
535.242,1483.0
535.786,1223.8
536.331,1066.7
536.876,1000.7
537.42,975.3
537.964,960.8
538.508,968.8
539.052,960.5
539.596,977.5
540.14,993.0
540.683,940.5
541.227,922.0
541.77,918.9
542.313,915.0
542.856,915.2
543.399,912.7
543.942,922.4
544.485,919.4
545.027,918.6
545.57,921.7
546.112,914.8
546.654,920.8
547.196,923.6
547.738,923.8
548.28,927.8
548.822,931.1
549.363,930.2
549.905,933.1
550.446,951.9
550.988,962.5
551.529,941.1
552.07,947.9
552.611,953.2
553.152,964.5
553.692,951.0
554.233,947.5
554.773,956.7
555.314,967.7
555.854,1023.4
556.394,1031.4
556.934,1046.4
557.474,1221.9
558.014,1080.6
558.553,1067.1
559.093,1014.6
559.632,979.8
560.172,977.9
560.711,977.3
561.25,986.6
561.789,995.3
562.328,1012.0
562.867,1023.7
563.406,1028.2
563.944,1013.5
564.483,1021.7
565.021,1082.3
565.559,1151.5
566.098,1160.5
566.636,1041.0
567.174,1016.2
567.711,1122.8
568.249,1036.1
568.787,1025.9
569.324,1034.8
569.862,1063.5
570.399,1122.9
570.936,1281.2
571.474,1423.1
572.011,1226.7
572.548,1086.0
573.084,1061.1
573.621,1056.9
574.158,1093.9
574.694,1073.2
575.231,1105.7
575.767,1075.9
576.303,1112.2
576.84,1128.3
577.376,1087.8
577.912,1067.9
578.447,1075.1
578.983,1082.8
579.519,1082.7
580.054,1087.8
580.59,1098.8
581.125,1117.0
581.661,1218.8
582.196,2663.1
582.731,1180.1
583.266,1118.1
583.801,1112.2
584.336,1122.2
584.87,1142.3
585.405,1267.0
585.94,1901.2
586.474,1597.0
587.008,1196.4
587.543,1143.1
588.077,1128.5
588.611,1125.1
589.145,1129.1
589.679,1123.4
590.213,1128.9
590.747,1128.3
591.28,1121.5
591.814,1131.6
592.347,1130.0
592.881,1127.0
593.414,1130.2
593.947,1130.2
594.48,1132.8
595.014,1146.0
595.547,1143.0
596.079,1143.4
596.612,1153.7
597.145,1142.4
597.678,1150.9
598.21,1150.0
598.743,1152.4
599.275,1148.1
599.807,1156.0
600.34,1151.4
600.872,1144.9
601.404,1152.7
601.936,1157.2
602.468,1152.9
603.0,1162.4
603.532,1151.7
604.063,1161.6
604.595,1157.0
605.126,1150.8
605.658,1150.4
606.189,1153.3
606.721,1143.9
607.252,1143.7
607.783,1155.4
608.314,1157.7
608.845,1159.3
609.376,1161.9
609.907,1163.7
610.438,1159.9
610.968,1160.1
611.499,1165.5
612.03,1163.4
612.56,1172.0
613.091,1178.2
613.621,1184.0
614.151,1183.0
614.681,1180.6
615.212,1181.1
615.742,1185.9
616.272,1181.7
616.802,1189.5
617.332,1191.0
617.861,1200.8
618.391,1202.1
618.921,1202.0
619.45,1191.0
619.98,1196.6
620.509,1199.1
621.039,1196.7
621.568,1197.3
622.097,1197.5
622.627,1205.6
623.156,1216.6
623.685,1209.5
624.214,1225.9
624.743,1222.1
625.272,1231.5
625.801,1229.0
626.33,1226.6
626.858,1231.0
627.387,1233.3
627.916,1247.0
628.444,1264.7
628.973,1291.1
629.501,1291.8
630.029,1292.1
630.558,1287.1
631.086,1361.1
631.614,1522.7
632.142,1500.2
632.67,1410.1
633.198,1391.7
633.726,1364.6
634.254,1341.0
634.782,1316.4
635.31,1327.7
635.838,1403.4
636.365,1553.5
636.893,1549.7
637.421,1388.7
637.948,1343.9
638.476,1333.2
639.003,1334.2
639.531,1336.0
640.058,1344.9
640.585,1346.6
641.113,1352.2
641.64,1357.5
642.167,1371.0
642.694,1367.8
643.221,1359.5
643.748,1352.5
644.275,1363.9
644.802,1359.5
645.329,1365.7
645.856,1368.4
646.382,1361.8
646.909,1373.4
647.436,1380.2
647.962,1386.9
648.489,1374.6
649.016,1382.0
649.542,1382.2
650.069,1384.5
650.595,1383.7
651.121,1384.1
651.648,1391.3
652.174,1394.2
652.7,1388.3
653.227,1392.4
653.753,1403.8
654.279,1391.3
654.805,1403.5
655.331,1411.5
655.857,1399.7
656.383,1399.0
656.909,1401.7
657.435,1405.6
657.961,1401.7
658.487,1408.1
659.013,1405.5
659.538,1416.5
660.064,1413.7
660.59,1404.5
661.116,1420.3
661.641,1395.2
662.167,1406.6
662.692,1405.9
663.087,1397.7