File: spectra/VLFR_08-PLA_bio_Raman_5f60d207.csv
nm,Intensity
526.495,829.16
527.042,829.09
527.589,829.33
528.136,828.93
528.682,828.7
529.229,829.51
529.775,829.8
530.321,829.25
530.867,829.46
531.413,829.31
531.959,836.66
532.505,830.45
533.051,829.18
533.596,832.67
534.141,1175.65
534.687,1092.4
535.232,1024.15
535.777,986.83
536.321,972.31
536.866,974.78
537.41,957.97
537.955,954.96
538.499,933.92
539.043,926.92
539.587,920.14
540.131,910.69
540.675,940.88
541.219,942.47
541.762,926.17
542.305,916.58
542.849,920.21
543.392,957.62
543.935,974.52
544.478,933.72
545.02,913.58
545.563,905.39
546.106,903.86
546.648,905.06
547.19,908.88
547.732,907.99
548.274,907.71
548.816,909.63
549.358,911.5
549.9,911.96
550.441,913.19
550.983,917.82
551.524,920.79
552.065,923.43
552.606,928.73
553.147,926.59
553.688,920.79
554.229,935.44
554.769,922.03
555.31,912.62
555.85,907.2
556.391,909.08
556.931,914.49
557.471,942.09
558.011,1158.42
558.551,978.13
559.09,938.3
559.63,931.33
560.169,921.78
560.709,919.46
561.248,913.76
561.787,912.96
562.326,915.28
562.865,933.47
563.404,993.75
563.943,954.27
564.481,935.27
565.02,972.14
565.558,964.37
566.096,1019.38
566.634,960.29
567.172,924.97
567.71,932.74
568.248,937.92
568.786,935.98
569.324,936.63
569.861,928.81
570.399,928.93
570.936,934.58
571.473,965.09
572.01,969.96
572.547,954.5
573.084,958.71
573.621,962.46
574.158,953.09
574.694,977.06
575.231,935.52
575.767,937.18
576.303,968.02
576.84,1080.83
577.376,977.09
577.912,940.84
578.448,935.7
578.984,934.4
579.519,934.13
580.055,934.47
580.59,933.13
581.126,933.89
581.661,933.86
582.196,935.95
582.731,935.95
583.267,936.83
583.801,938.02
584.336,939.08
584.871,937.35
585.406,937.95
585.94,943.22
586.475,962.57
587.009,1028.67
587.543,1073.06
588.078,985.73
588.612,945.05
589.146,938.74
589.68,938.71
590.214,937.93
590.747,937.46
591.281,937.33
591.815,937.3
592.348,937.6
592.881,937.81
593.415,935.08
593.948,935.99
594.481,936.66
595.014,937.05
595.547,937.84
596.08,937.07
596.613,937.61
597.146,937.73
597.678,938.03
598.211,940.34
598.743,939.58
599.276,939.9
599.808,939.55
600.34,939.42
600.872,939.7
601.404,938.37
601.936,939.8
602.468,939.06
603.0,939.63
603.532,940.3
604.064,938.81
604.595,937.93
605.127,937.66
605.658,936.38
606.189,935.39
606.721,937.48
607.252,936.95
607.783,937.79
608.314,938.73
608.845,939.03
609.376,939.05
609.907,940.01
610.438,939.32
610.968,939.9
611.499,937.71
612.029,938.77
612.56,941.51
613.09,942.14
613.621,944.09
614.151,943.89
614.681,943.57
615.211,945.39
615.741,945.1
616.271,945.49
616.801,946.66
617.331,947.62
617.861,946.41
618.39,945.59
618.92,944.98
619.45,944.5
619.979,943.95
620.509,944.33
621.038,943.5
621.567,945.47
622.096,948.66
622.626,965.06
623.155,974.7
623.684,964.88
624.213,956.32
624.742,950.08
625.271,948.52
625.799,949.15
626.328,949.33
626.857,950.26
627.386,951.94
627.914,974.09
628.443,1101.91
628.971,1074.77
629.5,1073.41
630.028,1084.83
630.556,1196.77
631.084,1927.67
631.613,1451.84
632.141,1203.97
632.669,1162.47
633.197,1345.08
633.725,1272.76
634.253,1085.46
634.781,990.5
635.308,960.48
635.836,949.57
636.364,945.62
636.891,942.53
637.419,938.1
637.947,937.83
638.474,935.61
639.002,935.46
639.529,935.29
640.056,934.61
640.584,934.05
641.111,935.26
641.638,936.4
642.165,936.32
642.692,933.76
643.219,931.44
643.746,930.35
644.273,926.08
644.8,925.24
645.327,922.94
645.854,923.1
646.381,924.01
646.908,922.26
647.434,920.25
647.961,920.59
648.488,919.7
649.014,918.85
649.541,920.23
650.067,917.72
650.594,916.96
651.12,917.08
651.646,916.0
652.173,915.5
652.699,915.36
653.225,915.27
653.752,915.96
654.278,915.4
654.804,913.84
655.33,914.43
655.856,914.25
656.382,914.67
656.908,914.64
657.434,914.38
657.96,913.2
658.486,912.99
659.012,912.49
659.538,911.2
660.064,911.54
660.589,910.87
661.115,908.78
661.641,909.3
662.166,907.81
662.692,908.17
663.086,906.21