File: spectra/VLFR_06-PET_nobio_Raman_feb2fdcc.csv
nm,Intensity
526.532,834.35
527.079,834.25
527.625,832.5
528.172,832.9
528.718,833.65
529.265,833.45
529.811,834.0
530.357,832.45
530.903,832.95
531.449,834.15
531.994,840.45
532.54,834.55
533.085,833.7
533.63,858.15
534.176,2302.1
534.721,1862.4
535.266,1463.7
535.81,1232.9
536.355,1090.2
536.9,1035.5
537.444,1014.55
537.988,1004.6
538.533,1016.5
539.077,1005.95
539.621,1028.15
540.165,1032.25
540.708,987.8
541.252,972.4
541.795,968.45
542.339,969.85
542.882,972.5
543.425,969.4
543.968,983.0
544.511,975.25
545.054,978.85
545.597,979.75
546.139,981.85
546.682,985.6
547.224,986.5
547.766,992.4
548.308,992.95
548.85,993.45
549.392,997.25
549.934,999.0
550.475,1033.85
551.017,1016.75
551.558,1010.9
552.1,1018.3
552.641,1033.4
553.182,1038.65
553.723,1029.85
554.264,1027.8
554.804,1030.75
555.345,1047.8
555.885,1102.3
556.426,1120.05
556.966,1131.05
557.506,1315.6
558.046,1152.4
558.586,1147.7
559.126,1095.75
559.665,1071.5
560.205,1073.4
560.745,1075.25
561.284,1087.25
561.823,1088.4
562.362,1106.15
562.901,1124.95
563.44,1126.4
563.979,1115.65
564.518,1131.15
565.056,1190.05
565.595,1273.25
566.133,1257.2
566.671,1152.05
567.21,1138.9
567.748,1237.75
568.285,1155.55
568.823,1146.3
569.361,1161.1
569.899,1199.85
570.436,1264.9
570.974,1415.2
571.511,1523.4
572.048,1346.55
572.585,1222.65
573.122,1198.6
573.659,1207.2
574.196,1236.9
574.733,1220.85
575.269,1266.85
575.806,1228.0
576.342,1269.95
576.878,1282.4
577.414,1247.75
577.951,1240.45
578.486,1249.75
579.022,1246.3
579.558,1250.0
580.094,1259.05
580.629,1265.2
581.165,1292.95
581.7,1419.1
582.236,2782.1
582.771,1344.75
583.306,1300.85
583.841,1299.95
584.376,1310.05
584.911,1334.0
585.445,1479.65
585.98,2066.1
586.514,1711.35
587.049,1384.3
587.583,1340.8
588.117,1327.85
588.651,1329.35
589.186,1327.9
589.72,1330.5
590.253,1330.0
590.787,1333.7
591.321,1336.8
591.854,1343.25
592.388,1338.35
592.921,1335.8
593.455,1340.75
593.988,1352.2
594.521,1354.35
595.054,1353.1
595.587,1360.0
596.12,1361.5
596.653,1362.9
597.186,1369.6
597.718,1372.15
598.251,1376.05
598.783,1384.5
599.316,1375.45
599.848,1380.85
600.38,1374.9
600.912,1379.15
601.444,1379.4
601.976,1378.4
602.508,1380.0
603.04,1391.15
603.572,1383.5
604.103,1382.5
604.635,1385.3
605.167,1379.7
605.698,1381.05
606.229,1375.0
606.761,1373.7
607.292,1383.0
607.823,1388.25
608.354,1392.25
608.885,1398.95
609.416,1394.3
609.947,1390.65
610.477,1399.4
611.008,1397.45
611.539,1400.1
612.069,1406.3
612.6,1415.15
613.13,1420.45
613.66,1429.65
614.19,1430.1
614.721,1434.35
615.251,1441.2
615.781,1434.55
616.311,1439.8
616.841,1444.75
617.37,1453.35
617.9,1465.65
618.43,1464.9
618.96,1462.65
619.489,1464.0
620.019,1457.05
620.548,1461.95
621.077,1464.4
621.607,1461.3
622.136,1478.15
622.665,1475.8
623.194,1488.3
623.723,1495.45
624.252,1510.0
624.781,1524.0
625.31,1520.4
625.839,1515.7
626.368,1516.65
626.896,1522.7
627.425,1527.05
627.953,1536.25
628.482,1553.45
629.01,1583.85
629.539,1588.8
630.067,1578.45
630.596,1585.4
631.124,1662.75
631.652,1809.15
632.18,1773.35
632.708,1696.45
633.236,1688.65
633.764,1664.2
634.292,1642.5
634.82,1632.75
635.348,1644.8
635.876,1718.85
636.403,1853.5
636.931,1820.0
637.459,1697.35
637.986,1665.45
638.514,1667.35
639.041,1663.95
639.568,1673.6
640.096,1674.8
640.623,1684.7
641.15,1674.65
641.678,1692.35
642.205,1694.95
642.732,1703.05
643.259,1690.35
643.786,1688.05
644.313,1692.65
644.84,1688.05
645.367,1676.7
645.894,1702.35
646.421,1699.7
646.948,1709.3
647.474,1712.15
648.001,1709.35
648.528,1713.6
649.054,1703.5
649.581,1707.15
650.108,1705.05
650.634,1704.35
651.161,1707.5
651.687,1708.95
652.214,1716.9
652.74,1715.9
653.266,1717.85
653.793,1721.85
654.319,1719.6
654.845,1708.05
655.371,1717.5
655.897,1716.25
656.424,1720.25
656.95,1724.8
657.476,1716.75
658.002,1712.85
658.528,1724.0
659.054,1715.6
659.58,1715.8
660.106,1713.15
660.631,1711.0
661.157,1698.2
661.683,1702.25
662.209,1688.1
662.735,1696.45
663.129,1686.45