File: spectra/VLFR_07-PET_nobio_Raman_93447a4d.csv
nm,Intensity
791.75,15047.9
792.846,13781.5
793.942,13253.6
795.037,13147.5
796.133,13049.7
797.228,12859.7
798.324,12924.2
799.419,13042.2
800.514,13033.3
801.61,13035.9
802.705,12615.9
803.8,12649.0
804.894,12445.6
805.989,12485.5
807.084,12268.5
808.178,12217.8
809.273,12214.2
810.367,12054.4
811.461,11900.4
812.556,11739.3
813.65,11546.2
814.744,11346.4
815.837,11349.9
816.931,11345.9
818.025,11171.0
819.118,11014.5
820.212,10835.6
821.305,10792.4
822.398,10602.9
823.491,10549.5
824.585,10421.5
825.677,10552.7
826.77,10119.2
827.863,10062.5
828.956,9939.2
830.048,9863.5
831.14,9937.3
832.233,9570.8
833.325,9588.5
834.417,9408.4
835.509,9423.2
836.601,9540.6
837.692,9390.9
838.784,9374.8
839.876,9418.9
840.967,9682.4
842.058,9282.0
843.149,9150.4
844.24,8853.9
845.331,8672.4
846.422,8563.8
847.513,8536.8
848.604,8549.8
849.694,8374.1
850.784,8431.5
851.875,8317.3
852.965,8473.5
854.055,8211.7
855.145,8101.2
856.235,7987.4
857.324,8134.3
858.414,8177.4
859.503,8290.5
860.593,8012.6
861.682,7761.8
862.771,7752.6
863.86,7800.8
864.949,7744.4
866.038,7585.7
867.126,7535.0
868.215,7481.6
869.303,7514.5
870.391,7566.5
871.479,7705.4
872.567,7843.0
873.655,7827.9
874.743,7470.9
875.831,7275.1
876.918,7133.5
878.006,7118.1
879.093,7047.5
880.18,7010.8
881.267,7173.0
882.354,7011.5
883.441,6922.4
884.527,6988.3
885.614,6922.7
886.7,6780.2
887.786,6732.4
888.872,6591.0
889.958,6628.4
891.044,6643.2
892.13,6565.8
893.216,6418.8
894.301,6451.5
895.386,6422.4
896.472,6463.6
897.557,7058.8
898.642,7086.6
899.726,6385.4
900.811,6155.7
901.896,6047.8
902.98,6017.3
904.064,5982.3
905.148,6038.3
906.232,6369.5
907.316,6656.5
908.4,6297.6
909.484,5898.0
910.567,5733.1
911.65,5685.4
912.734,5607.5
913.817,5559.5
914.9,5470.6
915.982,5530.8
917.065,5379.5
918.147,5383.5
919.23,5342.6
920.312,5260.8
921.394,5213.4
922.476,5205.2
923.558,5184.4
924.639,5119.2
925.721,5052.4
926.802,5030.7
927.884,4997.8
928.965,4950.5
930.046,4894.2
931.126,4862.5
932.207,4834.0
933.288,4804.2
934.368,4790.7
935.448,4738.6
936.528,4687.7
937.608,4650.2
938.688,4644.7
939.767,4623.6
940.847,4588.1
941.926,4532.0
943.005,4506.0
944.084,4512.0
945.163,4460.2
946.242,4468.1
947.321,4447.9
948.399,4400.5
949.477,4376.6
950.556,4362.2
951.634,4343.3
952.711,4309.6
953.789,4308.9
954.867,4268.5
955.944,4265.3
957.021,4248.1
958.098,4221.9
959.175,4208.8
960.252,4181.1
961.328,4181.8
962.405,4178.0
963.481,4130.5
964.557,4129.9
965.633,4128.2
966.709,4107.9
967.785,4096.5
968.86,4073.9
969.936,4081.1
971.011,4046.0
972.086,4035.3
973.161,4048.7
974.235,4026.3
975.31,4005.4
976.384,4003.4
977.459,3986.6
978.533,3982.4
979.607,3973.2
980.68,3970.9
981.754,3963.6
982.827,3948.5
983.901,3938.9
984.974,3930.7
986.047,3933.2
987.119,3918.1
988.192,3908.7
989.264,3906.8
990.337,3890.3
991.409,3891.0
992.481,3880.3
993.553,3876.0
994.624,3868.1
995.696,3863.3
996.767,3857.7
997.838,3852.0
998.909,3846.4
999.98,3838.3
1001.05,3832.1
1002.12,3829.0
1003.19,3828.2
1004.26,3823.8
1005.33,3820.2
1006.4,3814.2
1007.47,3806.9
1008.54,3798.2
1009.61,3797.5
1010.68,3793.0
1011.75,3796.0
1012.82,3788.4
1013.88,3788.5
1014.95,3781.9
1016.02,3776.6
1017.09,3781.1
1018.16,3771.7
1019.22,3771.2
1020.29,3773.0
1021.36,3780.8
1022.43,3781.1
1023.49,3774.1
1024.56,3763.1
1025.63,3758.1
1026.69,3758.9
1027.76,3753.9
1028.83,3749.1
1029.89,3745.0
1030.96,3746.1
1032.02,3740.6
1033.09,3745.1
1034.15,3745.7
1035.22,3748.1
1036.28,3743.1
1037.35,3736.1
1038.41,3732.5
1039.48,3730.9
1040.54,3728.6
1041.6,3727.2
1042.67,3723.6
1043.73,3724.0
1044.79,3724.1
1045.86,3721.6
1046.92,3723.4
1047.98,3720.2
1049.05,3718.8
1050.11,3719.3
1051.17,3720.3
1052.23,3720.4
1053.29,3720.8
1054.36,3716.8
1055.42,3718.8
1056.48,3716.2
1057.54,3718.6
1058.6,3713.9
1059.66,3717.0
1060.72,3714.9
1061.78,3716.1
1062.84,3715.3
1063.9,3715.4
1064.96,3715.2
1066.02,3714.6
1067.08,3712.5
1067.88,3713.2