File: spectra/VLFR_01-LDPE_bio_Raman_0773a4ce.csv
nm,Intensity
526.508,829.6
527.055,830.2
527.602,829.5
528.149,830.8
528.695,830.8
529.241,828.7
529.787,829.1
530.334,829.4
530.879,828.2
531.425,829.3
531.971,834.9
532.516,831.5
533.062,829.5
533.607,829.6
534.152,891.0
534.697,885.9
535.242,872.0
535.786,861.9
536.331,856.5
536.876,854.4
537.42,855.9
537.964,852.8
538.508,849.7
539.052,851.0
539.596,846.6
540.14,848.8
540.683,844.6
541.227,846.0
541.77,845.3
542.313,842.5
542.856,841.5
543.399,845.9
543.942,842.5
544.485,841.7
545.027,842.8
545.57,842.7
546.112,842.9
546.654,843.1
547.196,842.7
547.738,843.1
548.28,843.0
548.822,840.7
549.363,842.0
549.905,842.4
550.446,841.7
550.988,842.7
551.529,843.5
552.07,841.5
552.611,841.9
553.152,844.9
553.692,846.1
554.233,846.2
554.773,848.1
555.314,846.5
555.854,849.5
556.394,848.8
556.934,850.5
557.474,855.5
558.014,854.2
558.553,851.0
559.093,851.4
559.632,853.1
560.172,851.1
560.711,853.6
561.25,853.9
561.789,857.2
562.328,858.1
562.867,857.9
563.406,863.3
563.944,899.8
564.483,878.1
565.021,875.6
565.559,870.2
566.098,909.7
566.636,874.4
567.174,871.7
567.711,873.2
568.249,868.5
568.787,874.1
569.324,872.7
569.862,878.3
570.399,879.1
570.936,889.5
571.474,956.7
572.011,911.0
572.548,903.5
573.084,898.5
573.621,903.1
574.158,912.1
574.694,913.6
575.231,919.2
575.767,953.1
576.303,1034.9
576.84,1010.5
577.376,993.4
577.912,986.8
578.447,989.9
578.983,1003.7
579.519,1019.7
580.054,1036.9
580.59,1045.0
581.125,1069.1
581.661,1078.8
582.196,1086.5
582.731,1104.9
583.266,1108.8
583.801,1119.2
584.336,1127.6
584.87,1135.8
585.405,1147.1
585.94,1150.2
586.474,1166.7
587.008,1175.1
587.543,1194.5
588.077,1214.2
588.611,1230.3
589.145,1232.9
589.679,1256.8
590.213,1278.0
590.747,1295.5
591.28,1323.9
591.814,1335.9
592.347,1338.9
592.881,1355.2
593.414,1356.7
593.947,1370.5
594.48,1377.1
595.014,1396.8
595.547,1402.7
596.079,1426.0
596.612,1439.6
597.145,1458.1
597.678,1466.0
598.21,1499.4
598.743,1504.4
599.275,1531.7
599.807,1531.6
600.34,1544.7
600.872,1528.4
601.404,1519.5
601.936,1519.1
602.468,1509.0
603.0,1491.4
603.532,1474.4
604.063,1449.7
604.595,1413.6
605.126,1398.6
605.658,1368.6
606.189,1343.3
606.721,1320.6
607.252,1295.4
607.783,1277.3
608.314,1262.7
608.845,1251.8
609.376,1242.8
609.907,1225.2
610.438,1211.6
610.968,1206.9
611.499,1192.3
612.03,1180.0
612.56,1177.7
613.091,1175.0
613.621,1163.8
614.151,1171.9
614.681,1152.0
615.212,1143.1
615.742,1134.5
616.272,1125.1
616.802,1123.5
617.332,1120.4
617.861,1118.2
618.391,1121.7
618.921,1113.5
619.45,1106.0
619.98,1103.5
620.509,1101.5
621.039,1097.9
621.568,1100.1
622.097,1130.7
622.627,1123.7
623.156,1090.9
623.685,1091.0
624.214,1083.9
624.743,1079.6
625.272,1089.6
625.801,1088.8
626.33,1111.4
626.858,1312.8
627.387,1705.4
627.916,1453.2
628.444,1637.5
628.973,1486.0
629.501,1398.8
630.029,1313.7
630.558,1288.9
631.086,1191.5
631.614,1125.5
632.142,1104.1
632.67,1095.7
633.198,1094.1
633.726,1092.9
634.254,1086.6
634.782,1090.4
635.31,1090.3
635.838,1098.6
636.365,1093.4
636.893,1099.3
637.421,1091.9
637.948,1099.7
638.476,1099.9
639.003,1099.0
639.531,1110.4
640.058,1115.5
640.585,1111.8
641.113,1120.6
641.64,1125.9
642.167,1132.7
642.694,1135.6
643.221,1142.0
643.748,1137.6
644.275,1141.5
644.802,1145.5
645.329,1150.1
645.856,1147.9
646.382,1153.8
646.909,1153.8
647.436,1150.2
647.962,1154.8
648.489,1156.4
649.016,1156.3
649.542,1154.9
650.069,1157.2
650.595,1152.2
651.121,1156.1
651.648,1161.0
652.174,1162.4
652.7,1157.8
653.227,1159.4
653.753,1164.9
654.279,1157.4
654.805,1157.2
655.331,1152.1
655.857,1146.5
656.383,1144.6
656.909,1138.8
657.435,1142.2
657.961,1131.2
658.487,1119.8
659.013,1113.8
659.538,1108.3
660.064,1102.4
660.59,1086.9
661.116,1079.3
661.641,1061.5
662.167,1057.3
662.692,1051.5
663.087,1045.1