File: spectra/VLFR_09-PET_bio_Raman_51f64c52.csv
nm,Intensity
528.626,1868.9
529.132,1868.75
529.637,1871.85
530.143,1870.3
530.648,1873.95
531.153,1877.1
531.658,1907.25
532.164,4614.75
532.669,1878.95
533.174,1886.6
533.679,3379.25
534.184,8463.6
534.689,7671.65
535.194,7095.0
535.699,6483.75
536.203,6176.5
536.708,6074.65
537.213,5982.65
537.717,6072.65
538.222,6066.35
538.726,6068.3
539.231,6199.45
539.735,6516.05
540.239,6509.2
540.744,6407.45
541.248,6515.15
541.752,6449.3
542.256,6612.75
542.76,6692.9
543.264,6687.65
543.768,6914.55
544.272,6847.6
544.776,7054.75
545.28,7110.75
545.784,7139.0
546.287,7343.75
546.791,7245.55
547.294,7427.7
547.798,7486.7
548.301,7529.1
548.805,7694.75
549.308,7695.9
549.811,7703.7
550.315,7920.05
550.818,8848.55
551.321,8157.75
551.824,8175.4
552.327,8098.85
552.83,8717.05
553.333,8388.0
553.835,8468.7
554.338,8510.05
554.841,8525.55
555.343,8907.7
555.846,8907.25
556.349,9163.75
556.851,9205.3
557.353,10415.5
557.856,10531.8
558.358,9434.35
558.86,9474.6
559.362,9333.85
559.864,9484.4
560.366,9524.0
560.868,9722.4
561.37,9826.85
561.872,10402.3
562.374,10296.3
562.876,10130.4
563.377,10109.3
563.879,10188.1
564.38,10578.1
564.882,11627.9
565.383,11532.5
565.885,11613.8
566.386,10966.5
566.887,10783.2
567.388,10961.3
567.889,11357.3
568.391,11122.3
568.892,11148.5
569.392,11191.2
569.893,11321.3
570.394,11796.3
570.895,13057.5
571.395,15000.7
571.896,12976.2
572.397,12052.8
572.897,11804.8
573.397,11782.7
573.898,11542.2
574.398,11861.8
574.898,11919.8
575.398,12700.7
575.898,12165.8
576.398,12442.5
576.898,12448.0
577.398,12187.5
577.898,12030.0
578.398,12395.0
578.897,12259.5
579.397,12312.4
579.896,12362.0
580.396,12665.2
580.895,12724.5
581.395,13087.8
581.894,18936.8
582.393,18575.4
582.892,12948.8
583.391,12830.8
583.89,12837.7
584.389,12769.0
584.888,12957.2
585.387,14098.3
585.886,18376.3
586.384,16758.6
586.883,13363.6
587.381,12947.7
587.88,13120.2
588.378,12893.5
588.876,12955.5
589.375,12975.5
589.873,13086.0
590.371,12811.4
590.869,13042.5
591.367,13229.2
591.865,13220.3
592.363,13227.2
592.86,13279.3
593.358,13327.3
593.856,13038.0
594.353,13288.7
594.851,13099.7
595.348,13329.9
595.845,13483.0
596.342,13456.8
596.84,13494.3
597.337,13665.1
597.834,13443.8
598.331,13609.3
598.828,13766.5
599.324,13573.7
599.821,13500.7
600.318,13872.3
600.814,13930.0
601.311,14237.7
601.807,13942.8
602.304,13683.4
602.8,14089.3
603.296,13837.0
603.792,14213.7
604.288,13826.5
604.784,14234.2
605.28,14335.8
605.776,13907.4
606.272,14279.3
606.767,14506.0
607.263,14605.6
607.759,14621.0
608.254,14663.0
608.749,14771.5
609.245,14478.7
609.74,14830.0
610.235,14821.4
610.73,14966.2
611.225,15132.3
611.72,15207.8
612.215,15369.7
612.71,15513.7
613.204,15118.3
613.699,15597.9
614.194,15507.3
614.688,15824.5
615.182,15988.6
615.677,16099.0
616.171,16163.8
616.665,16098.4
617.159,16625.3
617.653,16257.0
618.147,16704.1
618.641,16628.0
619.135,17057.5
619.628,16954.9
620.122,17575.3
620.615,17412.1
621.109,17055.9
621.602,17318.3
622.095,17560.8
622.589,17357.9
623.082,17132.8
623.575,17770.8
624.068,17386.1
624.561,17910.9
625.053,18228.6
625.546,18199.5
626.039,17969.5
626.531,17930.6
627.024,18017.3
627.516,18241.4
628.008,18590.2
628.501,18939.3
628.993,18989.0
629.485,19025.3
629.977,19302.9
630.469,19206.2
630.96,19256.8
631.452,19904.2
631.944,19981.1
632.435,19716.8
632.927,19782.7
633.418,19806.6
633.91,19834.2
634.401,19214.5
634.892,19688.9
635.383,19728.7
635.874,19865.7
636.365,21455.9
636.856,20750.6
637.346,19660.8
637.837,19535.1
638.327,20040.2
638.818,19829.2
639.308,19610.6
639.799,19653.1
640.289,19599.7
640.779,19432.8
641.269,19138.6
641.759,18959.9
642.249,19952.4
642.738,19409.8
643.228,19782.5
643.718,19153.0
644.207,19612.6
644.697,19354.8
645.186,19270.3
645.675,19159.1
646.164,19272.2
646.653,18949.4
647.142,19786.8
647.631,19319.7
648.12,19537.6
648.609,18930.4
649.098,18745.3
649.586,18975.5
650.075,18627.8
650.563,18638.2
651.051,18614.8
651.539,18501.6
652.027,18382.3
652.515,18064.3
653.003,18180.0
653.491,18052.5
653.979,17535.1
654.467,17390.4
654.954,17761.2
655.442,17180.8
655.929,17523.0
656.416,17070.9
656.904,16601.3
657.391,17107.2
657.878,16397.3
658.365,16456.3
658.851,15735.0
659.338,15666.5
659.825,15754.2
660.311,16217.6
660.798,15022.5
661.041,15411.4