File: spectra/VLFR_06-PET_nobio_Raman_a1d0d689.csv
nm,Intensity
526.532,833.8
527.079,833.75
527.625,833.75
528.172,833.2
528.718,833.65
529.265,833.6
529.811,832.35
530.357,834.2
530.903,832.95
531.449,833.75
531.994,846.7
532.54,835.4
533.085,833.6
533.63,853.4
534.176,2065.5
534.721,1692.45
535.266,1366.35
535.81,1174.4
536.355,1057.4
536.9,1016.2
537.444,996.7
537.988,989.6
538.533,997.0
539.077,993.5
539.621,1012.8
540.165,1013.25
540.708,975.8
541.252,967.7
541.795,964.45
542.339,960.6
542.882,964.5
543.425,967.35
543.968,976.05
544.511,974.7
545.054,975.8
545.597,977.55
546.139,981.75
546.682,982.1
547.224,986.5
547.766,988.15
548.308,994.35
548.85,991.35
549.392,997.6
549.934,997.2
550.475,1032.25
551.017,1017.45
551.558,1009.2
552.1,1015.25
552.641,1030.55
553.182,1038.6
553.723,1031.2
554.264,1031.65
554.804,1033.75
555.345,1047.9
555.885,1098.1
556.426,1105.55
556.966,1114.1
557.506,1276.5
558.046,1139.55
558.586,1141.3
559.126,1096.15
559.665,1071.6
560.205,1078.1
560.745,1080.55
561.284,1085.8
561.823,1091.15
562.362,1108.75
562.901,1126.75
563.44,1131.25
563.979,1119.65
564.518,1135.25
565.056,1188.3
565.595,1250.85
566.133,1240.45
566.671,1157.35
567.21,1147.4
567.748,1238.75
568.285,1160.75
568.823,1161.6
569.361,1174.45
569.899,1201.4
570.436,1256.4
570.974,1393.5
571.511,1483.9
572.048,1334.7
572.585,1238.7
573.122,1214.7
573.659,1224.35
574.196,1247.7
574.733,1234.75
575.269,1275.7
575.806,1249.45
576.342,1280.85
576.878,1290.15
577.414,1262.5
577.951,1256.9
578.486,1267.7
579.022,1268.4
579.558,1273.55
580.094,1279.65
580.629,1290.45
581.165,1306.05
581.7,1418.35
582.236,2584.85
582.771,1354.45
583.306,1318.0
583.841,1326.85
584.376,1336.85
584.911,1352.1
585.445,1479.2
585.98,1993.85
586.514,1686.6
587.049,1394.7
587.583,1367.95
588.117,1359.35
588.651,1354.85
589.186,1356.05
589.72,1358.75
590.253,1357.05
590.787,1365.3
591.321,1368.75
591.854,1370.35
592.388,1372.15
592.921,1371.55
593.455,1377.6
593.988,1378.95
594.521,1387.7
595.054,1389.6
595.587,1390.4
596.12,1392.15
596.653,1400.9
597.186,1400.2
597.718,1406.7
598.251,1419.8
598.783,1420.65
599.316,1419.45
599.848,1424.0
600.38,1416.4
600.912,1427.15
601.444,1416.2
601.976,1414.0
602.508,1425.85
603.04,1427.6
603.572,1436.65
604.103,1437.5
604.635,1433.9
605.167,1428.65
605.698,1419.35
606.229,1422.45
606.761,1419.25
607.292,1426.5
607.823,1427.7
608.354,1436.85
608.885,1444.85
609.416,1450.0
609.947,1447.0
610.477,1448.45
611.008,1442.8
611.539,1451.35
612.069,1463.75
612.6,1465.55
613.13,1472.3
613.66,1479.25
614.19,1489.25
614.721,1487.05
615.251,1489.85
615.781,1484.75
616.311,1491.25
616.841,1501.6
617.37,1508.2
617.9,1510.8
618.43,1523.7
618.96,1514.85
619.489,1511.85
620.019,1514.7
620.548,1516.65
621.077,1514.85
621.607,1519.15
622.136,1525.25
622.665,1535.3
623.194,1544.05
623.723,1547.95
624.252,1565.35
624.781,1574.95
625.31,1586.15
625.839,1577.2
626.368,1573.45
626.896,1579.4
627.425,1589.15
627.953,1600.25
628.482,1630.65
629.01,1659.95
629.539,1651.65
630.067,1644.6
630.596,1665.75
631.124,1745.25
631.652,1877.65
632.18,1850.2
632.708,1776.25
633.236,1763.35
633.764,1750.3
634.292,1720.55
634.82,1716.25
635.348,1732.7
635.876,1813.75
636.403,1949.6
636.931,1912.25
637.459,1786.85
637.986,1771.8
638.514,1765.0
639.041,1767.15
639.568,1786.95
640.096,1785.1
640.623,1793.0
641.15,1798.25
641.678,1815.55
642.205,1827.2
642.732,1820.6
643.259,1809.0
643.786,1807.5
644.313,1814.3
644.84,1815.8
645.367,1817.2
645.894,1827.7
646.421,1837.4
646.948,1837.6
647.474,1845.4
648.001,1847.15
648.528,1845.35
649.054,1847.15
649.581,1853.85
650.108,1847.55
650.634,1852.1
651.161,1852.85
651.687,1859.55
652.214,1867.4
652.74,1868.2
653.266,1875.85
653.793,1872.45
654.319,1874.05
654.845,1869.3
655.371,1869.9
655.897,1881.2
656.424,1873.1
656.95,1879.55
657.476,1883.5
658.002,1873.45
658.528,1888.5
659.054,1885.15
659.58,1885.45
660.106,1889.45
660.631,1888.8
661.157,1877.35
661.683,1870.0
662.209,1864.15
662.735,1869.85
663.129,1862.25