File: spectra/VLFR_07-PET_nobio_Raman_8a73164e.csv
nm,Intensity
791.588,9781.3
792.685,9207.2
793.781,9037.5
794.878,8766.1
795.975,8851.5
797.071,8737.4
798.168,8695.1
799.264,8691.3
800.36,8742.1
801.456,8759.1
802.552,8708.0
803.648,8637.9
804.744,8575.6
805.84,8572.8
806.936,8360.6
808.031,8376.6
809.127,8297.5
810.222,8263.8
811.317,8165.8
812.412,8093.9
813.507,8044.4
814.602,7959.8
815.697,7884.7
816.792,7820.9
817.887,7814.5
818.981,7753.6
820.076,7781.5
821.17,7616.8
822.265,7593.7
823.359,7556.3
824.453,7490.0
825.547,7537.9
826.641,7465.1
827.735,7326.1
828.828,7310.4
829.922,7248.9
831.016,7295.1
832.109,7153.0
833.202,7169.2
834.295,7055.7
835.388,7076.4
836.481,7053.0
837.574,7076.7
838.667,6991.5
839.76,6900.5
840.852,6982.7
841.945,7109.2
843.037,6847.9
844.129,6756.3
845.221,6732.5
846.314,6609.8
847.405,6623.5
848.497,6532.3
849.589,6493.1
850.681,6511.4
851.772,6507.3
852.863,6479.9
853.955,6447.1
855.046,6315.4
856.137,6360.2
857.228,6377.6
858.318,6369.9
859.409,6383.1
860.5,6395.7
861.59,6190.9
862.681,6192.2
863.771,6177.1
864.861,6183.6
865.951,6102.1
867.041,6069.1
868.131,6065.1
869.22,6069.6
870.31,6104.4
871.399,6108.6
872.488,6207.8
873.578,6230.7
874.667,6049.9
875.756,5970.9
876.845,5968.0
877.933,5863.1
879.022,5912.8
880.11,5836.8
881.199,5785.0
882.287,5823.7
883.375,5819.3
884.463,5730.1
885.551,5748.7
886.639,5705.8
887.726,5625.7
888.814,5603.5
889.901,5640.5
890.988,5556.4
892.075,5580.9
893.162,5534.0
894.249,5540.3
895.336,5421.3
896.423,5462.8
897.509,5624.0
898.595,5879.3
899.682,5594.6
900.768,5363.7
901.854,5275.3
902.94,5220.8
904.025,5235.6
905.111,5199.4
906.196,5265.8
907.282,5456.8
908.367,5436.9
909.452,5231.6
910.537,5083.0
911.622,4985.4
912.706,4995.1
913.791,4920.0
914.875,4920.0
915.959,4914.2
917.044,4846.1
918.128,4846.1
919.211,4807.7
920.295,4775.8
921.379,4744.1
922.462,4719.5
923.546,4692.4
924.629,4661.6
925.712,4649.4
926.795,4601.7
927.877,4594.6
928.96,4554.8
930.043,4528.3
931.125,4515.1
932.207,4476.7
933.289,4472.1
934.371,4440.7
935.453,4414.8
936.535,4406.6
937.616,4383.9
938.697,4371.6
939.779,4350.0
940.86,4328.9
941.941,4328.7
943.022,4295.7
944.102,4281.6
945.183,4263.8
946.263,4251.5
947.343,4252.2
948.423,4212.2
949.503,4212.2
950.583,4191.5
951.663,4174.6
952.742,4175.8
953.822,4161.8
954.901,4127.8
955.98,4130.7
957.059,4131.6
958.137,4101.4
959.216,4102.6
960.294,4093.4
961.373,4066.3
962.451,4075.1
963.529,4057.9
964.607,4053.7
965.684,4031.2
966.762,4040.0
967.839,4025.1
968.917,4007.9
969.994,4005.7
971.071,3998.7
972.147,3986.7
973.224,3980.4
974.3,3973.1
975.377,3963.5
976.453,3961.7
977.529,3957.7
978.605,3947.2
979.68,3939.3
980.756,3931.9
981.831,3924.4
982.907,3925.3
983.982,3917.0
985.057,3907.0
986.131,3907.9
987.206,3894.1
988.28,3900.9
989.355,3896.2
990.429,3891.1
991.503,3882.3
992.576,3883.3
993.65,3873.0
994.723,3867.7
995.797,3865.5
996.87,3864.3
997.943,3854.1
999.016,3849.3
1000.09,3850.8
1001.16,3849.8
1002.23,3841.5
1003.31,3840.9
1004.38,3832.4
1005.45,3832.2
1006.52,3831.3
1007.59,3828.9
1008.66,3825.8
1009.73,3819.4
1010.81,3819.9
1011.88,3813.1
1012.95,3818.6
1014.02,3811.5
1015.09,3807.8
1016.16,3809.3
1017.23,3805.4
1018.3,3804.5
1019.37,3801.2
1020.44,3803.8
1021.51,3803.5
1022.58,3806.3
1023.64,3805.3
1024.71,3797.2
1025.78,3796.6
1026.85,3791.1
1027.92,3787.9
1028.99,3785.5
1030.05,3781.2
1031.12,3784.8
1032.19,3781.3
1033.26,3781.9
1034.32,3786.1
1035.39,3786.4
1036.46,3785.0
1037.52,3778.7
1038.59,3776.8
1039.66,3774.4
1040.72,3771.2
1041.79,3773.1
1042.86,3772.3
1043.92,3770.8
1044.99,3768.9
1046.05,3770.6
1047.12,3767.0
1048.18,3767.5
1049.25,3766.9
1050.31,3767.0
1051.37,3764.6
1052.44,3765.8
1053.5,3765.8
1054.57,3763.3
1055.63,3765.2
1056.69,3766.2
1057.76,3765.3
1058.82,3763.5
1059.88,3763.6
1060.95,3763.3
1062.01,3763.9
1063.07,3762.9
1064.13,3763.6
1065.19,3762.0
1066.26,3762.2
1067.32,3763.6
1068.11,3760.4