File: spectra/VLFR_08-PLA_nobio_Raman_492a169c.csv
nm,Intensity
526.508,830.62
527.055,830.84
527.602,830.76
528.149,830.5
528.695,830.3
529.241,830.94
529.787,830.04
530.334,830.64
530.879,831.0
531.425,830.28
531.971,833.66
532.516,831.12
533.062,830.34
533.607,830.42
534.152,863.78
534.697,861.28
535.242,854.32
535.786,851.24
536.331,850.14
536.876,849.0
537.42,848.76
537.964,848.74
538.508,847.92
539.052,847.42
539.596,847.48
540.14,847.46
540.683,848.74
541.227,850.8
541.77,850.0
542.313,851.6
542.856,852.26
543.399,855.24
543.942,853.06
544.485,852.28
545.027,853.42
545.57,853.06
546.112,851.28
546.654,852.46
547.196,854.2
547.738,851.88
548.28,850.36
548.822,851.52
549.363,850.26
549.905,851.0
550.446,850.8
550.988,850.64
551.529,851.1
552.07,850.7
552.611,850.82
553.152,851.62
553.692,851.96
554.233,851.92
554.773,851.9
555.314,851.5
555.854,852.18
556.394,851.64
556.934,852.66
557.474,852.94
558.014,859.58
558.553,855.9
559.093,857.04
559.632,853.82
560.172,854.38
560.711,853.26
561.25,855.54
561.789,854.6
562.328,856.08
562.867,855.84
563.406,859.98
563.944,859.98
564.483,860.82
565.021,871.04
565.559,865.54
566.098,871.5
566.636,862.66
567.174,859.52
567.711,857.22
568.249,855.64
568.787,856.34
569.324,857.12
569.862,856.74
570.399,858.32
570.936,858.6
571.474,860.58
572.011,861.66
572.548,861.34
573.084,863.14
573.621,862.66
574.158,864.86
574.694,864.92
575.231,860.26
575.767,859.98
576.303,862.44
576.84,867.36
577.376,863.3
577.912,858.04
578.447,858.4
578.983,858.34
579.519,859.48
580.054,858.1
580.59,857.7
581.125,858.2
581.661,858.52
582.196,858.56
582.731,859.76
583.266,858.62
583.801,860.74
584.336,859.06
584.87,857.54
585.405,858.32
585.94,858.64
586.474,859.04
587.008,862.02
587.543,863.64
588.077,860.04
588.611,858.58
589.145,859.2
589.679,857.32
590.213,858.9
590.747,859.22
591.28,858.22
591.814,857.62
592.347,859.6
592.881,858.16
593.414,858.08
593.947,858.0
594.48,859.24
595.014,857.96
595.547,858.78
596.079,858.56
596.612,858.34
597.145,858.28
597.678,859.06
598.21,859.5
598.743,858.66
599.275,858.74
599.807,859.22
600.34,858.94
600.872,860.12
601.404,858.4
601.936,859.18
602.468,858.8
603.0,859.04
603.532,858.46
604.063,859.7
604.595,858.98
605.126,859.6
605.658,859.22
606.189,857.24
606.721,858.6
607.252,857.38
607.783,858.9
608.314,858.28
608.845,857.64
609.376,858.44
609.907,859.38
610.438,857.88
610.968,857.4
611.499,858.4
612.03,858.16
612.56,857.76
613.091,858.8
613.621,858.76
614.151,858.34
614.681,858.3
615.212,858.32
615.742,858.36
616.272,859.56
616.802,859.2
617.332,858.62
617.861,860.04
618.391,860.38
618.921,860.1
619.45,859.62
619.98,858.54
620.509,859.96
621.039,859.64
621.568,861.46
622.097,861.98
622.627,862.4
623.156,863.02
623.685,862.44
624.214,862.28
624.743,862.54
625.272,863.9
625.801,864.82
626.33,866.38
626.858,869.26
627.387,882.14
627.916,886.36
628.444,901.02
628.973,909.98
629.501,906.82
630.029,901.28
630.558,897.76
631.086,913.18
631.614,892.64
632.142,880.06
632.67,873.16
633.198,876.26
633.726,871.82
634.254,863.2
634.782,859.96
635.31,858.86
635.838,857.54
636.365,857.6
636.893,856.5
637.421,856.62
637.948,857.16
638.476,856.78
639.003,856.12
639.531,856.86
640.058,855.38
640.585,856.7
641.113,856.34
641.64,857.78
642.167,856.86
642.694,856.88
643.221,856.72
643.748,857.86
644.275,858.1
644.802,858.08
645.329,858.98
645.856,858.54
646.382,858.62
646.909,858.34
647.436,859.66
647.962,858.92
648.489,858.68
649.016,859.3
649.542,857.16
650.069,858.06
650.595,858.18
651.121,856.62
651.648,856.74
652.174,858.16
652.7,855.82
653.227,854.48
653.753,855.3
654.279,854.58
654.805,853.42
655.331,854.32
655.857,853.26
656.383,851.98
656.909,852.66
657.435,851.34
657.961,851.5
658.487,850.86
659.013,851.84
659.538,850.76
660.064,851.22
660.59,849.74
661.116,850.92
661.641,850.62
662.167,848.66
662.692,849.26
663.087,848.9