File: spectra/VLFR_01-LDPE_nobio_Raman_bf030847.csv
nm,Intensity
526.532,832.0
527.079,832.75
527.625,832.6
528.172,832.15
528.718,832.3
529.265,832.85
529.811,831.45
530.357,831.55
530.903,832.8
531.449,831.0
531.994,841.05
532.54,833.4
533.085,831.7
533.63,832.55
534.176,916.0
534.721,902.55
535.266,886.75
535.81,874.1
536.355,868.05
536.9,864.6
537.444,863.7
537.988,862.85
538.533,861.35
539.077,857.75
539.621,855.05
540.165,853.85
540.708,853.0
541.252,852.65
541.795,852.15
542.339,852.4
542.882,850.7
543.425,850.7
543.968,849.75
544.511,850.35
545.054,849.1
545.597,849.05
546.139,849.45
546.682,848.75
547.224,849.65
547.766,848.8
548.308,850.15
548.85,848.0
549.392,847.75
549.934,847.5
550.475,846.5
551.017,849.4
551.558,848.7
552.1,847.75
552.641,848.45
553.182,851.35
553.723,851.45
554.264,854.15
554.804,852.8
555.345,854.4
555.885,856.1
556.426,856.5
556.966,859.0
557.506,861.8
558.046,863.85
558.586,864.9
559.126,859.65
559.665,859.65
560.205,859.2
560.745,860.6
561.284,861.7
561.823,861.6
562.362,865.3
562.901,867.4
563.44,874.1
563.979,941.6
564.518,890.15
565.056,883.2
565.595,879.6
566.133,941.55
566.671,883.0
567.21,876.95
567.748,880.05
568.285,874.55
568.823,875.95
569.361,877.9
569.899,881.7
570.436,885.4
570.974,893.05
571.511,1017.3
572.048,921.85
572.585,901.95
573.122,897.15
573.659,900.7
574.196,907.05
574.733,905.65
575.269,912.85
575.806,951.8
576.342,1063.85
576.878,1009.15
577.414,974.95
577.951,949.0
578.486,950.3
579.022,959.7
579.558,969.2
580.094,977.05
580.629,982.8
581.165,996.7
581.7,1005.85
582.236,1020.35
582.771,1031.65
583.306,1040.2
583.841,1047.85
584.376,1060.85
584.911,1076.2
585.445,1088.35
585.98,1102.8
586.514,1121.35
587.049,1139.75
587.583,1157.8
588.117,1171.3
588.651,1192.95
589.186,1207.35
589.72,1230.6
590.253,1248.25
590.787,1262.05
591.321,1278.25
591.854,1288.7
592.388,1298.05
592.921,1305.1
593.455,1316.8
593.988,1325.9
594.521,1335.6
595.054,1351.1
595.587,1367.25
596.12,1383.25
596.653,1391.35
597.186,1411.95
597.718,1427.25
598.251,1460.2
598.783,1477.35
599.316,1480.85
599.848,1497.2
600.38,1503.15
600.912,1504.6
601.444,1497.45
601.976,1498.35
602.508,1484.35
603.04,1467.6
603.572,1456.15
604.103,1430.75
604.635,1403.55
605.167,1379.55
605.698,1343.45
606.229,1319.0
606.761,1297.55
607.292,1280.2
607.823,1263.85
608.354,1251.2
608.885,1234.2
609.416,1229.8
609.947,1205.95
610.477,1194.95
611.008,1183.85
611.539,1178.35
612.069,1168.15
612.6,1170.3
613.13,1163.9
613.66,1161.3
614.19,1152.2
614.721,1141.05
615.251,1136.15
615.781,1124.7
616.311,1118.7
616.841,1112.95
617.37,1112.65
617.9,1110.55
618.43,1102.15
618.96,1096.7
619.489,1099.95
620.019,1093.65
620.548,1090.65
621.077,1094.4
621.607,1103.65
622.136,1121.0
622.665,1114.25
623.194,1078.4
623.723,1076.6
624.252,1065.75
624.781,1069.15
625.31,1071.7
625.839,1078.4
626.368,1111.25
626.896,1415.25
627.425,1821.4
627.953,1526.8
628.482,1847.95
629.01,1567.65
629.539,1454.3
630.067,1349.95
630.596,1316.65
631.124,1175.05
631.652,1104.15
632.18,1081.55
632.708,1069.8
633.236,1064.75
633.764,1064.45
634.292,1062.15
634.82,1062.9
635.348,1069.25
635.876,1068.8
636.403,1069.6
636.931,1074.5
637.459,1070.3
637.986,1077.9
638.514,1078.95
639.041,1086.0
639.568,1087.35
640.096,1094.3
640.623,1101.15
641.15,1101.45
641.678,1106.6
642.205,1108.2
642.732,1111.2
643.259,1115.25
643.786,1119.15
644.313,1115.3
644.84,1119.25
645.367,1122.5
645.894,1128.6
646.421,1129.45
646.948,1124.55
647.474,1130.4
648.001,1129.0
648.528,1128.8
649.054,1125.25
649.581,1128.7
650.108,1131.55
650.634,1122.1
651.161,1130.15
651.687,1129.85
652.214,1132.1
652.74,1137.9
653.266,1138.0
653.793,1135.8
654.319,1133.9
654.845,1132.4
655.371,1130.5
655.897,1128.8
656.424,1127.65
656.95,1122.15
657.476,1111.85
658.002,1104.35
658.528,1107.2
659.054,1096.6
659.58,1091.35
660.106,1080.95
660.631,1075.25
661.157,1060.15
661.683,1049.95
662.209,1041.45
662.735,1033.6
663.129,1023.55