File: spectra/VLFR_01-LDPE_bio_Raman_5b8955c3.csv
nm,Intensity
526.547,832.65
527.095,832.5
527.642,832.2
528.189,832.05
528.736,833.3
529.283,832.2
529.829,832.75
530.376,831.45
530.922,832.7
531.468,833.25
532.014,835.65
532.56,832.15
533.106,832.2
533.651,834.05
534.196,898.45
534.742,886.8
535.287,881.6
535.832,879.2
536.376,872.75
536.921,865.9
537.465,871.2
538.01,864.05
538.554,863.1
539.098,863.8
539.642,860.65
540.186,858.2
540.729,857.6
541.273,858.25
541.816,854.85
542.36,854.5
542.903,854.6
543.446,854.75
543.988,860.75
544.531,856.4
545.074,855.6
545.616,856.25
546.158,867.35
546.701,910.1
547.243,859.4
547.785,855.95
548.326,854.7
548.868,856.05
549.41,857.1
549.951,859.55
550.492,862.8
551.034,854.45
551.575,853.9
552.116,853.55
552.656,855.3
553.197,854.0
553.738,854.5
554.278,856.45
554.819,853.9
555.359,855.25
555.899,855.2
556.439,858.35
556.979,856.65
557.519,859.9
558.058,860.15
558.598,860.2
559.137,858.35
559.677,859.45
560.216,859.2
560.755,860.1
561.294,861.15
561.833,871.8
562.371,1212.7
562.91,874.1
563.449,871.55
563.987,918.7
564.525,887.35
565.064,881.65
565.602,880.15
566.14,947.9
566.678,904.3
567.216,880.5
567.753,878.9
568.291,877.1
568.828,879.45
569.366,878.05
569.903,880.55
570.44,884.95
570.977,890.15
571.514,975.75
572.051,909.1
572.588,893.7
573.125,891.7
573.661,892.15
574.198,899.45
574.734,894.55
575.271,900.7
575.807,931.55
576.343,982.1
576.879,955.45
577.415,938.6
577.951,926.9
578.486,925.8
579.022,933.1
579.557,941.4
580.093,950.75
580.628,955.55
581.164,966.45
581.699,975.2
582.234,982.45
582.769,996.45
583.304,1003.85
583.838,1011.05
584.373,1018.85
584.908,1029.7
585.442,1037.9
585.977,1043.85
586.511,1059.0
587.045,1062.6
587.58,1075.2
588.114,1084.0
588.648,1085.55
589.182,1098.3
589.715,1101.2
590.249,1109.05
590.783,1115.7
591.316,1119.95
591.85,1118.75
592.383,1117.1
592.917,1117.75
593.45,1126.05
593.983,1124.4
594.516,1125.65
595.049,1136.0
595.582,1137.3
596.115,1139.4
596.648,1157.85
597.18,1159.55
597.713,1163.25
598.245,1182.85
598.778,1189.4
599.31,1200.1
599.842,1202.15
600.375,1204.35
600.907,1205.2
601.439,1200.3
601.971,1202.3
602.503,1199.2
603.034,1189.85
603.566,1181.25
604.098,1169.4
604.629,1157.75
605.161,1137.35
605.692,1117.45
606.224,1107.8
606.755,1092.2
607.286,1084.55
607.817,1073.6
608.348,1063.15
608.879,1055.0
609.41,1050.85
609.941,1039.1
610.472,1035.25
611.002,1026.95
611.533,1026.0
612.063,1021.0
612.594,1014.1
613.124,1012.5
613.655,1012.2
614.185,1005.2
614.715,1004.0
615.245,999.95
615.775,997.6
616.305,996.05
616.835,991.2
617.365,997.65
617.895,1000.8
618.425,993.15
618.954,994.9
619.484,992.4
620.013,994.0
620.543,991.9
621.072,997.7
621.602,1001.9
622.131,1013.15
622.66,1011.15
623.189,994.4
623.718,987.1
624.247,984.8
624.776,987.55
625.305,987.05
625.834,992.15
626.363,1002.7
626.891,1161.6
627.42,1406.45
627.949,1238.2
628.477,1383.9
629.006,1290.35
629.534,1226.35
630.062,1158.4
630.591,1135.35
631.119,1048.25
631.647,1003.95
632.175,984.5
632.703,973.35
633.231,972.8
633.759,971.8
634.287,971.55
634.815,967.6
635.343,972.3
635.871,969.65
636.398,972.1
636.926,974.45
637.454,975.3
637.981,975.75
638.509,981.0
639.036,982.05
639.564,986.45
640.091,991.7
640.618,989.1
641.146,998.35
641.673,997.1
642.2,1003.6
642.727,1004.85
643.254,1006.35
643.781,1002.15
644.308,1004.4
644.835,1005.0
645.362,1003.5
645.889,1008.3
646.416,1006.25
646.942,1008.85
647.469,1006.55
647.996,1007.3
648.522,1006.1
649.049,1005.05
649.576,1012.15
650.102,1012.25
650.629,1003.95
651.155,1004.55
651.682,998.5
652.208,999.2
652.734,999.05
653.261,998.3
653.787,1001.5
654.313,997.9
654.839,992.45
655.365,988.0
655.892,987.05
656.418,986.6
656.944,985.25
657.47,985.5
657.996,976.2
658.522,974.4
659.048,970.4
659.574,973.0
660.099,964.55
660.625,963.05
661.151,957.05
661.677,952.25
662.203,948.35
662.728,945.6
663.123,945.0