File: spectra/VLFR_02-HDPE_bio_Raman_16d68728.csv
nm,Intensity
528.65,1855.8
529.155,1855.85
529.66,1854.7
530.165,1855.65
530.67,1856.5
531.175,1857.2
531.68,1887.75
532.185,2982.3
532.69,1855.25
533.194,1855.7
533.699,1903.55
534.204,2035.6
534.708,2037.6
535.213,2070.4
535.717,2084.35
536.222,2082.1
536.726,2044.9
537.231,2071.2
537.735,2055.9
538.239,2061.2
538.743,2047.0
539.247,2046.4
539.751,2041.85
540.255,2035.6
540.759,2047.95
541.263,2057.3
541.767,2053.4
542.271,2048.1
542.775,2063.2
543.279,2054.6
543.782,2080.05
544.286,2118.6
544.789,2067.45
545.293,2073.3
545.796,2087.95
546.3,2272.95
546.803,2148.7
547.306,2084.45
547.81,2077.45
548.313,2085.2
548.816,2090.45
549.319,2104.4
549.822,2125.0
550.325,2188.5
550.828,2096.7
551.331,2092.6
551.834,2103.5
552.337,2094.4
552.839,2084.5
553.342,2088.3
553.844,2087.65
554.347,2091.8
554.849,2098.75
555.352,2099.25
555.854,2101.4
556.357,2107.95
556.859,2114.75
557.361,2104.8
557.863,2109.1
558.365,2118.25
558.867,2112.4
559.369,2113.85
559.871,2117.05
560.373,2120.2
560.875,2137.0
561.377,2142.1
561.878,2273.7
562.38,3471.7
562.881,2171.95
563.383,2153.9
563.884,2217.95
564.386,2185.75
564.887,2184.65
565.388,2171.7
565.89,2221.65
566.391,2310.75
566.892,2194.65
567.393,2191.05
567.894,2179.05
568.395,2165.6
568.896,2176.1
569.396,2169.8
569.897,2180.35
570.398,2199.9
570.898,2199.75
571.399,2346.25
571.9,2247.4
572.4,2219.1
572.9,2214.35
573.401,2206.8
573.901,2225.95
574.401,2224.5
574.901,2227.65
575.401,2283.1
575.901,2326.35
576.401,2425.95
576.901,2368.7
577.401,2327.15
577.901,2290.25
578.4,2303.35
578.9,2319.0
579.399,2357.5
579.899,2367.9
580.398,2396.35
580.898,2411.25
581.397,2434.2
581.896,2480.9
582.395,2495.7
582.895,2529.3
583.394,2549.55
583.893,2594.05
584.391,2617.5
584.89,2629.85
585.389,2659.3
585.888,2652.2
586.386,2677.35
586.885,2706.25
587.384,2727.4
587.882,2737.75
588.38,2778.7
588.879,2776.8
589.377,2791.75
589.875,2829.2
590.373,2878.7
590.871,2894.1
591.369,2951.2
591.867,2981.25
592.365,3008.75
592.863,3063.25
593.361,3064.5
593.858,3103.45
594.356,3127.0
594.853,3193.35
595.351,3264.05
595.848,3292.15
596.345,3350.55
596.843,3397.65
597.34,3447.9
597.837,3488.75
598.334,3502.65
598.831,3536.25
599.328,3624.35
599.824,3653.0
600.321,3660.85
600.818,3689.55
601.314,3648.6
601.811,3676.9
602.307,3668.35
602.804,3673.4
603.3,3569.4
603.796,3603.25
604.293,3544.65
604.789,3470.8
605.285,3442.2
605.781,3400.3
606.277,3340.8
606.772,3284.7
607.268,3255.45
607.764,3218.25
608.259,3165.1
608.755,3137.95
609.25,3108.55
609.746,3036.4
610.241,3043.6
610.736,2983.4
611.231,3002.7
611.727,2984.05
612.222,2937.25
612.716,2910.0
613.211,2880.75
613.706,2863.65
614.201,2884.65
614.695,2855.1
615.19,2815.15
615.684,2814.95
616.179,2779.9
616.673,2772.7
617.168,2775.95
617.662,2745.7
618.156,2732.5
618.65,2752.9
619.144,2741.65
619.638,2734.55
620.131,2717.7
620.625,2702.65
621.119,2689.6
621.612,2714.35
622.106,2713.3
622.599,2709.7
623.093,2663.85
623.586,2641.7
624.079,2631.15
624.572,2634.4
625.065,2608.2
625.558,2628.25
626.051,2636.7
626.544,2764.4
627.037,3345.4
627.529,3228.65
628.022,3000.7
628.514,3652.85
629.007,3185.05
629.499,2995.75
629.991,2844.3
630.483,2840.05
630.976,2704.5
631.468,2606.65
631.959,2583.55
632.451,2573.7
632.943,2578.6
633.435,2577.3
633.926,2577.05
634.418,2547.5
634.909,2541.4
635.401,2577.0
635.892,2545.65
636.383,2551.6
636.874,2543.35
637.365,2548.8
637.856,2560.6
638.347,2561.65
638.838,2562.75
639.329,2557.2
639.819,2561.85
640.31,2567.6
640.8,2558.75
641.291,2599.6
641.781,2575.35
642.271,2590.1
642.761,2602.45
643.251,2580.75
643.741,2608.4
644.231,2627.55
644.721,2594.65
645.211,2611.5
645.7,2593.2
646.19,2600.2
646.679,2634.65
647.169,2650.9
647.658,2611.95
648.147,2627.55
648.636,2673.15
649.125,2680.8
649.614,2716.1
650.103,2763.2
650.592,2728.45
651.08,2687.35
651.569,2630.65
652.058,2649.75
652.546,2639.9
653.034,2666.75
653.523,2652.1
654.011,2629.2
654.499,2613.95
654.987,2605.4
655.475,2618.1
655.963,2587.95
656.45,2554.4
656.938,2547.6
657.425,2528.0
657.913,2505.15
658.4,2473.7
658.888,2494.15
659.375,2444.95
659.862,2459.95
660.349,2420.55
660.836,2392.4
661.079,2398.2