File: spectra/VLFR_06-PET_nobio_Raman_bf545a03.csv
nm,Intensity
526.508,829.8
527.055,832.0
527.602,830.2
528.149,829.1
528.695,830.5
529.241,828.5
529.787,830.6
530.334,830.8
530.879,830.2
531.425,829.7
531.971,834.7
532.516,830.8
533.062,829.5
533.607,839.7
534.152,2276.2
534.697,1875.2
535.242,1456.6
535.786,1215.5
536.331,1068.2
536.876,1004.2
537.42,980.9
537.964,957.1
538.508,972.4
539.052,962.4
539.596,982.2
540.14,999.6
540.683,943.5
541.227,928.2
541.77,921.7
542.313,922.6
542.856,924.9
543.399,922.7
543.942,935.3
544.485,925.0
545.027,926.8
545.57,929.6
546.112,929.8
546.654,931.6
547.196,933.9
547.738,937.1
548.28,937.6
548.822,936.1
549.363,937.6
549.905,943.1
550.446,966.4
550.988,971.8
551.529,956.8
552.07,954.5
552.611,963.8
553.152,987.9
553.692,966.9
554.233,962.8
554.773,972.7
555.314,983.1
555.854,1039.6
556.394,1051.8
556.934,1063.9
557.474,1227.3
558.014,1098.6
558.553,1085.8
559.093,1036.7
559.632,999.6
560.172,996.0
560.711,1002.4
561.25,1008.0
561.789,1018.5
562.328,1030.8
562.867,1042.3
563.406,1048.7
563.944,1038.7
564.483,1046.7
565.021,1098.1
565.559,1175.3
566.098,1174.4
566.636,1067.6
567.174,1050.8
567.711,1143.7
568.249,1058.4
568.787,1050.2
569.324,1066.8
569.862,1093.2
570.399,1147.9
570.936,1296.9
571.474,1434.0
572.011,1248.8
572.548,1122.0
573.084,1095.2
573.621,1093.9
574.158,1133.9
574.694,1107.6
575.231,1135.6
575.767,1121.9
576.303,1154.8
576.84,1158.1
577.376,1124.1
577.912,1114.5
578.447,1121.2
578.983,1116.6
579.519,1128.2
580.054,1131.7
580.59,1143.1
581.125,1162.6
581.661,1251.8
582.196,2624.2
582.731,1220.9
583.266,1174.4
583.801,1161.7
584.336,1177.1
584.87,1191.8
585.405,1302.9
585.94,1909.4
586.474,1634.3
587.008,1245.7
587.543,1199.2
588.077,1186.2
588.611,1176.0
589.145,1186.5
589.679,1177.2
590.213,1181.4
590.747,1191.8
591.28,1192.8
591.814,1186.7
592.347,1194.5
592.881,1191.1
593.414,1192.7
593.947,1192.9
594.48,1198.6
595.014,1207.6
595.547,1204.5
596.079,1203.5
596.612,1208.5
597.145,1216.4
597.678,1210.9
598.21,1214.3
598.743,1216.7
599.275,1219.2
599.807,1227.9
600.34,1229.2
600.872,1231.4
601.404,1229.9
601.936,1225.1
602.468,1235.2
603.0,1239.5
603.532,1232.0
604.063,1232.6
604.595,1235.5
605.126,1231.0
605.658,1231.3
606.189,1226.5
606.721,1224.6
607.252,1235.6
607.783,1243.4
608.314,1243.6
608.845,1248.5
609.376,1243.6
609.907,1243.1
610.438,1248.6
610.968,1241.1
611.499,1239.1
612.03,1258.8
612.56,1254.7
613.091,1265.4
613.621,1262.7
614.151,1264.1
614.681,1268.9
615.212,1273.6
615.742,1272.7
616.272,1285.2
616.802,1276.8
617.332,1287.1
617.861,1298.1
618.391,1303.4
618.921,1306.2
619.45,1292.1
619.98,1290.0
620.509,1289.3
621.039,1305.0
621.568,1302.9
622.097,1303.2
622.627,1300.9
623.156,1322.0
623.685,1308.5
624.214,1333.5
624.743,1338.0
625.272,1342.2
625.801,1344.0
626.33,1339.2
626.858,1346.0
627.387,1353.7
627.916,1362.4
628.444,1382.2
628.973,1406.8
629.501,1412.9
630.029,1399.7
630.558,1411.9
631.086,1481.4
631.614,1616.2
632.142,1602.2
632.67,1538.2
633.198,1509.4
633.726,1503.1
634.254,1473.4
634.782,1462.7
635.31,1473.3
635.838,1540.3
636.365,1666.8
636.893,1688.3
637.421,1525.2
637.948,1495.0
638.476,1486.4
639.003,1496.7
639.531,1501.4
640.058,1507.4
640.585,1503.2
641.113,1517.7
641.64,1519.3
642.167,1528.5
642.694,1535.4
643.221,1534.0
643.748,1513.5
644.275,1532.5
644.802,1527.0
645.329,1528.0
645.856,1530.7
646.382,1547.6
646.909,1556.9
647.436,1560.9
647.962,1556.1
648.489,1549.1
649.016,1565.6
649.542,1559.7
650.069,1553.4
650.595,1563.8
651.121,1570.0
651.648,1567.4
652.174,1578.5
652.7,1582.7
653.227,1575.3
653.753,1581.9
654.279,1579.4
654.805,1582.3
655.331,1587.3
655.857,1580.1
656.383,1582.1
656.909,1590.5
657.435,1588.5
657.961,1581.8
658.487,1603.9
659.013,1597.1
659.538,1595.2
660.064,1599.1
660.59,1598.9
661.116,1591.2
661.641,1583.5
662.167,1577.7
662.692,1584.5
663.087,1578.1