File: spectra/VLFR_07-PET_nobio_Raman_01264874.csv
nm,Intensity
791.377,11331.1
792.477,10214.1
793.576,9758.28
794.676,9293.2
795.775,9298.26
796.874,9254.86
797.973,9136.78
799.072,9133.02
800.171,9056.54
801.27,8976.24
802.368,9033.3
803.467,8868.5
804.565,8726.84
805.664,8599.7
806.762,8555.54
807.86,8430.98
808.958,8497.88
810.056,8284.32
811.153,8298.28
812.251,8252.36
813.349,8106.26
814.446,8067.24
815.543,8038.86
816.64,7923.12
817.737,7815.98
818.834,7787.34
819.931,7786.64
821.028,7742.52
822.125,7655.72
823.221,7546.52
824.317,7535.12
825.414,7651.72
826.51,7562.26
827.606,7365.9
828.702,7322.96
829.797,7233.22
830.893,7375.42
831.988,7132.46
833.084,7098.62
834.179,7086.88
835.274,6985.7
836.369,7040.12
837.464,7057.42
838.559,7099.24
839.654,6992.34
840.748,7153.5
841.843,7126.68
842.937,6955.48
844.031,6787.7
845.125,6696.56
846.219,6575.8
847.313,6562.02
848.407,6450.2
849.5,6432.38
850.593,6436.68
851.687,6392.32
852.78,6433.38
853.873,6341.58
854.966,6283.78
856.059,6214.68
857.151,6190.42
858.244,6293.34
859.336,6359.1
860.428,6396.44
861.52,6129.1
862.612,6152.08
863.704,6052.26
864.796,6079.36
865.888,5951.56
866.979,5946.64
868.07,5874.3
869.162,5887.04
870.253,5901.8
871.344,6074.98
872.434,6195.22
873.525,6171.98
874.615,5972.16
875.706,5800.32
876.796,5750.52
877.886,5700.42
878.976,5660.0
880.066,5638.62
881.156,5637.64
882.245,5571.18
883.335,5540.98
884.424,5554.62
885.513,5543.48
886.602,5535.52
887.691,5445.98
888.78,5366.22
889.868,5369.38
890.957,5336.42
892.045,5335.7
893.133,5312.84
894.221,5242.8
895.309,5209.58
896.397,5202.84
897.484,5414.56
898.571,5857.16
899.659,5515.02
900.746,5114.94
901.833,5018.22
902.92,4986.6
904.006,5012.8
905.093,4963.88
906.179,5123.32
907.266,5387.46
908.352,5373.78
909.438,5121.3
910.523,4917.52
911.609,4816.34
912.695,4769.78
913.78,4749.68
914.865,4709.74
915.95,4704.14
917.035,4663.14
918.12,4662.1
919.204,4638.42
920.289,4576.9
921.373,4616.14
922.457,4541.92
923.541,4538.16
924.625,4515.52
925.709,4512.64
926.792,4477.96
927.876,4444.64
928.959,4413.1
930.042,4394.66
931.125,4363.66
932.208,4350.12
933.29,4335.46
934.373,4319.86
935.455,4292.88
936.537,4283.86
937.619,4262.88
938.701,4239.76
939.782,4231.28
940.864,4222.66
941.945,4203.28
943.026,4179.6
944.107,4174.74
945.188,4165.98
946.269,4153.38
947.349,4141.14
948.43,4119.8
949.51,4112.6
950.59,4102.02
951.67,4085.48
952.75,4082.18
953.829,4068.46
954.909,4055.3
955.988,4035.98
957.067,4042.22
958.146,4030.76
959.224,4020.2
960.303,4007.42
961.381,3994.06
962.459,3996.4
963.537,3981.92
964.615,3968.34
965.693,3966.6
966.771,3965.4
967.848,3947.88
968.925,3947.04
970.002,3938.76
971.079,3928.34
972.156,3927.82
973.232,3920.52
974.309,3912.14
975.385,3899.64
976.461,3904.24
977.537,3893.72
978.612,3887.64
979.688,3882.86
980.763,3879.66
981.838,3877.76
982.913,3869.5
983.988,3865.06
985.063,3865.16
986.137,3856.94
987.211,3852.4
988.285,3848.6
989.359,3848.74
990.433,3842.64
991.506,3838.14
992.58,3835.4
993.653,3829.0
994.726,3821.3
995.799,3821.84
996.872,3815.94
997.944,3816.38
999.016,3812.06
1000.09,3810.26
1001.16,3805.04
1002.23,3800.48
1003.3,3799.52
1004.38,3797.64
1005.45,3792.54
1006.52,3790.52
1007.59,3787.34
1008.66,3785.14
1009.73,3783.58
1010.8,3780.58
1011.87,3779.02
1012.94,3775.44
1014.01,3777.1
1015.08,3775.34
1016.15,3775.14
1017.22,3772.38
1018.29,3770.7
1019.36,3770.1
1020.42,3768.4
1021.49,3773.62
1022.56,3777.22
1023.63,3775.96
1024.7,3769.74
1025.76,3764.34
1026.83,3761.14
1027.9,3757.64
1028.97,3755.08
1030.03,3752.64
1031.1,3749.54
1032.17,3750.18
1033.23,3752.12
1034.3,3755.98
1035.36,3756.12
1036.43,3754.68
1037.5,3751.6
1038.56,3745.74
1039.63,3744.28
1040.69,3742.7
1041.76,3741.46
1042.82,3741.54
1043.89,3740.54
1044.95,3738.98
1046.01,3737.94
1047.08,3738.82
1048.14,3738.82
1049.2,3736.72
1050.27,3736.52
1051.33,3738.02
1052.39,3737.0
1053.46,3737.28
1054.52,3736.42
1055.58,3735.94
1056.64,3735.66
1057.7,3734.8
1058.77,3735.28
1059.83,3735.54
1060.89,3734.34
1061.95,3735.2
1063.01,3734.78
1064.07,3735.04
1065.13,3734.02
1066.19,3733.8
1067.25,3733.3
1068.05,3733.14