File: spectra/VLFR_06-PET_nobio_Raman_dfe79c16.csv
nm,Intensity
526.508,828.6
527.055,831.9
527.602,829.0
528.149,829.8
528.695,828.8
529.241,830.4
529.787,829.7
530.334,829.9
530.879,829.0
531.425,830.2
531.971,834.5
532.516,830.9
533.062,829.5
533.607,839.5
534.152,2450.0
534.697,2012.2
535.242,1551.0
535.786,1270.1
536.331,1097.0
536.876,1030.9
537.42,1003.4
537.964,986.3
538.508,997.0
539.052,993.4
539.596,1012.1
540.14,1022.8
540.683,969.4
541.227,951.1
541.77,941.4
542.313,945.1
542.856,946.3
543.399,940.6
543.942,959.5
544.485,948.7
545.027,948.8
545.57,953.2
546.112,953.1
546.654,953.5
547.196,962.2
547.738,963.6
548.28,965.7
548.822,960.3
549.363,963.3
549.905,960.6
550.446,995.4
550.988,999.8
551.529,976.6
552.07,979.9
552.611,993.2
553.152,1014.7
553.692,997.6
554.233,990.8
554.773,997.6
555.314,1024.5
555.854,1081.4
556.394,1088.7
556.934,1103.7
557.474,1289.5
558.014,1143.5
558.553,1136.1
559.093,1076.1
559.632,1033.1
560.172,1034.4
560.711,1038.7
561.25,1047.4
561.789,1048.5
562.328,1073.8
562.867,1092.2
563.406,1098.6
563.944,1073.3
564.483,1088.1
565.021,1151.7
565.559,1229.3
566.098,1240.1
566.636,1116.0
567.174,1097.6
567.711,1207.7
568.249,1112.0
568.787,1108.6
569.324,1111.4
569.862,1153.1
570.399,1211.2
570.936,1375.0
571.474,1539.3
572.011,1328.2
572.548,1180.7
573.084,1144.5
573.621,1154.9
574.158,1192.1
574.694,1169.5
575.231,1204.1
575.767,1174.0
576.303,1209.5
576.84,1234.2
577.376,1197.9
577.912,1179.2
578.447,1178.2
578.983,1190.3
579.519,1194.7
580.054,1193.7
580.59,1205.7
581.125,1236.1
581.661,1337.9
582.196,2902.9
582.731,1310.8
583.266,1245.6
583.801,1229.2
584.336,1244.2
584.87,1262.1
585.405,1393.5
585.94,2098.9
586.474,1780.6
587.008,1331.5
587.543,1270.1
588.077,1265.1
588.611,1265.7
589.145,1261.6
589.679,1266.7
590.213,1259.0
590.747,1255.0
591.28,1254.8
591.814,1265.0
592.347,1262.2
592.881,1270.2
593.414,1269.7
593.947,1265.0
594.48,1277.1
595.014,1282.5
595.547,1286.9
596.079,1287.8
596.612,1291.5
597.145,1289.5
597.678,1299.5
598.21,1297.3
598.743,1299.6
599.275,1305.2
599.807,1313.3
600.34,1302.7
600.872,1307.2
601.404,1307.0
601.936,1312.4
602.468,1308.1
603.0,1312.7
603.532,1313.1
604.063,1313.0
604.595,1307.7
605.126,1313.1
605.658,1307.2
606.189,1303.7
606.721,1308.2
607.252,1308.7
607.783,1312.8
608.314,1316.7
608.845,1308.9
609.376,1328.2
609.907,1317.3
610.438,1314.2
610.968,1319.1
611.499,1324.5
612.03,1330.3
612.56,1336.6
613.091,1349.2
613.621,1354.2
614.151,1352.1
614.681,1353.3
615.212,1347.5
615.742,1358.4
616.272,1353.4
616.802,1374.4
617.332,1367.6
617.861,1384.3
618.391,1395.7
618.921,1381.6
619.45,1378.7
619.98,1374.3
620.509,1379.2
621.039,1382.7
621.568,1390.5
622.097,1390.9
622.627,1398.1
623.156,1409.1
623.685,1411.6
624.214,1422.4
624.743,1432.8
625.272,1432.3
625.801,1436.0
626.33,1428.9
626.858,1447.9
627.387,1449.7
627.916,1452.9
628.444,1472.2
628.973,1523.3
629.501,1513.1
630.029,1502.1
630.558,1507.5
631.086,1593.0
631.614,1779.9
632.142,1752.6
632.67,1653.6
633.198,1635.0
633.726,1604.0
634.254,1585.4
634.782,1571.2
635.31,1592.5
635.838,1660.6
636.365,1825.8
636.893,1825.6
637.421,1648.9
637.948,1622.1
638.476,1619.9
639.003,1618.3
639.531,1609.0
640.058,1607.8
640.585,1629.0
641.113,1626.5
641.64,1641.3
642.167,1649.6
642.694,1666.3
643.221,1650.2
643.748,1634.5
644.275,1645.7
644.802,1647.5
645.329,1653.9
645.856,1662.1
646.382,1662.9
646.909,1680.8
647.436,1689.6
647.962,1684.5
648.489,1686.6
649.016,1690.9
649.542,1674.0
650.069,1701.7
650.595,1682.5
651.121,1697.7
651.648,1696.7
652.174,1708.7
652.7,1714.5
653.227,1711.4
653.753,1716.7
654.279,1721.3
654.805,1718.2
655.331,1725.1
655.857,1725.4
656.383,1722.0
656.909,1731.5
657.435,1735.4
657.961,1726.9
658.487,1739.1
659.013,1734.6
659.538,1731.0
660.064,1731.5
660.59,1726.2
661.116,1719.3
661.641,1721.3
662.167,1712.9
662.692,1731.3
663.087,1717.8