File: spectra/VLFR_08-PLA_nobio_Raman_cd8b90c7.csv
nm,Intensity
526.508,830.9
527.055,831.1
527.602,830.7
528.149,830.8
528.695,831.3
529.241,829.5
529.787,831.6
530.334,830.8
530.879,830.6
531.425,831.4
531.971,832.8
532.516,829.7
533.062,830.8
533.607,829.8
534.152,931.3
534.697,915.0
535.242,898.7
535.786,894.2
536.331,889.0
536.876,891.7
537.42,886.7
537.964,886.9
538.508,884.9
539.052,882.7
539.596,881.8
540.14,880.5
540.683,888.3
541.227,890.2
541.77,884.5
542.313,884.9
542.856,885.0
543.399,896.1
543.942,899.8
544.485,890.7
545.027,886.7
545.57,884.3
546.112,883.7
546.654,885.9
547.196,888.9
547.738,886.6
548.28,887.9
548.822,887.0
549.363,887.5
549.905,891.6
550.446,891.6
550.988,887.4
551.529,889.6
552.07,895.9
552.611,896.3
553.152,894.1
553.692,895.3
554.233,896.8
554.773,894.0
555.314,895.4
555.854,889.5
556.394,893.5
556.934,893.0
557.474,899.1
558.014,956.9
558.553,908.8
559.093,901.2
559.632,900.7
560.172,898.1
560.711,898.9
561.25,895.5
561.789,897.0
562.328,897.4
562.867,903.5
563.406,920.7
563.944,911.0
564.483,904.3
565.021,913.9
565.559,913.4
566.098,925.5
566.636,914.1
567.174,904.2
567.711,906.5
568.249,909.3
568.787,906.5
569.324,909.1
569.862,906.1
570.399,908.7
570.936,908.9
571.474,920.9
572.011,921.1
572.548,917.9
573.084,918.0
573.621,918.6
574.158,918.5
574.694,922.0
575.231,915.9
575.767,911.2
576.303,920.4
576.84,949.7
577.376,923.3
577.912,914.7
578.447,916.6
578.983,914.5
579.519,917.6
580.054,912.1
580.59,920.1
581.125,918.0
581.661,919.1
582.196,917.2
582.731,917.0
583.266,920.4
583.801,919.4
584.336,921.3
584.87,914.2
585.405,920.9
585.94,918.6
586.474,922.6
587.008,936.1
587.543,948.1
588.077,928.4
588.611,920.0
589.145,920.1
589.679,918.3
590.213,921.9
590.747,924.2
591.28,917.0
591.814,920.3
592.347,919.9
592.881,918.2
593.414,920.8
593.947,917.2
594.48,919.7
595.014,918.2
595.547,921.8
596.079,923.2
596.612,921.2
597.145,919.2
597.678,916.7
598.21,923.3
598.743,922.7
599.275,925.8
599.807,924.0
600.34,923.2
600.872,923.3
601.404,921.7
601.936,924.1
602.468,919.3
603.0,922.9
603.532,921.5
604.063,920.6
604.595,923.0
605.126,920.7
605.658,922.2
606.189,921.1
606.721,921.8
607.252,919.6
607.783,924.2
608.314,921.4
608.845,923.4
609.376,923.8
609.907,926.6
610.438,927.0
610.968,925.9
611.499,926.6
612.03,926.5
612.56,927.5
613.091,930.5
613.621,927.7
614.151,931.4
614.681,932.1
615.212,929.8
615.742,933.7
616.272,931.1
616.802,931.6
617.332,933.0
617.861,933.8
618.391,929.7
618.921,932.7
619.45,935.3
619.98,932.5
620.509,932.4
621.039,930.6
621.568,932.0
622.097,934.8
622.627,936.3
623.156,944.4
623.685,938.8
624.214,938.8
624.743,934.8
625.272,934.6
625.801,935.1
626.33,935.9
626.858,936.5
627.387,938.5
627.916,939.6
628.444,968.8
628.973,966.6
629.501,961.4
630.029,964.3
630.558,991.6
631.086,1149.3
631.614,1041.8
632.142,988.1
632.67,978.7
633.198,1020.1
633.726,1005.9
634.254,967.2
634.782,940.0
635.31,932.8
635.838,933.1
636.365,932.9
636.893,926.5
637.421,928.3
637.948,927.7
638.476,924.7
639.003,928.4
639.531,926.3
640.058,925.0
640.585,924.8
641.113,923.2
641.64,921.3
642.167,924.7
642.694,925.8
643.221,918.9
643.748,923.1
644.275,916.9
644.802,918.7
645.329,913.2
645.856,912.0
646.382,915.2
646.909,912.5
647.436,911.9
647.962,911.3
648.489,915.9
649.016,914.4
649.542,911.3
650.069,911.4
650.595,910.4
651.121,907.4
651.648,903.8
652.174,907.9
652.7,909.3
653.227,906.8
653.753,905.6
654.279,905.6
654.805,903.9
655.331,904.5
655.857,901.4
656.383,903.6
656.909,904.5
657.435,903.6
657.961,901.0
658.487,904.8
659.013,903.8
659.538,899.3
660.064,902.9
660.59,903.1
661.116,899.0
661.641,900.3
662.167,901.1
662.692,899.5
663.087,901.0