File: spectra/VLFR_08-PLA_bio_Raman_c5616893.csv
nm,Intensity
526.547,832.45
527.095,832.55
527.642,831.9
528.189,832.5
528.736,832.35
529.283,831.8
529.829,832.6
530.376,832.15
530.922,832.8
531.468,832.3
532.014,833.9
532.56,833.15
533.106,832.4
533.651,835.1
534.196,1003.7
534.742,962.1
535.287,938.5
535.832,921.6
536.376,919.8
536.921,916.65
537.465,906.7
538.01,905.1
538.554,895.95
539.098,896.85
539.642,889.6
540.186,889.45
540.729,903.2
541.273,904.55
541.816,894.15
542.36,892.05
542.903,893.15
543.446,913.75
543.988,925.3
544.531,900.95
545.074,895.5
545.616,894.3
546.158,896.1
546.701,915.25
547.243,898.25
547.785,893.0
548.326,894.0
548.868,896.8
549.41,898.8
549.951,901.1
550.492,904.7
551.034,901.65
551.575,905.5
552.116,908.4
552.656,911.45
553.197,910.75
553.738,908.85
554.278,910.15
554.819,906.4
555.359,900.3
555.899,900.25
556.439,900.65
556.979,902.9
557.519,913.8
558.058,1017.3
558.598,923.0
559.137,911.5
559.677,909.5
560.216,907.6
560.755,904.25
561.294,902.0
561.833,905.7
562.371,1019.25
562.91,914.0
563.449,936.8
563.987,919.45
564.525,910.7
565.064,931.9
565.602,925.4
566.14,955.2
566.678,928.7
567.216,909.35
567.753,913.2
568.291,913.8
568.828,914.0
569.366,913.3
569.903,913.65
570.44,914.05
570.977,914.05
571.514,932.3
572.051,928.2
572.588,924.1
573.125,925.95
573.661,930.8
574.198,925.9
574.734,938.65
575.271,921.95
575.807,921.6
576.343,941.5
576.879,986.9
577.415,939.75
577.951,923.25
578.486,922.7
579.022,922.1
579.557,923.5
580.093,923.35
580.628,923.65
581.164,922.8
581.699,922.1
582.234,922.6
582.769,927.6
583.304,927.6
583.838,924.75
584.373,928.75
584.908,924.0
585.442,926.1
585.977,927.8
586.511,937.75
587.045,965.5
587.58,984.9
588.114,941.95
588.648,928.95
589.182,925.35
589.715,922.9
590.249,922.25
590.783,924.65
591.316,918.3
591.85,921.8
592.383,921.9
592.917,919.2
593.45,918.75
593.983,918.05
594.516,919.6
595.049,920.35
595.582,919.55
596.115,921.05
596.648,919.55
597.18,918.6
597.713,921.15
598.245,921.7
598.778,920.9
599.31,922.4
599.842,923.9
600.375,921.05
600.907,920.45
601.439,922.75
601.971,921.1
602.503,921.45
603.034,921.0
603.566,922.55
604.098,921.9
604.629,919.65
605.161,920.1
605.692,920.2
606.224,921.45
606.755,920.65
607.286,922.85
607.817,920.3
608.348,921.75
608.879,922.15
609.41,922.7
609.941,921.25
610.472,920.3
611.002,923.0
611.533,920.5
612.063,922.7
612.594,922.8
613.124,923.45
613.655,924.4
614.185,926.15
614.715,924.8
615.245,921.6
615.775,925.35
616.305,924.35
616.835,920.45
617.365,924.9
617.895,920.8
618.425,919.75
618.954,920.95
619.484,921.5
620.013,921.35
620.543,919.75
621.072,919.25
621.602,919.8
622.131,919.85
622.66,925.55
623.189,931.9
623.718,926.1
624.247,923.6
624.776,919.25
625.305,917.55
625.834,915.3
626.363,917.4
626.891,916.55
627.42,920.5
627.949,929.15
628.477,982.25
629.006,970.25
629.534,965.85
630.062,976.65
630.591,1028.85
631.119,1349.05
631.647,1125.2
632.175,1023.25
632.703,1006.8
633.231,1080.8
633.759,1046.65
634.287,968.9
634.815,929.3
635.343,919.0
635.871,916.85
636.398,912.9
636.926,913.05
637.454,911.75
637.981,911.6
638.509,909.95
639.036,912.45
639.564,911.9
640.091,910.45
640.618,908.5
641.146,912.15
641.673,910.55
642.2,910.65
642.727,910.55
643.254,909.0
643.781,905.75
644.308,905.75
644.835,906.5
645.362,906.2
645.889,903.7
646.416,901.2
646.942,904.25
647.469,903.35
647.996,902.35
648.522,903.75
649.049,901.75
649.576,902.3
650.102,900.95
650.629,901.75
651.155,898.25
651.682,901.55
652.208,897.25
652.734,897.4
653.261,901.55
653.787,899.2
654.313,900.95
654.839,896.65
655.365,896.0
655.892,897.85
656.418,894.9
656.944,894.7
657.47,897.05
657.996,895.05
658.522,895.5
659.048,893.2
659.574,892.1
660.099,892.9
660.625,892.5
661.151,890.4
661.677,889.85
662.203,888.7
662.728,890.3
663.123,887.25