File: spectra/VLFR_09-PET_bio_Raman_04402ea5.csv
nm,Intensity
526.493,829.85
527.039,829.05
527.586,829.35
528.133,829.55
528.679,829.25
529.225,829.0
529.771,829.05
530.317,829.45
530.863,829.4
531.409,829.9
531.955,830.15
532.5,829.8
533.046,829.05
533.591,836.25
534.136,1832.85
534.681,1681.1
535.226,1503.95
535.771,1425.95
536.315,1350.6
536.86,1325.85
537.404,1305.25
537.948,1296.55
538.493,1305.45
539.037,1311.35
539.58,1318.0
540.124,1348.25
540.668,1324.4
541.211,1320.7
541.755,1316.9
542.298,1321.65
542.841,1334.4
543.384,1338.05
543.927,1347.75
544.47,1348.15
545.013,1361.0
545.555,1356.55
546.098,1366.9
546.64,1371.9
547.182,1377.4
547.724,1375.1
548.266,1392.45
548.808,1401.75
549.35,1401.85
549.892,1402.2
550.433,1426.25
550.974,1435.8
551.516,1424.35
552.057,1434.5
552.598,1438.65
553.139,1449.65
553.68,1439.95
554.22,1449.5
554.761,1459.45
555.301,1468.6
555.842,1493.05
556.382,1509.45
556.922,1520.05
557.462,1684.1
558.002,1584.0
558.542,1523.1
559.082,1504.2
559.621,1500.1
560.161,1512.7
560.7,1517.75
561.239,1533.15
561.778,1562.15
562.317,1593.4
562.856,1560.35
563.395,1559.65
563.934,1578.65
564.472,1617.0
565.011,1748.2
565.549,1706.7
566.088,1700.45
566.626,1618.15
567.164,1600.9
567.702,1680.4
568.24,1646.65
568.777,1631.2
569.315,1646.15
569.853,1669.35
570.39,1706.2
570.927,1875.5
571.465,2150.5
572.002,1856.8
572.539,1733.05
573.076,1712.85
573.612,1709.5
574.149,1722.6
574.686,1719.05
575.222,1761.95
575.759,1782.8
576.295,1750.3
576.831,1795.85
577.367,1779.5
577.903,1757.3
578.439,1760.55
578.975,1763.4
579.511,1766.95
580.046,1774.0
580.582,1787.7
581.117,1829.0
581.653,1953.85
582.188,3723.3
582.723,1934.05
583.258,1835.4
583.793,1813.35
584.328,1819.0
584.863,1836.85
585.398,1910.75
585.932,2631.1
586.467,2341.6
587.001,1913.5
587.535,1857.75
588.07,1844.15
588.604,1842.6
589.138,1833.05
589.672,1836.85
590.206,1836.85
590.739,1845.35
591.273,1843.55
591.807,1851.05
592.34,1849.4
592.873,1845.8
593.407,1852.6
593.94,1852.45
594.473,1862.4
595.006,1865.8
595.539,1877.65
596.072,1882.6
596.605,1885.9
597.138,1899.55
597.67,1897.9
598.203,1912.45
598.735,1908.75
599.268,1924.65
599.8,1928.0
600.332,1925.25
600.865,1920.2
601.397,1928.25
601.929,1920.85
602.46,1938.5
602.992,1946.5
603.524,1955.15
604.056,1963.1
604.587,1955.85
605.119,1946.45
605.65,1940.65
606.182,1947.25
606.713,1946.25
607.244,1969.65
607.775,1988.85
608.306,1987.4
608.837,2001.0
609.368,2010.35
609.899,2021.1
610.43,2012.55
610.961,2012.45
611.491,2027.8
612.022,2042.6
612.552,2066.45
613.083,2086.25
613.613,2104.5
614.143,2125.7
614.673,2138.85
615.203,2128.05
615.734,2140.45
616.263,2151.45
616.793,2163.9
617.323,2182.55
617.853,2206.05
618.383,2217.1
618.912,2218.4
619.442,2221.35
619.971,2233.4
620.501,2240.05
621.03,2235.3
621.56,2251.75
622.089,2274.6
622.618,2293.45
623.147,2310.85
623.676,2318.0
624.205,2333.2
624.734,2360.25
625.263,2362.45
625.792,2358.1
626.321,2371.8
626.849,2385.4
627.378,2385.8
627.906,2398.55
628.435,2429.0
628.963,2449.05
629.492,2476.2
630.02,2492.9
630.548,2481.4
631.077,2520.05
631.605,2578.15
632.133,2624.95
632.661,2571.8
633.189,2554.45
633.717,2554.45
634.245,2532.8
634.773,2528.5
635.3,2547.05
635.828,2608.25
636.356,2723.15
636.883,2713.55
637.411,2591.95
637.938,2583.05
638.466,2579.05
638.993,2570.7
639.521,2582.05
640.048,2590.85
640.575,2597.85
641.103,2596.75
641.63,2612.0
642.157,2620.2
642.684,2618.6
643.211,2581.3
643.738,2580.2
644.265,2569.6
644.792,2564.55
645.319,2572.4
645.845,2575.0
646.372,2572.65
646.899,2567.6
647.425,2581.05
647.952,2581.55
648.479,2565.7
649.005,2557.2
649.532,2554.7
650.058,2554.4
650.585,2539.65
651.111,2542.95
651.637,2536.7
652.164,2551.4
652.69,2554.55
653.216,2543.8
653.742,2547.6
654.268,2540.3
654.794,2531.05
655.32,2526.85
655.846,2522.85
656.372,2518.35
656.898,2527.35
657.424,2523.5
657.95,2510.8
658.476,2516.2
659.002,2507.6
659.528,2522.05
660.053,2506.1
660.579,2500.15
661.105,2486.15
661.63,2475.95
662.156,2459.6
662.681,2460.15
663.076,2462.35