File: spectra/VLFR_09-PET_bio_Raman_48d71573.csv
nm,Intensity
528.626,1863.3
529.132,1864.2
529.637,1864.2
530.143,1863.9
530.648,1865.0
531.153,1866.4
531.658,1896.5
532.164,4093.7
532.669,1864.6
533.174,1866.1
533.679,1901.5
534.184,2051.1
534.689,2063.2
535.194,2082.1
535.699,2097.2
536.203,2085.0
536.708,2081.3
537.213,2093.2
537.717,2101.6
538.222,2091.3
538.726,2096.9
539.231,2091.3
539.735,2113.3
540.239,2124.6
540.744,2116.0
541.248,2135.1
541.752,2137.9
542.256,2150.3
542.76,2151.2
543.264,2137.3
543.768,2156.9
544.272,2149.8
544.776,2163.2
545.28,2158.2
545.784,2162.7
546.287,2154.1
546.791,2175.1
547.294,2173.7
547.798,2166.8
548.301,2179.7
548.805,2168.8
549.308,2182.6
549.811,2181.6
550.315,2184.8
550.818,2206.2
551.321,2201.4
551.824,2210.5
552.327,2205.0
552.83,2194.7
553.333,2207.2
553.835,2209.5
554.338,2221.8
554.841,2216.2
555.343,2229.8
555.846,2227.9
556.349,2222.0
556.851,2233.3
557.353,2230.3
557.856,2237.9
558.358,2244.0
558.86,2226.4
559.362,2231.9
559.864,2242.3
560.366,2255.1
560.868,2250.1
561.37,2255.5
561.872,2255.6
562.374,2253.8
562.876,2267.4
563.377,2264.2
563.879,2270.8
564.38,2261.9
564.882,2272.1
565.383,2272.8
565.885,2261.0
566.386,2291.2
566.887,2280.4
567.388,2270.2
567.889,2291.2
568.391,2286.9
568.892,2287.4
569.392,2283.5
569.893,2292.3
570.394,2286.7
570.895,2275.7
571.395,2307.3
571.896,2315.3
572.397,2309.5
572.897,2299.1
573.397,2307.8
573.898,2306.1
574.398,2300.9
574.898,2312.5
575.398,2314.1
575.898,2302.3
576.398,2317.5
576.898,2308.4
577.398,2317.6
577.898,2312.2
578.398,2309.2
578.897,2316.1
579.397,2316.8
579.896,2337.1
580.396,2316.4
580.895,2326.3
581.395,2329.9
581.894,2343.7
582.393,2337.3
582.892,2324.7
583.391,2343.1
583.89,2341.1
584.389,2328.4
584.888,2335.3
585.387,2329.2
585.886,2345.6
586.384,2326.1
586.883,2324.4
587.381,2326.1
587.88,2332.8
588.378,2311.1
588.876,2307.3
589.375,2324.4
589.873,2316.7
590.371,2330.6
590.869,2332.4
591.367,2337.1
591.865,2318.4
592.363,2326.6
592.86,2353.7
593.358,2327.9
593.856,2320.9
594.353,2326.4
594.851,2333.7
595.348,2327.5
595.845,2337.6
596.342,2318.5
596.84,2323.3
597.337,2318.5
597.834,2325.2
598.331,2339.8
598.828,2334.2
599.324,2333.2
599.821,2339.7
600.318,2323.1
600.814,2346.9
601.311,2327.7
601.807,2327.6
602.304,2341.7
602.8,2328.5
603.296,2352.3
603.792,2329.8
604.288,2326.3
604.784,2330.3
605.28,2326.0
605.776,2339.2
606.272,2330.7
606.767,2337.0
607.263,2344.1
607.759,2340.3
608.254,2327.9
608.749,2334.1
609.245,2342.8
609.74,2329.6
610.235,2310.4
610.73,2331.2
611.225,2340.7
611.72,2329.9
612.215,2312.5
612.71,2330.0
613.204,2332.4
613.699,2308.1
614.194,2319.4
614.688,2341.4
615.182,2323.6
615.677,2318.3
616.171,2314.9
616.665,2335.1
617.159,2333.4
617.653,2347.2
618.147,2321.7
618.641,2315.3
619.135,2333.8
619.628,2333.9
620.122,2320.4
620.615,2331.1
621.109,2310.1
621.602,2336.4
622.095,2332.1
622.589,2327.7
623.082,2330.5
623.575,2324.9
624.068,2322.5
624.561,2314.3
625.053,2327.0
625.546,2322.6
626.039,2326.1
626.531,2323.8
627.024,2319.6
627.516,2322.0
628.008,2316.2
628.501,2316.9
628.993,2319.5
629.485,2322.5
629.977,2320.3
630.469,2309.7
630.96,2322.3
631.452,2311.7
631.944,2319.3
632.435,2294.3
632.927,2322.3
633.418,2336.0
633.91,2316.0
634.401,2305.4
634.892,2321.0
635.383,2310.9
635.874,2315.9
636.365,2325.3
636.856,2305.8
637.346,2309.2
637.837,2307.8
638.327,2315.3
638.818,2291.9
639.308,2287.2
639.799,2285.7
640.289,2309.3
640.779,2294.8
641.269,2283.1
641.759,2275.2
642.249,2284.5
642.738,2290.4
643.228,2280.7
643.718,2276.3
644.207,2271.1
644.697,2274.9
645.186,2280.8
645.675,2264.6
646.164,2264.4
646.653,2263.2
647.142,2246.3
647.631,2233.7
648.12,2262.7
648.609,2240.9
649.098,2245.8
649.586,2214.9
650.075,2235.8
650.563,2229.1
651.051,2246.5
651.539,2219.0
652.027,2218.1
652.515,2218.8
653.003,2227.2
653.491,2211.1
653.979,2197.1
654.467,2192.5
654.954,2194.2
655.442,2197.1
655.929,2190.6
656.416,2152.2
656.904,2191.4
657.391,2193.2
657.878,2195.8
658.365,2176.9
658.851,2165.9
659.338,2155.8
659.825,2151.6
660.311,2157.4
660.798,2150.3
661.041,2161.3