File: spectra/VLFR_01-LDPE_bio_Raman_fa2cb5eb.csv
nm,Intensity
528.637,1835.1
529.143,1835.4
529.648,1837.3
530.153,1836.8
530.659,1836.3
531.164,1839.7
531.669,1903.7
532.174,4940.6
532.679,1839.7
533.184,1842.5
533.689,2341.7
534.194,3700.0
534.699,3667.7
535.203,3572.1
535.708,3438.8
536.213,3295.0
536.717,3229.6
537.222,3167.7
537.726,3177.6
538.231,3152.0
538.735,3157.2
539.24,3137.6
539.744,3160.7
540.248,3172.3
540.752,3179.5
541.256,3147.0
541.761,3172.9
542.265,3215.7
542.769,3245.8
543.272,3234.7
543.776,3269.4
544.28,3282.4
544.784,3268.1
545.288,3300.1
545.791,3341.0
546.295,3330.8
546.798,3372.1
547.302,3448.7
547.805,3390.6
548.308,3451.1
548.812,3456.4
549.315,3424.8
549.818,3482.1
550.321,3445.7
550.824,3512.9
551.327,3541.2
551.83,3537.4
552.333,3585.4
552.836,3566.5
553.339,3561.5
553.842,3641.8
554.344,3658.7
554.847,3678.6
555.349,3666.2
555.852,3719.6
556.354,3684.6
556.857,3737.5
557.359,3777.2
557.861,3796.1
558.363,3860.5
558.866,3837.7
559.368,3860.9
559.87,3876.9
560.372,3842.9
560.873,3888.7
561.375,3893.5
561.877,3905.3
562.379,3942.2
562.88,3958.0
563.382,3954.4
563.883,4049.6
564.385,3949.5
564.886,4008.5
565.388,4027.3
565.889,4049.1
566.39,4032.4
566.891,3997.3
567.392,4011.8
567.893,4061.6
568.394,4093.8
568.895,4106.5
569.396,4114.0
569.897,4159.3
570.398,4178.8
570.898,4138.1
571.399,4285.2
571.899,4251.1
572.4,4276.4
572.9,4250.1
573.4,4160.2
573.901,4149.9
574.401,4189.7
574.901,4224.8
575.401,4240.8
575.901,4320.4
576.401,4416.5
576.901,4406.6
577.401,4310.0
577.9,4150.9
578.4,4170.9
578.9,4181.2
579.399,4238.8
579.899,4201.3
580.398,4306.6
580.897,4266.7
581.397,4354.1
581.896,4327.6
582.395,4341.1
582.894,4401.0
583.393,4491.8
583.892,4471.8
584.391,4446.9
584.889,4428.0
585.388,4332.1
585.887,4328.6
586.385,4455.0
586.884,4440.7
587.382,4556.4
587.881,4572.8
588.379,4586.1
588.877,4554.8
589.375,4659.8
589.874,4700.0
590.372,4729.1
590.87,4791.5
591.367,4792.0
591.865,4945.7
592.363,5013.0
592.861,5056.8
593.358,5161.9
593.856,5196.1
594.353,5248.3
594.851,5324.8
595.348,5418.0
595.845,5545.5
596.342,5708.3
596.84,5833.8
597.337,5894.9
597.833,6021.2
598.33,6093.2
598.827,6281.6
599.324,6370.4
599.821,6558.1
600.317,6617.2
600.814,6679.7
601.31,6847.8
601.807,6874.7
602.303,6954.9
602.799,7010.4
603.295,7046.7
603.791,7074.4
604.287,7041.8
604.783,7114.3
605.279,7189.5
605.775,7188.3
606.271,7149.3
606.766,7323.7
607.262,7237.0
607.757,7246.1
608.253,7188.2
608.748,7178.4
609.243,7128.4
609.738,7018.4
610.233,7184.9
610.729,7134.1
611.223,6973.2
611.718,7070.1
612.213,6937.7
612.708,6921.5
613.202,6949.1
613.697,6849.7
614.192,6802.3
614.686,6803.9
615.18,6636.3
615.675,6607.9
616.169,6541.4
616.663,6461.5
617.157,6377.7
617.651,6352.5
618.145,6211.6
618.638,6281.1
619.132,6137.2
619.626,6062.8
620.119,6104.8
620.613,5938.0
621.106,5999.9
621.599,5946.5
622.093,5915.0
622.586,5847.3
623.079,5743.5
623.572,5622.0
624.065,5719.6
624.558,5540.7
625.05,5556.6
625.543,5493.5
626.036,5452.6
626.528,5497.0
627.02,5919.3
627.513,5911.2
628.005,6000.6
628.497,6251.0
628.989,6010.8
629.481,6037.0
629.973,6054.8
630.465,6127.2
630.957,5901.0
631.449,5663.5
631.94,5458.2
632.432,5357.7
632.923,5164.1
633.414,5053.0
633.906,4872.9
634.397,4795.5
634.888,4731.1
635.379,4732.5
635.87,4799.8
636.361,4685.2
636.852,4560.4
637.342,4576.8
637.833,4505.6
638.323,4585.5
638.814,4541.6
639.304,4504.9
639.794,4447.1
640.285,4405.3
640.775,4431.8
641.265,4466.3
641.755,4405.8
642.244,4463.9
642.734,4385.7
643.224,4374.8
643.713,4456.0
644.203,4407.6
644.692,4361.6
645.181,4486.5
645.671,4417.6
646.16,4356.8
646.649,4330.6
647.138,4332.3
647.627,4285.4
648.115,4332.4
648.604,4201.4
649.093,4241.0
649.581,4251.3
650.07,4240.0
650.558,4304.7
651.046,4243.3
651.534,4254.8
652.023,4248.1
652.511,4168.0
652.998,4153.3
653.486,4030.5
653.974,4217.7
654.462,4012.3
654.949,4100.0
655.437,4104.5
655.924,4080.4
656.411,3977.2
656.898,4064.8
657.385,4039.5
657.872,3999.5
658.359,3904.2
658.846,3977.8
659.333,3825.8
659.82,3747.3
660.306,3825.9
660.793,3766.3
661.036,3811.2