File: spectra/VLFR_06-PET_nobio_Raman_8338e6c5.csv
nm,Intensity
526.5,830.7
527.047,829.4
527.594,830.5
528.14,829.1
528.687,829.7
529.233,830.4
529.779,832.5
530.325,830.5
530.871,831.4
531.417,830.5
531.962,834.9
532.508,833.3
533.053,830.3
533.599,848.8
534.144,3129.5
534.689,3339.6
535.234,3306.2
535.778,3443.7
536.323,3486.4
536.867,3516.9
537.412,3541.1
537.956,3619.7
538.5,3663.9
539.044,3687.1
539.588,3738.2
540.132,3775.5
540.675,3786.8
541.219,3855.0
541.762,3932.3
542.305,3957.1
542.848,4013.7
543.391,4073.1
543.934,4128.4
544.477,4159.7
545.02,4260.1
545.562,4274.6
546.105,4329.6
546.647,4377.1
547.189,4407.8
547.731,4436.9
548.273,4489.3
548.815,4562.7
549.356,4596.2
549.898,4646.1
550.439,4670.6
550.981,4749.8
551.522,4781.9
552.063,4830.5
552.604,4868.0
553.145,4910.4
553.686,4967.3
554.226,5030.6
554.767,5043.7
555.307,5052.2
555.848,5086.8
556.388,5140.1
556.928,5196.0
557.468,5223.8
558.008,5257.5
558.547,5259.4
559.087,5330.5
559.626,5391.8
560.166,5480.6
560.705,5508.3
561.244,5524.1
561.783,5544.8
562.322,5585.0
562.861,5703.1
563.4,5757.4
563.939,5843.3
564.477,5916.9
565.015,5979.9
565.554,6025.2
566.092,6062.6
566.63,6056.3
567.168,6052.5
567.706,6121.1
568.244,6169.5
568.781,6244.9
569.319,6361.7
569.857,6406.6
570.394,6453.1
570.931,6441.1
571.468,6485.4
572.005,6558.8
572.542,6639.6
573.079,6693.5
573.616,6800.3
574.153,6824.0
574.689,6875.0
575.226,6916.5
575.762,6962.7
576.298,6992.8
576.834,7024.0
577.371,7094.3
577.907,7160.8
578.442,7173.9
578.978,7252.0
579.514,7294.0
580.049,7326.0
580.585,7378.1
581.12,7403.2
581.656,7453.9
582.191,7499.2
582.726,7542.6
583.261,7589.1
583.796,7649.7
584.331,7684.0
584.865,7710.5
585.4,7740.9
585.935,7853.3
586.469,7913.7
587.004,7965.4
587.538,7986.3
588.072,7997.9
588.606,7994.4
589.14,7974.6
589.674,8002.4
590.208,8059.2
590.742,8126.1
591.275,8196.7
591.809,8218.7
592.342,8219.2
592.876,8188.5
593.409,8239.3
593.942,8238.7
594.476,8320.6
595.009,8346.8
595.542,8432.3
596.075,8485.4
596.607,8523.5
597.14,8560.6
597.673,8588.5
598.205,8682.4
598.738,8773.9
599.27,8788.7
599.803,8782.2
600.335,8797.7
600.867,8741.6
601.399,8765.0
601.931,8781.9
602.463,8859.4
602.995,8917.6
603.527,8909.7
604.058,8969.8
604.59,8923.4
605.122,8864.7
605.653,8792.1
606.184,8790.5
606.716,8788.6
607.247,8870.6
607.778,8972.8
608.309,8975.4
608.84,9030.7
609.371,9070.5
609.902,9066.9
610.433,9060.9
610.964,9061.3
611.494,9129.6
612.025,9212.3
612.556,9317.1
613.086,9405.4
613.616,9504.7
614.147,9534.3
614.677,9510.6
615.207,9507.5
615.737,9506.4
616.267,9489.1
616.797,9559.8
617.327,9621.5
617.857,9614.9
618.387,9637.7
618.917,9661.0
619.446,9683.2
619.976,9672.7
620.505,9669.5
621.035,9660.3
621.564,9695.0
622.093,9725.8
622.623,9764.0
623.152,9841.8
623.681,9886.2
624.21,9902.2
624.739,9913.0
625.268,9943.6
625.797,9917.9
626.326,9874.4
626.855,9922.7
627.383,9865.8
627.912,9899.3
628.441,9919.1
628.969,9936.5
629.498,9971.9
630.026,9953.6
630.554,9958.7
631.083,9972.8
631.611,10053.0
632.139,9984.7
632.667,9970.5
633.195,9975.8
633.724,9916.6
634.252,9909.5
634.779,9890.1
635.307,9939.5
635.835,9980.0
636.363,10006.9
636.891,10014.8
637.418,9982.9
637.946,9994.0
638.474,10018.7
639.001,10015.4
639.529,9994.0
640.056,9983.2
640.583,9959.4
641.111,9980.9
641.638,10005.8
642.165,9979.5
642.692,9910.0
643.22,9873.9
643.747,9814.9
644.274,9743.9
644.801,9705.5
645.328,9696.8
645.854,9718.0
646.381,9688.3
646.908,9716.8
647.435,9760.7
647.962,9712.5
648.488,9686.5
649.015,9634.8
649.542,9646.1
650.068,9575.5
650.595,9554.6
651.121,9576.7
651.648,9560.6
652.174,9601.4
652.7,9591.8
653.227,9613.0
653.753,9563.2
654.279,9598.0
654.805,9540.9
655.331,9495.3
655.858,9553.9
656.384,9549.6
656.91,9580.0
657.436,9588.4
657.962,9569.7
658.488,9629.7
659.013,9613.0
659.539,9621.7
660.065,9633.0
660.591,9595.7
661.117,9512.3
661.642,9496.7
662.168,9461.9
662.694,9475.1
663.088,9429.8