File: spectra/VLFR_06-PET_bio_Raman_7c93d14b.csv
nm,Intensity
528.635,1842.0
529.14,1840.8
529.645,1842.7
530.151,1842.2
530.656,1843.8
531.161,1844.1
531.666,1892.7
532.171,3775.4
532.676,1847.8
533.181,1868.0
533.686,4568.1
534.191,11180.2
534.696,8725.6
535.201,6546.1
535.705,4815.8
536.21,3797.9
536.715,3452.4
537.219,3271.6
537.724,3126.1
538.228,3203.9
538.733,3210.5
539.237,3213.7
539.741,3460.6
540.246,3226.6
540.75,3032.3
541.254,2920.9
541.758,2882.8
542.262,2900.5
542.766,2960.1
543.27,2962.5
543.774,3015.4
544.278,2978.4
544.781,3013.7
545.285,3022.4
545.789,3049.3
546.292,3082.8
546.796,3111.9
547.299,3139.9
547.803,3161.8
548.306,3186.2
548.809,3185.4
549.313,3192.9
549.816,3242.2
550.319,3450.3
550.822,4140.3
551.325,3340.4
551.828,3369.3
552.331,3416.9
552.834,4014.6
553.337,3471.7
553.839,3556.1
554.342,3533.5
554.845,3586.6
555.347,3869.4
555.85,4315.9
556.352,4400.4
556.854,4488.4
557.357,5829.2
557.859,5104.7
558.361,4785.4
558.863,4393.6
559.365,4030.0
559.867,3989.7
560.369,3969.6
560.871,4016.9
561.373,4198.8
561.875,4253.5
562.377,4360.4
562.878,4549.3
563.38,4475.7
563.881,4407.7
564.383,4489.3
564.884,4969.6
565.386,5632.0
565.887,5958.0
566.388,5002.7
566.889,4559.8
567.391,5016.6
567.892,5272.3
568.393,4723.7
568.893,4794.2
569.394,4881.0
569.895,5136.4
570.396,5771.4
570.897,7330.6
571.397,8282.9
571.898,6631.3
572.398,5506.3
572.899,5226.3
573.399,5264.9
573.899,5428.4
574.399,5335.6
574.9,5434.6
575.4,5858.1
575.9,5427.5
576.4,5915.5
576.899,5891.0
577.399,5495.5
577.899,5477.0
578.399,5534.3
578.898,5475.7
579.398,5596.7
579.897,5628.5
580.397,5787.8
580.896,5999.6
581.396,6316.8
581.895,12222.4
582.394,11104.9
582.893,6152.1
583.392,5971.9
583.891,6136.8
584.39,6115.6
584.889,6287.2
585.387,7936.3
585.886,12676.3
586.385,10152.3
586.883,6739.3
587.382,6356.0
587.88,6233.6
588.379,6171.1
588.877,6168.2
589.375,6212.0
589.873,6272.1
590.371,6141.0
590.869,6178.7
591.367,6206.8
591.865,6325.4
592.363,6298.3
592.86,6245.3
593.358,6349.0
593.856,6291.5
594.353,6431.3
594.851,6389.9
595.348,6358.3
595.845,6489.7
596.342,6468.1
596.84,6471.5
597.337,6454.8
597.834,6488.1
598.331,6432.2
598.827,6544.8
599.324,6490.3
599.821,6554.7
600.318,6563.2
600.814,6560.4
601.311,6670.3
601.807,6536.6
602.303,6676.5
602.8,6674.6
603.296,6661.9
603.792,6677.5
604.288,6475.6
604.784,6704.5
605.28,6619.0
605.776,6644.9
606.272,6742.5
606.767,6759.7
607.263,6649.4
607.758,6692.5
608.254,6705.9
608.749,6773.7
609.244,6800.6
609.74,6792.4
610.235,6749.0
610.73,6825.9
611.225,6675.4
611.72,6769.9
612.215,6705.8
612.709,6759.6
613.204,6765.9
613.699,6797.7
614.193,6856.3
614.688,6843.8
615.182,6857.6
615.676,6806.5
616.171,7067.5
616.665,6903.5
617.159,6938.1
617.653,6959.5
618.147,6983.7
618.641,7107.1
619.134,7056.8
619.628,7114.2
620.122,7056.2
620.615,6941.7
621.109,7147.5
621.602,7158.6
622.095,7086.4
622.588,7259.8
623.082,7220.6
623.575,7200.9
624.068,7358.7
624.56,7402.5
625.053,7385.9
625.546,7324.9
626.039,7297.1
626.531,7304.2
627.024,7372.6
627.516,7484.9
628.008,7554.4
628.501,7700.4
628.993,7869.0
629.485,8206.8
629.977,7952.4
630.469,7854.0
630.961,8491.4
631.452,9589.5
631.944,9844.8
632.436,9352.1
632.927,8946.5
633.418,8945.9
633.91,8636.2
634.401,8276.4
634.892,8455.2
635.383,8465.1
635.874,9017.5
636.365,10646.2
636.856,9630.3
637.347,8907.0
637.837,8600.7
638.328,8584.0
638.818,8471.8
639.309,8356.1
639.799,8516.1
640.289,8492.4
640.78,8396.3
641.27,8486.1
641.76,8510.5
642.249,8638.0
642.739,8588.5
643.229,8346.3
643.719,8697.1
644.208,8703.1
644.698,8548.3
645.187,8556.2
645.676,8576.8
646.165,8405.8
646.655,8432.4
647.144,8548.1
647.633,8600.8
648.121,8692.3
648.61,8524.4
649.099,8764.1
649.587,8348.9
650.076,8353.6
650.564,8707.0
651.053,8478.1
651.541,8182.6
652.029,8189.0
652.517,8120.6
653.005,8070.3
653.493,7988.1
653.981,8196.3
654.468,7937.3
654.956,7974.7
655.444,7876.8
655.931,7991.1
656.418,7735.7
656.906,7753.1
657.393,7707.6
657.88,7642.2
658.367,7508.9
658.854,7571.2
659.341,7262.5
659.827,7187.2
660.314,7203.1
660.8,7077.6
661.044,7142.0