File: spectra/VLFR_07-PET_bio_Raman_ee239477.csv
nm,Intensity
791.496,10837.4
792.594,10136.2
793.692,9718.0
794.79,9609.8
795.888,9467.9
796.986,9496.5
798.083,9419.4
799.181,9394.3
800.278,9348.1
801.375,9370.4
802.473,9349.4
803.57,9077.8
804.667,9061.0
805.764,8991.7
806.86,8891.2
807.957,8786.2
809.054,8750.1
810.15,8624.9
811.246,8523.2
812.343,8544.6
813.439,8524.5
814.535,8376.0
815.631,8366.0
816.727,8234.3
817.822,8191.3
818.918,8066.5
820.013,7966.9
821.109,7940.5
822.204,7879.5
823.299,7806.7
824.394,7753.3
825.489,7905.6
826.584,7649.0
827.679,7585.9
828.774,7536.0
829.868,7549.4
830.963,7414.3
832.057,7286.4
833.151,7238.6
834.245,7206.6
835.339,7153.0
836.433,7205.7
837.527,7166.2
838.621,7151.2
839.714,7147.2
840.808,7366.5
841.901,7150.9
842.994,6994.2
844.087,6858.7
845.18,6759.7
846.273,6651.8
847.366,6661.8
848.458,6576.7
849.551,6569.2
850.643,6503.3
851.735,6560.7
852.828,6473.1
853.92,6366.3
855.012,6398.2
856.103,6352.5
857.195,6300.1
858.287,6395.3
859.378,6436.7
860.469,6414.1
861.56,6186.5
862.651,6124.9
863.742,6161.2
864.833,6168.3
865.924,6080.1
867.014,6016.6
868.105,5968.2
869.195,5983.0
870.285,6043.0
871.376,6073.4
872.465,6227.1
873.555,6091.3
874.645,5980.2
875.735,5868.5
876.824,5796.1
877.913,5770.3
879.002,5690.6
880.092,5701.4
881.18,5665.3
882.269,5721.4
883.358,5585.5
884.446,5581.1
885.535,5612.6
886.623,5547.3
887.711,5457.2
888.799,5423.1
889.887,5451.4
890.975,5397.1
892.062,5410.2
893.15,5345.1
894.237,5277.1
895.325,5298.8
896.412,5315.4
897.499,5628.3
898.585,5658.1
899.672,5317.5
900.759,5140.4
901.845,5082.4
902.931,5057.1
904.017,5066.3
905.103,5062.3
906.189,5199.3
907.275,5358.9
908.361,5215.8
909.446,5003.6
910.531,4878.6
911.616,4844.7
912.701,4828.7
913.786,4779.5
914.871,4746.6
915.956,4707.6
917.04,4693.8
918.124,4676.1
919.209,4632.0
920.293,4619.1
921.376,4578.2
922.46,4566.1
923.544,4533.5
924.627,4515.8
925.711,4475.5
926.794,4453.7
927.877,4446.7
928.96,4414.3
930.042,4392.6
931.125,4376.8
932.207,4371.9
933.29,4336.1
934.372,4320.4
935.454,4309.6
936.536,4293.5
937.617,4256.6
938.699,4261.0
939.78,4230.3
940.861,4216.3
941.943,4191.0
943.023,4182.8
944.104,4168.6
945.185,4145.9
946.265,4140.8
947.346,4122.4
948.426,4109.0
949.506,4086.4
950.586,4094.4
951.665,4070.9
952.745,4057.6
953.824,4039.9
954.904,4041.0
955.983,4023.0
957.062,4018.0
958.141,4006.6
959.219,3994.4
960.298,3984.0
961.376,3976.9
962.454,3957.6
963.532,3956.1
964.61,3943.4
965.688,3948.7
966.765,3939.5
967.842,3930.9
968.92,3922.6
969.997,3906.1
971.074,3907.0
972.15,3897.2
973.227,3892.4
974.303,3887.0
975.379,3885.5
976.455,3876.3
977.531,3862.0
978.607,3859.1
979.683,3856.2
980.758,3849.8
981.833,3845.6
982.908,3838.7
983.983,3833.4
985.058,3830.4
986.133,3829.2
987.207,3820.5
988.281,3821.2
989.355,3813.8
990.429,3811.8
991.503,3801.8
992.577,3797.0
993.65,3803.0
994.723,3792.4
995.796,3791.0
996.869,3787.7
997.942,3786.2
999.014,3779.1
1000.09,3779.5
1001.16,3776.7
1002.23,3773.1
1003.3,3768.6
1004.37,3770.2
1005.45,3768.6
1006.52,3761.9
1007.59,3760.1
1008.66,3755.4
1009.73,3754.1
1010.8,3753.1
1011.87,3753.4
1012.94,3751.4
1014.01,3749.0
1015.08,3748.1
1016.15,3746.9
1017.22,3745.8
1018.29,3744.3
1019.36,3743.1
1020.43,3744.1
1021.5,3744.5
1022.57,3744.4
1023.64,3744.3
1024.7,3740.8
1025.77,3733.7
1026.84,3736.1
1027.91,3734.7
1028.97,3727.1
1030.04,3726.6
1031.11,3728.9
1032.18,3726.8
1033.24,3729.6
1034.31,3728.0
1035.38,3728.2
1036.44,3728.1
1037.51,3722.3
1038.58,3719.5
1039.64,3721.2
1040.71,3718.9
1041.77,3717.6
1042.84,3718.3
1043.9,3716.5
1044.97,3715.9
1046.03,3716.6
1047.1,3715.7
1048.16,3714.7
1049.22,3712.4
1050.29,3715.6
1051.35,3713.2
1052.42,3714.6
1053.48,3714.2
1054.54,3711.1
1055.61,3713.2
1056.67,3711.8
1057.73,3710.4
1058.79,3713.7
1059.86,3710.5
1060.92,3711.4
1061.98,3711.7
1063.04,3713.5
1064.1,3712.1
1065.16,3711.4
1066.22,3710.1
1067.29,3711.9
1068.08,3710.6