File: spectra/VLFR_07-PET_nobio_Raman_ce72a2e1.csv
nm,Intensity
791.588,8153.8
792.685,7736.4
793.781,7709.6
794.878,7598.0
795.975,7560.9
797.071,7549.1
798.168,7506.9
799.264,7552.8
800.36,7510.4
801.456,7451.8
802.552,7479.4
803.648,7315.3
804.744,7342.4
805.84,7286.2
806.936,7240.4
808.031,7199.1
809.127,7193.7
810.222,7132.0
811.317,7078.7
812.412,7060.8
813.507,7022.6
814.602,6996.3
815.697,6907.1
816.792,6848.5
817.887,6820.3
818.981,6815.3
820.076,6709.6
821.17,6663.6
822.265,6687.2
823.359,6589.7
824.453,6564.7
825.547,6519.8
826.641,6501.4
827.735,6454.9
828.828,6376.4
829.922,6328.5
831.016,6332.5
832.109,6262.3
833.202,6199.2
834.295,6151.4
835.388,6176.8
836.481,6141.6
837.574,6126.0
838.667,6105.6
839.76,6070.3
840.852,6125.5
841.945,6129.6
843.037,6043.2
844.129,5956.1
845.221,5894.1
846.314,5916.7
847.405,5867.0
848.497,5836.7
849.589,5811.3
850.681,5789.7
851.772,5789.6
852.863,5796.5
853.955,5736.6
855.046,5704.1
856.137,5745.3
857.228,5710.5
858.318,5650.7
859.409,5730.8
860.5,5689.0
861.59,5620.2
862.681,5579.2
863.771,5587.3
864.861,5591.7
865.951,5530.3
867.041,5489.3
868.131,5428.5
869.22,5473.9
870.31,5492.4
871.399,5479.7
872.488,5559.9
873.578,5527.7
874.667,5479.6
875.756,5385.1
876.845,5371.1
877.933,5302.6
879.022,5315.3
880.11,5298.0
881.199,5261.1
882.287,5248.1
883.375,5245.5
884.463,5248.6
885.551,5217.1
886.639,5154.8
887.726,5189.8
888.814,5139.0
889.901,5107.1
890.988,5073.7
892.075,5077.6
893.162,5035.2
894.249,4999.0
895.336,4971.4
896.423,4989.2
897.509,5072.2
898.595,5226.7
899.682,5061.8
900.768,4913.4
901.854,4822.0
902.94,4837.2
904.025,4836.4
905.111,4802.9
906.196,4848.8
907.282,4980.8
908.367,4931.4
909.452,4851.6
910.537,4720.0
911.622,4673.5
912.706,4663.8
913.791,4626.8
914.875,4604.8
915.959,4603.9
917.044,4560.6
918.128,4548.2
919.211,4528.3
920.295,4526.9
921.379,4484.2
922.462,4486.0
923.546,4464.4
924.629,4432.5
925.712,4408.2
926.795,4411.0
927.877,4374.2
928.96,4358.5
930.043,4337.2
931.125,4320.1
932.207,4307.6
933.289,4301.8
934.371,4271.2
935.453,4249.5
936.535,4259.2
937.616,4216.3
938.697,4215.7
939.779,4219.4
940.86,4191.9
941.941,4181.3
943.022,4163.2
944.102,4144.1
945.183,4142.3
946.263,4127.8
947.343,4123.2
948.423,4104.8
949.503,4093.9
950.583,4089.7
951.663,4079.0
952.742,4055.8
953.822,4057.6
954.901,4042.9
955.98,4045.4
957.059,4022.4
958.137,4019.2
959.216,4015.1
960.294,3999.7
961.373,3991.7
962.451,3985.3
963.529,3980.1
964.607,3978.0
965.684,3962.1
966.762,3969.1
967.839,3953.4
968.917,3949.8
969.994,3945.3
971.071,3939.1
972.147,3928.8
973.224,3924.8
974.3,3913.7
975.377,3913.3
976.453,3907.7
977.529,3902.7
978.605,3894.3
979.68,3893.4
980.756,3886.0
981.831,3888.6
982.907,3885.0
983.982,3880.1
985.057,3876.7
986.131,3874.4
987.206,3864.4
988.28,3863.1
989.355,3859.7
990.429,3856.2
991.503,3850.7
992.576,3850.3
993.65,3840.7
994.723,3840.5
995.797,3839.0
996.87,3836.5
997.943,3834.5
999.016,3831.0
1000.09,3832.9
1001.16,3823.3
1002.23,3825.7
1003.31,3817.3
1004.38,3815.1
1005.45,3815.8
1006.52,3813.9
1007.59,3814.9
1008.66,3806.9
1009.73,3808.7
1010.81,3807.4
1011.88,3801.6
1012.95,3804.0
1014.02,3799.6
1015.09,3793.9
1016.16,3799.3
1017.23,3793.6
1018.3,3796.5
1019.37,3790.6
1020.44,3793.3
1021.51,3791.0
1022.58,3798.1
1023.64,3793.8
1024.71,3786.7
1025.78,3786.6
1026.85,3783.7
1027.92,3783.7
1028.99,3779.5
1030.05,3775.9
1031.12,3778.7
1032.19,3774.6
1033.26,3776.7
1034.32,3778.4
1035.39,3778.4
1036.46,3777.4
1037.52,3773.2
1038.59,3773.1
1039.66,3772.1
1040.72,3770.3
1041.79,3766.4
1042.86,3767.3
1043.92,3766.8
1044.99,3766.6
1046.05,3765.8
1047.12,3765.0
1048.18,3766.4
1049.25,3766.9
1050.31,3764.9
1051.37,3764.8
1052.44,3765.0
1053.5,3762.9
1054.57,3761.8
1055.63,3763.6
1056.69,3763.0
1057.76,3760.7
1058.82,3762.2
1059.88,3761.3
1060.95,3763.0
1062.01,3761.6
1063.07,3761.8
1064.13,3762.0
1065.19,3760.6
1066.26,3759.4
1067.32,3760.8
1068.11,3761.8