File: spectra/VLFR_02-HDPE_bio_Raman_ebeda7c1.csv
nm,Intensity
526.494,833.7
527.041,833.1
527.588,834.5
528.135,834.4
528.682,833.5
529.229,834.5
529.775,834.5
530.321,833.4
530.868,834.0
531.414,834.6
531.96,845.9
532.506,836.7
533.051,833.5
533.597,834.3
534.142,879.6
534.687,876.9
535.232,875.0
535.777,861.5
536.322,859.9
536.867,859.3
537.411,857.9
537.956,857.8
538.5,854.8
539.044,854.1
539.588,853.4
540.132,853.5
540.676,853.2
541.22,851.0
541.763,849.9
542.306,854.7
542.85,853.8
543.393,852.4
543.936,854.0
544.479,850.6
545.021,853.5
545.564,852.0
546.106,853.3
546.649,853.6
547.191,850.1
547.733,855.0
548.275,852.9
548.817,853.7
549.359,855.1
549.9,855.1
550.442,853.0
550.983,853.5
551.524,854.6
552.066,854.0
552.607,853.2
553.148,855.9
553.688,857.3
554.229,857.2
554.77,854.8
555.31,854.7
555.85,857.8
556.39,855.9
556.931,857.1
557.471,858.3
558.01,860.5
558.55,861.1
559.09,860.6
559.629,858.7
560.169,859.7
560.708,859.7
561.247,856.8
561.786,857.7
562.325,860.0
562.864,862.6
563.403,865.3
563.941,915.1
564.48,874.5
565.018,872.9
565.557,867.8
566.095,904.8
566.633,868.7
567.171,867.5
567.709,867.6
568.247,864.1
568.784,863.8
569.322,862.4
569.859,866.0
570.397,867.9
570.934,870.1
571.471,965.2
572.008,879.9
572.545,873.3
573.082,866.0
573.619,870.2
574.155,872.5
574.692,867.9
575.228,875.4
575.765,894.5
576.301,989.1
576.837,937.0
577.373,921.3
577.909,884.9
578.445,876.0
578.981,879.3
579.516,881.1
580.052,882.2
580.587,884.3
581.123,889.1
581.658,886.3
582.193,890.4
582.728,892.4
583.263,893.3
583.798,894.0
584.333,900.8
584.868,896.0
585.402,901.6
585.937,902.6
586.471,903.1
587.005,913.5
587.54,914.2
588.074,914.2
588.608,917.1
589.142,911.8
589.676,921.6
590.21,919.4
590.743,922.2
591.277,924.9
591.81,922.6
592.344,926.4
592.877,925.4
593.411,922.7
593.944,927.3
594.477,926.0
595.01,926.1
595.543,928.2
596.076,929.9
596.608,930.3
597.141,933.8
597.674,938.9
598.206,938.6
598.739,937.5
599.271,936.6
599.803,936.3
600.335,940.8
600.868,939.2
601.4,935.4
601.931,942.0
602.463,939.8
602.995,936.1
603.527,939.2
604.058,931.7
604.59,930.6
605.121,929.9
605.653,924.8
606.184,921.1
606.715,923.2
607.246,920.4
607.778,918.3
608.309,919.2
608.839,919.6
609.37,918.9
609.901,915.9
610.432,914.2
610.962,912.3
611.493,915.0
612.023,908.2
612.554,913.1
613.084,910.1
613.614,912.3
614.145,910.4
614.675,913.7
615.205,912.7
615.735,906.8
616.265,911.0
616.795,910.4
617.324,912.7
617.854,913.8
618.384,912.9
618.913,912.3
619.443,911.7
619.972,912.6
620.502,912.2
621.031,915.6
621.56,930.9
622.089,953.6
622.618,955.2
623.147,920.6
623.676,911.7
624.205,909.3
624.734,910.2
625.263,910.2
625.792,919.1
626.32,946.3
626.849,1183.0
627.377,1546.1
627.906,1249.1
628.434,1436.7
628.963,1306.7
629.491,1202.6
630.019,1102.9
630.547,1082.8
631.076,980.7
631.604,922.2
632.132,908.6
632.66,905.5
633.188,904.9
633.715,901.9
634.243,900.7
634.771,899.4
635.299,896.2
635.826,896.7
636.354,898.7
636.881,892.3
637.409,893.1
637.936,893.2
638.464,890.6
638.991,889.3
639.518,890.5
640.045,889.9
640.573,892.3
641.1,888.9
641.627,888.3
642.154,886.6
642.681,887.2
643.208,888.8
643.735,893.0
644.261,887.3
644.788,888.6
645.315,889.0
645.842,887.2
646.368,890.5
646.895,887.3
647.421,885.3
647.948,885.7
648.474,888.1
649.001,885.5
649.527,884.0
650.054,888.6
650.58,886.6
651.106,886.7
651.633,881.9
652.159,888.7
652.685,886.1
653.211,888.3
653.737,883.6
654.263,886.5
654.789,881.9
655.315,883.8
655.841,880.5
656.367,881.2
656.893,882.0
657.419,880.7
657.945,884.1
658.47,882.7
658.996,883.2
659.522,885.0
660.047,884.0
660.573,881.6
661.099,881.2
661.624,877.0
662.15,878.2
662.675,876.1
663.07,874.8