File: spectra/VLFR_06-PET_bio_Raman_07ff2dc8.csv
nm,Intensity
528.626,1863.77
529.132,1863.7
529.637,1863.77
530.143,1863.17
530.648,1864.57
531.153,1868.03
531.658,1912.8
532.164,4550.03
532.669,1867.4
533.174,1869.6
533.679,2572.3
534.184,4539.73
534.689,3921.3
535.194,3463.67
535.699,3098.07
536.203,2879.3
536.708,2807.83
537.213,2772.4
537.717,2791.03
538.222,2811.53
538.726,2808.1
539.231,2851.17
539.735,2902.23
540.239,2859.9
540.744,2820.9
541.248,2847.47
541.752,2826.57
542.256,2859.5
542.76,2891.57
543.264,2902.5
543.768,2913.37
544.272,2909.63
544.776,2933.57
545.28,2899.9
545.784,2933.8
546.287,2963.13
546.791,2994.9
547.294,2999.07
547.798,3031.77
548.301,3029.8
548.805,3063.83
549.308,3068.8
549.811,3087.5
550.315,3120.27
550.818,3312.97
551.321,3141.03
551.824,3207.77
552.327,3169.3
552.83,3263.47
553.333,3196.07
553.835,3225.53
554.338,3238.63
554.841,3295.23
555.343,3316.93
555.846,3447.6
556.349,3452.8
556.851,3482.3
557.353,3701.67
557.856,3622.63
558.358,3552.23
558.86,3514.9
559.362,3443.37
559.864,3440.8
560.366,3429.4
560.868,3453.63
561.37,3498.7
561.872,3567.7
562.374,3680.87
562.876,3596.1
563.377,3594.7
563.879,3594.83
564.38,3597.6
564.882,3767.37
565.383,3888.2
565.885,3985.47
566.386,3742.2
566.887,3696.0
567.388,3758.87
567.889,3814.73
568.391,3782.03
568.892,3807.33
569.392,3839.07
569.893,3849.63
570.394,4041.03
570.895,4333.77
571.395,4518.03
571.896,4217.77
572.397,3976.77
572.897,4011.3
573.397,3963.63
573.898,3993.1
574.398,4009.67
574.898,4026.27
575.398,4120.57
575.898,4043.3
576.398,4111.4
576.898,4053.77
577.398,4050.17
577.898,4086.5
578.398,4031.47
578.897,4035.77
579.397,4121.53
579.896,4088.93
580.396,4162.53
580.895,4208.83
581.395,4288.2
581.894,5426.67
582.393,5135.8
582.892,4141.13
583.391,4140.57
583.89,4157.07
584.389,4146.43
584.888,4221.17
585.387,4382.3
585.886,5303.07
586.384,4964.6
586.883,4286.4
587.381,4229.17
587.88,4187.9
588.378,4166.53
588.876,4159.7
589.375,4151.83
589.873,4123.8
590.371,4195.87
590.869,4122.37
591.367,4160.73
591.865,4202.43
592.363,4203.8
592.86,4205.13
593.358,4165.23
593.856,4099.83
594.353,4129.77
594.851,4151.73
595.348,4193.17
595.845,4199.3
596.342,4178.17
596.84,4254.37
597.337,4180.9
597.834,4206.67
598.331,4202.43
598.828,4160.63
599.324,4227.77
599.821,4208.47
600.318,4264.07
600.814,4177.77
601.311,4268.0
601.807,4182.3
602.304,4206.1
602.8,4243.13
603.296,4221.47
603.792,4245.27
604.288,4198.1
604.784,4156.0
605.28,4197.83
605.776,4242.1
606.272,4249.37
606.767,4241.7
607.263,4226.27
607.759,4200.57
608.254,4278.67
608.749,4244.73
609.245,4244.97
609.74,4226.07
610.235,4234.6
610.73,4269.23
611.225,4279.77
611.72,4237.37
612.215,4243.4
612.71,4282.9
613.204,4239.33
613.699,4223.23
614.194,4288.07
614.688,4217.17
615.182,4237.33
615.677,4240.53
616.171,4238.73
616.665,4278.9
617.159,4219.83
617.653,4214.17
618.147,4220.07
618.641,4271.0
619.135,4297.0
619.628,4225.73
620.122,4224.63
620.615,4280.7
621.109,4272.77
621.602,4245.77
622.095,4244.1
622.589,4271.73
623.082,4194.17
623.575,4259.87
624.068,4308.07
624.561,4320.07
625.053,4258.77
625.546,4266.37
626.039,4310.47
626.531,4237.9
627.024,4256.03
627.516,4257.0
628.008,4291.27
628.501,4247.37
628.993,4309.07
629.485,4242.53
629.977,4328.4
630.469,4243.5
630.96,4375.4
631.452,4510.57
631.944,4577.77
632.435,4520.47
632.927,4404.0
633.418,4427.17
633.91,4354.17
634.401,4351.37
634.892,4311.6
635.383,4324.93
635.874,4404.5
636.365,4581.13
636.856,4494.57
637.346,4302.37
637.837,4286.47
638.327,4269.43
638.818,4239.7
639.308,4256.53
639.799,4203.0
640.289,4164.0
640.779,4219.47
641.269,4254.67
641.759,4125.4
642.249,4188.47
642.738,4239.3
643.228,4193.47
643.718,4192.03
644.207,4150.77
644.697,4125.5
645.186,4188.57
645.675,4141.9
646.164,4112.77
646.653,4088.2
647.142,4055.13
647.631,4027.1
648.12,4081.17
648.609,4042.8
649.098,3951.37
649.586,3946.4
650.075,3911.7
650.563,4027.23
651.051,3986.1
651.539,3930.03
652.027,3881.07
652.515,3829.5
653.003,3853.87
653.491,3832.17
653.979,3767.43
654.467,3757.7
654.954,3789.73
655.442,3767.57
655.929,3760.1
656.416,3696.3
656.904,3724.27
657.391,3683.77
657.878,3619.03
658.365,3628.0
658.851,3617.17
659.338,3541.0
659.825,3519.8
660.311,3509.47
660.798,3512.3
661.041,3542.63