File: spectra/VLFR_02-HDPE_bio_Raman_54df89fa.csv
nm,Intensity
528.65,1856.5
529.155,1856.35
529.66,1857.15
530.165,1856.3
530.67,1856.2
531.175,1857.8
531.68,1885.45
532.185,3177.45
532.69,1857.9
533.194,1857.55
533.699,1928.5
534.204,2132.35
534.708,2138.75
535.213,2146.9
535.717,2134.55
536.222,2123.1
536.726,2100.6
537.231,2132.8
537.735,2120.2
538.239,2111.35
538.743,2104.45
539.247,2098.55
539.751,2105.2
540.255,2101.2
540.759,2099.3
541.263,2111.55
541.767,2109.45
542.271,2103.5
542.775,2114.6
543.279,2115.85
543.782,2127.0
544.286,2138.7
544.789,2127.1
545.293,2125.65
545.796,2155.2
546.3,2306.05
546.803,2204.75
547.306,2151.5
547.81,2144.8
548.313,2157.65
548.816,2150.7
549.319,2163.25
549.822,2175.1
550.325,2217.65
550.828,2173.8
551.331,2175.9
551.834,2176.45
552.337,2172.65
552.839,2177.15
553.342,2190.35
553.844,2194.7
554.347,2195.6
554.849,2209.1
555.352,2207.65
555.854,2209.95
556.357,2217.1
556.859,2229.1
557.361,2220.45
557.863,2236.1
558.365,2241.6
558.867,2247.3
559.369,2249.2
559.871,2249.5
560.373,2253.05
560.875,2263.4
561.377,2279.85
561.878,2374.85
562.38,3338.2
562.881,2312.65
563.383,2309.4
563.884,2515.2
564.386,2363.85
564.887,2356.3
565.388,2345.4
565.89,2490.9
566.391,2552.0
566.892,2360.85
567.393,2374.65
567.894,2335.3
568.395,2345.8
568.896,2344.5
569.396,2353.2
569.897,2372.35
570.398,2394.25
570.898,2400.25
571.399,2765.7
571.9,2489.6
572.4,2412.1
572.9,2393.6
573.401,2406.35
573.901,2428.65
574.401,2417.25
574.901,2421.45
575.401,2625.75
575.901,2609.55
576.401,2797.8
576.901,2668.1
577.401,2563.45
577.901,2491.8
578.4,2490.55
578.9,2522.85
579.399,2545.55
579.899,2547.9
580.398,2584.6
580.898,2576.0
581.397,2606.9
581.896,2630.55
582.395,2655.2
582.895,2678.3
583.394,2708.2
583.893,2705.8
584.391,2777.45
584.89,2791.1
585.389,2838.9
585.888,2842.05
586.386,2920.7
586.885,2946.9
587.384,3009.4
587.882,3064.6
588.38,3084.7
588.879,3132.4
589.377,3165.0
589.875,3208.15
590.373,3257.55
590.871,3285.25
591.369,3348.7
591.867,3381.7
592.365,3398.75
592.863,3423.2
593.361,3438.8
593.858,3454.4
594.356,3482.25
594.853,3470.05
595.351,3545.85
595.848,3589.2
596.345,3570.35
596.843,3583.2
597.34,3654.5
597.837,3630.7
598.334,3674.3
598.831,3668.7
599.328,3685.3
599.824,3716.75
600.321,3686.0
600.818,3690.2
601.314,3719.15
601.811,3720.35
602.307,3670.0
602.804,3660.5
603.3,3673.05
603.796,3668.55
604.293,3602.05
604.789,3566.3
605.285,3534.2
605.781,3525.45
606.277,3536.8
606.772,3468.45
607.268,3396.05
607.764,3407.65
608.259,3386.05
608.755,3357.1
609.25,3329.95
609.746,3302.05
610.241,3286.25
610.736,3225.8
611.231,3252.1
611.727,3232.2
612.222,3187.85
612.716,3159.8
613.211,3119.9
613.706,3116.1
614.201,3131.95
614.695,3095.0
615.19,3076.9
615.684,3071.95
616.179,3055.85
616.673,3054.75
617.168,3058.95
617.662,3017.75
618.156,3002.7
618.65,3031.9
619.144,3024.85
619.638,3022.2
620.131,2987.75
620.625,2991.55
621.119,2967.55
621.612,3032.75
622.106,3085.05
622.599,3050.25
623.093,2929.85
623.586,2903.65
624.079,2921.45
624.572,2925.2
625.065,2884.85
625.558,2922.6
626.051,2962.05
626.544,3299.9
627.037,5031.4
627.529,4866.6
628.022,4225.8
628.514,5564.7
629.007,4374.4
629.499,3960.4
629.991,3702.5
630.483,3582.7
630.976,3182.9
631.468,2953.15
631.959,2892.6
632.451,2851.05
632.943,2856.75
633.435,2838.4
633.926,2845.65
634.418,2834.6
634.909,2819.4
635.401,2847.95
635.892,2818.85
636.383,2822.15
636.874,2799.35
637.365,2830.9
637.856,2844.55
638.347,2869.5
638.838,2858.95
639.329,2825.0
639.819,2861.95
640.31,2850.0
640.8,2839.45
641.291,2869.55
641.781,2851.15
642.271,2858.4
642.761,2878.7
643.251,2847.75
643.741,2882.95
644.231,2840.3
644.721,2838.9
645.211,2822.05
645.7,2816.7
646.19,2826.95
646.679,2831.15
647.169,2844.0
647.658,2794.45
648.147,2786.95
648.636,2809.65
649.125,2806.95
649.614,2778.5
650.103,2781.6
650.592,2786.7
651.08,2748.7
651.569,2760.4
652.058,2717.1
652.546,2722.55
653.034,2731.4
653.523,2691.55
654.011,2655.85
654.499,2660.05
654.987,2617.65
655.475,2635.65
655.963,2615.3
656.45,2594.5
656.938,2579.8
657.425,2583.5
657.913,2562.45
658.4,2528.7
658.888,2545.05
659.375,2493.75
659.862,2516.65
660.349,2455.15
660.836,2458.7
661.079,2424.05