File: spectra/VLFR_01-LDPE_nobio_Raman_7efa561d.csv
nm,Intensity
526.5,830.2
527.047,828.9
527.594,828.4
528.14,829.3
528.687,828.9
529.233,828.8
529.779,829.3
530.325,829.1
530.871,829.4
531.417,828.9
531.962,831.9
532.508,829.2
533.053,828.6
533.599,829.9
534.144,900.1
534.689,890.7
535.234,875.9
535.778,865.5
536.323,860.2
536.867,858.6
537.412,857.2
537.956,855.6
538.5,853.3
539.044,852.0
539.588,852.6
540.132,848.2
540.675,848.6
541.219,848.9
541.762,847.0
542.305,847.2
542.848,845.6
543.391,843.2
543.934,847.3
544.477,843.9
545.02,845.3
545.562,844.1
546.105,842.3
546.647,843.5
547.189,843.1
547.731,843.5
548.273,842.8
548.815,842.4
549.356,843.7
549.898,842.1
550.439,843.0
550.981,842.3
551.522,843.0
552.063,843.5
552.604,842.9
553.145,840.8
553.686,844.7
554.226,844.8
554.767,844.8
555.307,845.2
555.848,846.7
556.388,847.9
556.928,850.6
557.468,851.4
558.008,853.4
558.547,854.8
559.087,851.2
559.626,849.2
560.166,849.7
560.705,848.1
561.244,848.2
561.783,849.2
562.322,851.3
562.861,854.9
563.4,857.6
563.939,903.6
564.477,874.6
565.015,866.8
565.554,861.5
566.092,912.4
566.63,867.8
567.168,858.8
567.706,862.1
568.244,856.9
568.781,857.4
569.319,857.8
569.857,858.8
570.394,861.7
570.931,867.8
571.468,940.4
572.005,891.5
572.542,874.1
573.079,866.7
573.616,868.0
574.153,876.1
574.689,868.0
575.226,873.4
575.762,906.7
576.298,999.3
576.834,952.2
577.371,928.6
577.907,894.8
578.442,895.4
578.978,893.9
579.514,897.8
580.049,904.3
580.585,903.5
581.12,905.9
581.656,912.3
582.191,916.0
582.726,921.3
583.261,923.0
583.796,934.2
584.331,933.5
584.865,937.7
585.4,942.9
585.935,950.0
586.469,959.4
587.004,964.3
587.538,971.4
588.072,985.3
588.606,992.9
589.14,999.5
589.674,1007.5
590.208,1026.0
590.742,1029.6
591.275,1047.8
591.809,1050.2
592.342,1049.4
592.876,1061.7
593.409,1070.4
593.942,1076.2
594.476,1087.7
595.009,1092.1
595.542,1107.8
596.075,1114.6
596.607,1126.4
597.14,1139.6
597.673,1147.8
598.205,1164.2
598.738,1173.7
599.27,1174.7
599.803,1183.4
600.335,1189.8
600.867,1182.0
601.399,1179.0
601.931,1177.7
602.463,1172.1
602.995,1167.2
603.527,1152.1
604.058,1141.6
604.59,1126.7
605.122,1107.1
605.653,1097.3
606.184,1082.3
606.716,1066.6
607.247,1060.4
607.778,1052.6
608.309,1044.4
608.84,1041.3
609.371,1033.0
609.902,1023.6
610.433,1014.9
610.964,1011.8
611.494,1011.3
612.025,1003.3
612.556,998.6
613.086,995.5
613.616,994.7
614.147,991.3
614.677,984.2
615.207,984.1
615.737,978.3
616.267,975.7
616.797,975.0
617.327,975.3
617.857,978.8
618.387,972.7
618.917,968.6
619.446,968.0
619.976,963.1
620.505,966.1
621.035,967.0
621.564,973.9
622.093,994.1
622.623,989.8
623.152,962.1
623.681,957.9
624.21,955.7
624.739,949.1
625.268,954.7
625.797,955.4
626.326,980.8
626.855,1178.0
627.383,1576.5
627.912,1326.1
628.441,1513.3
628.969,1361.2
629.498,1277.6
630.026,1178.5
630.554,1159.9
631.083,1045.3
631.611,982.0
632.139,961.0
632.667,944.8
633.195,943.3
633.724,939.0
634.252,937.0
634.779,935.0
635.307,940.8
635.835,933.7
636.363,937.2
636.891,938.3
637.418,932.7
637.946,936.8
638.474,940.2
639.001,938.8
639.529,940.9
640.056,939.6
640.583,943.2
641.111,942.6
641.638,948.0
642.165,951.4
642.692,951.9
643.22,951.3
643.747,952.0
644.274,956.5
644.801,954.0
645.328,957.2
645.854,959.6
646.381,961.9
646.908,959.4
647.435,962.9
647.962,966.3
648.488,962.6
649.015,969.1
649.542,965.8
650.068,971.7
650.595,972.5
651.121,969.3
651.648,968.9
652.174,976.3
652.7,971.3
653.227,970.7
653.753,980.6
654.279,979.3
654.805,972.0
655.331,976.2
655.858,972.2
656.384,970.4
656.91,972.6
657.436,965.2
657.962,963.4
658.488,959.0
659.013,956.9
659.539,949.4
660.065,946.4
660.591,943.3
661.117,935.9
661.642,932.0
662.168,926.8
662.694,922.5
663.088,916.6