File: spectra/VLFR_06-PET_bio_Raman_5a0947cf.csv
nm,Intensity
528.635,1840.4
529.14,1840.5
529.645,1840.5
530.151,1843.0
530.656,1842.5
531.161,1844.7
531.666,1886.9
532.171,3930.5
532.676,1846.2
533.181,1864.4
533.686,4486.6
534.191,10814.2
534.696,8499.4
535.201,6184.1
535.705,4629.4
536.21,3606.5
536.715,3230.8
537.219,3001.9
537.724,2903.5
538.228,2946.3
538.733,2946.2
539.237,2992.7
539.741,3224.7
540.246,2951.3
540.75,2747.7
541.254,2637.7
541.758,2588.0
542.262,2628.5
542.766,2649.7
543.27,2607.1
543.774,2702.6
544.278,2635.7
544.781,2687.7
545.285,2693.8
545.789,2709.5
546.292,2733.1
546.796,2739.3
547.299,2785.8
547.803,2755.0
548.306,2785.2
548.809,2818.2
549.313,2802.3
549.816,2808.5
550.319,3046.5
550.822,3681.8
551.325,2925.8
551.828,2921.1
552.331,2980.5
552.834,3537.3
553.337,2992.7
553.839,3043.3
554.342,3031.0
554.845,3077.7
555.347,3391.2
555.85,3771.1
556.352,3846.0
556.854,3966.3
557.357,5228.1
557.859,4575.5
558.361,4233.7
558.863,3798.9
559.365,3402.9
559.867,3368.5
560.369,3324.8
560.871,3391.1
561.373,3497.6
561.875,3581.7
562.377,3665.1
562.878,3844.4
563.38,3801.9
563.881,3674.4
564.383,3732.5
564.884,4212.5
565.386,4865.4
565.887,5209.8
566.388,4210.1
566.889,3781.1
567.391,4223.2
567.892,4437.2
568.393,3908.9
568.893,3900.5
569.394,3985.0
569.895,4245.1
570.396,4875.9
570.897,6396.7
571.397,7382.4
571.898,5663.3
572.398,4645.4
572.899,4186.3
573.399,4221.4
573.899,4365.9
574.399,4342.5
574.9,4384.5
575.4,4817.8
575.9,4404.2
576.4,4801.8
576.899,4720.8
577.399,4434.7
577.899,4353.2
578.399,4388.0
578.898,4305.1
579.398,4388.9
579.897,4450.2
580.397,4577.6
580.896,4803.7
581.396,5116.1
581.895,10985.1
582.394,9758.6
582.893,4904.2
583.392,4715.5
583.891,4794.2
584.39,4807.5
584.889,5026.6
585.387,6627.1
585.886,11356.1
586.385,8835.5
586.883,5413.1
587.382,4987.7
587.88,4853.9
588.379,4804.8
588.877,4796.1
589.375,4797.8
589.873,4794.3
590.371,4787.9
590.869,4822.4
591.367,4846.1
591.865,4832.6
592.363,4880.4
592.86,4865.9
593.358,4900.8
593.856,4886.1
594.353,4929.0
594.851,4952.9
595.348,4926.5
595.845,4989.5
596.342,5006.9
596.84,5024.5
597.337,4962.2
597.834,4951.5
598.331,4974.9
598.827,5037.7
599.324,5037.4
599.821,5045.3
600.318,5047.7
600.814,5025.2
601.311,5111.8
601.807,5007.9
602.303,5121.0
602.8,5117.5
603.296,5140.6
603.792,5117.1
604.288,4979.8
604.784,5170.5
605.28,5105.9
605.776,5105.2
606.272,5124.7
606.767,5221.6
607.263,5057.1
607.758,5130.5
608.254,5126.9
608.749,5172.4
609.244,5229.4
609.74,5122.6
610.235,5116.6
610.73,5149.4
611.225,5124.3
611.72,5161.7
612.215,5126.3
612.709,5158.0
613.204,5181.0
613.699,5173.7
614.193,5216.6
614.688,5205.6
615.182,5223.6
615.676,5227.2
616.171,5360.3
616.665,5307.6
617.159,5285.0
617.653,5324.2
618.147,5325.5
618.641,5430.1
619.134,5346.6
619.628,5435.4
620.122,5385.0
620.615,5288.3
621.109,5400.8
621.602,5412.6
622.095,5316.0
622.588,5554.9
623.082,5479.4
623.575,5456.7
624.068,5553.6
624.56,5626.9
625.053,5610.3
625.546,5551.3
626.039,5510.3
626.531,5572.0
627.024,5603.3
627.516,5629.5
628.008,5750.7
628.501,5916.2
628.993,6098.7
629.485,6223.0
629.977,6070.9
630.469,6092.0
630.961,6561.7
631.452,7709.1
631.944,7803.9
632.436,7358.6
632.927,6936.1
633.418,6861.8
633.91,6597.9
634.401,6300.7
634.892,6409.4
635.383,6452.5
635.874,7014.5
636.365,8491.6
636.856,7613.9
637.347,6817.2
637.837,6467.8
638.328,6470.7
638.818,6375.4
639.309,6290.1
639.799,6361.3
640.289,6345.1
640.78,6250.0
641.27,6358.4
641.76,6302.4
642.249,6512.9
642.739,6454.9
643.229,6316.6
643.719,6461.8
644.208,6441.0
644.698,6330.8
645.187,6304.0
645.676,6433.0
646.165,6290.0
646.655,6265.7
647.144,6342.4
647.633,6361.1
648.121,6459.6
648.61,6364.0
649.099,6584.5
649.587,6262.3
650.076,6083.4
650.564,6401.3
651.053,6364.2
651.541,6183.0
652.029,6170.4
652.517,6105.2
653.005,5948.3
653.493,6011.6
653.981,6106.1
654.468,5980.7
654.956,6029.8
655.444,5914.4
655.931,6018.2
656.418,5925.4
656.906,5836.8
657.393,5790.7
657.88,5776.1
658.367,5708.0
658.854,5615.7
659.341,5517.3
659.827,5491.6
660.314,5445.4
660.8,5356.4
661.044,5485.6