File: spectra/VLFR_02-HDPE_bio_Raman_a6e1b635.csv
nm,Intensity
528.626,1870.5
529.132,1868.4
529.637,1868.7
530.143,1867.1
530.648,1868.9
531.153,1870.1
531.658,1888.5
532.164,3199.1
532.669,1868.6
533.174,1870.3
533.679,1925.4
534.184,2124.6
534.689,2127.0
535.194,2123.5
535.699,2080.3
536.203,2044.7
536.708,2044.2
537.213,2046.7
537.717,2046.9
538.222,2035.9
538.726,2042.8
539.231,2026.0
539.735,2033.0
540.239,2016.5
540.744,2031.8
541.248,2024.9
541.752,2034.5
542.256,2037.4
542.76,2043.5
543.264,2029.0
543.768,2038.2
544.272,2035.6
544.776,2038.4
545.28,2047.3
545.784,2063.6
546.287,2058.4
546.791,2054.7
547.294,2056.8
547.798,2046.0
548.301,2048.5
548.805,2044.7
549.308,2048.9
549.811,2046.8
550.315,2041.6
550.818,2060.1
551.321,2046.1
551.824,2067.8
552.327,2056.8
552.83,2047.7
553.333,2063.5
553.835,2057.0
554.338,2075.2
554.841,2064.3
555.343,2078.2
555.846,2078.2
556.349,2065.2
556.851,2077.9
557.353,2081.3
557.856,2103.1
558.358,2097.5
558.86,2085.7
559.362,2088.3
559.864,2096.5
560.366,2092.9
560.868,2096.7
561.37,2085.3
561.872,2118.7
562.374,2223.4
562.876,2136.3
563.377,2120.3
563.879,2363.1
564.38,2177.7
564.882,2165.9
565.383,2144.4
565.885,2242.7
566.386,2295.1
566.887,2136.0
567.388,2177.7
567.889,2118.7
568.391,2105.1
568.892,2109.0
569.392,2125.7
569.893,2115.3
570.394,2137.4
570.895,2140.2
571.395,2522.1
571.896,2259.7
572.397,2152.0
572.897,2138.6
573.397,2136.4
573.898,2153.6
574.398,2128.3
574.898,2133.2
575.398,2284.2
575.898,2296.7
576.398,2550.5
576.898,2395.8
577.398,2251.0
577.898,2179.3
578.398,2158.9
578.897,2158.0
579.397,2164.3
579.896,2162.8
580.396,2173.6
580.895,2180.5
581.395,2187.2
581.894,2184.8
582.393,2188.8
582.892,2189.2
583.391,2208.9
583.89,2216.6
584.389,2220.2
584.888,2224.3
585.387,2222.2
585.886,2241.7
586.384,2250.6
586.883,2258.0
587.381,2271.0
587.88,2293.8
588.378,2299.4
588.876,2291.2
589.375,2325.8
589.873,2338.4
590.371,2340.4
590.869,2372.4
591.367,2387.5
591.865,2383.6
592.363,2394.7
592.86,2427.3
593.358,2436.9
593.856,2445.2
594.353,2467.3
594.851,2470.0
595.348,2513.5
595.845,2546.3
596.342,2540.7
596.84,2586.4
597.337,2596.0
597.834,2597.6
598.331,2627.7
598.828,2657.8
599.324,2668.4
599.821,2645.1
600.318,2655.0
600.814,2702.2
601.311,2706.6
601.807,2711.3
602.304,2732.4
602.8,2691.2
603.296,2697.0
603.792,2718.8
604.288,2708.4
604.784,2679.3
605.28,2664.5
605.776,2644.0
606.272,2624.3
606.767,2579.2
607.263,2582.3
607.759,2559.3
608.254,2563.9
608.749,2569.1
609.245,2557.0
609.74,2532.7
610.235,2515.8
610.73,2519.2
611.225,2537.1
611.72,2497.5
612.215,2476.2
612.71,2481.0
613.204,2463.1
613.699,2470.8
614.194,2476.7
614.688,2449.1
615.182,2457.8
615.677,2445.2
616.171,2431.4
616.665,2425.0
617.159,2426.2
617.653,2442.4
618.147,2437.9
618.641,2450.5
619.135,2424.9
619.628,2438.0
620.122,2430.7
620.615,2447.6
621.109,2444.0
621.602,2494.3
622.095,2605.3
622.589,2511.0
623.082,2430.5
623.575,2380.3
624.068,2395.0
624.561,2364.5
625.053,2392.1
625.546,2393.4
626.039,2445.3
626.531,2864.7
627.024,4690.0
627.516,4571.4
628.008,4009.1
628.501,5387.6
628.993,3719.8
629.485,3367.7
629.977,3089.7
630.469,3013.2
630.96,2639.0
631.452,2391.8
631.944,2323.9
632.435,2309.3
632.927,2278.1
633.418,2261.3
633.91,2273.0
634.401,2241.0
634.892,2248.6
635.383,2221.4
635.874,2232.9
636.365,2220.3
636.856,2232.5
637.346,2210.9
637.837,2208.2
638.327,2217.7
638.818,2202.4
639.308,2215.6
639.799,2185.1
640.289,2195.6
640.779,2192.3
641.269,2204.1
641.759,2185.4
642.249,2209.9
642.738,2184.0
643.228,2192.6
643.718,2191.8
644.207,2188.7
644.697,2199.5
645.186,2179.0
645.675,2197.6
646.164,2182.9
646.653,2178.7
647.142,2176.3
647.631,2180.7
648.12,2181.3
648.609,2198.4
649.098,2168.2
649.586,2177.0
650.075,2186.7
650.563,2173.7
651.051,2192.5
651.539,2170.0
652.027,2161.3
652.515,2156.0
653.003,2153.8
653.491,2143.8
653.979,2148.7
654.467,2148.9
654.954,2158.5
655.442,2142.0
655.929,2133.8
656.416,2120.6
656.904,2117.2
657.391,2128.6
657.878,2118.8
658.365,2120.5
658.851,2103.4
659.338,2104.1
659.825,2105.0
660.311,2104.7
660.798,2099.2
661.041,2096.7