File: spectra/VLFR_08-PLA_bio_Raman_dad396d3.csv
nm,Intensity
526.495,826.7
527.042,827.8
527.589,827.8
528.136,828.1
528.682,827.2
529.229,826.9
529.775,827.7
530.321,827.2
530.867,827.3
531.413,827.8
531.959,829.6
532.505,826.9
533.051,827.1
533.596,828.8
534.141,1053.0
534.687,999.8
535.232,958.8
535.777,941.4
536.321,932.3
536.866,933.4
537.41,925.5
537.955,924.6
538.499,916.2
539.043,908.7
539.587,901.0
540.131,903.0
540.675,915.0
541.219,915.8
541.762,907.8
542.305,903.6
542.849,907.4
543.392,927.3
543.935,937.6
544.478,912.7
545.02,906.2
545.563,898.5
546.106,898.5
546.648,901.5
547.19,900.4
547.732,905.0
548.274,901.9
548.816,905.2
549.358,908.7
549.9,904.7
550.441,909.6
550.983,910.4
551.524,914.2
552.065,913.7
552.606,915.9
553.147,916.1
553.688,915.2
554.229,923.8
554.769,909.2
555.31,909.3
555.85,905.9
556.391,905.4
556.931,913.5
557.471,927.2
558.011,1046.8
558.551,947.3
559.09,923.9
559.63,925.5
560.169,914.6
560.709,915.0
561.248,912.0
561.787,912.7
562.326,913.8
562.865,922.8
563.404,960.9
563.943,937.0
564.481,928.8
565.02,949.4
565.558,936.8
566.096,976.9
566.634,944.6
567.172,922.0
567.71,928.4
568.248,929.8
568.786,928.5
569.324,932.5
569.861,924.3
570.399,925.7
570.936,929.0
571.473,950.0
572.01,950.2
572.547,943.6
573.084,944.4
573.621,949.8
574.158,945.2
574.694,953.8
575.231,932.3
575.767,929.1
576.303,947.5
576.84,1015.1
577.376,956.4
577.912,936.5
578.448,932.4
578.984,934.6
579.519,932.4
580.055,932.3
580.59,931.1
581.126,935.7
581.661,933.9
582.196,934.9
582.731,938.1
583.267,938.2
583.801,937.1
584.336,936.7
584.871,938.8
585.406,935.3
585.94,938.6
586.475,952.2
587.009,991.8
587.543,1017.3
588.078,960.5
588.612,944.9
589.146,942.4
589.68,937.6
590.214,939.9
590.747,943.2
591.281,943.6
591.815,939.2
592.348,938.5
592.881,936.5
593.415,938.1
593.948,936.3
594.481,939.2
595.014,937.1
595.547,940.6
596.08,941.0
596.613,943.2
597.146,944.5
597.678,942.6
598.211,943.3
598.743,946.1
599.276,948.3
599.808,943.2
600.34,942.6
600.872,948.0
601.404,948.2
601.936,950.3
602.468,947.1
603.0,945.5
603.532,945.3
604.064,946.5
604.595,949.8
605.127,951.6
605.658,947.3
606.189,948.8
606.721,944.3
607.252,952.9
607.783,949.7
608.314,955.2
608.845,953.3
609.376,953.9
609.907,955.5
610.438,952.7
610.968,956.2
611.499,954.9
612.029,956.3
612.56,963.8
613.09,961.5
613.621,967.2
614.151,961.1
614.681,963.4
615.211,960.8
615.741,966.8
616.271,959.7
616.801,966.5
617.331,965.8
617.861,966.9
618.39,966.5
618.92,967.0
619.45,963.8
619.979,969.4
620.509,966.7
621.038,967.1
621.567,972.4
622.096,970.2
622.626,981.4
623.155,983.7
623.684,979.1
624.213,978.6
624.742,966.3
625.271,974.6
625.799,973.2
626.328,968.0
626.857,974.7
627.386,970.3
627.914,980.4
628.443,1057.4
628.971,1039.3
629.5,1037.0
630.028,1044.0
630.556,1101.7
631.084,1532.6
631.613,1261.0
632.141,1117.5
632.669,1090.0
633.197,1192.5
633.725,1146.0
634.253,1044.4
634.781,993.4
635.308,972.9
635.836,968.2
636.364,961.1
636.891,960.2
637.419,954.8
637.947,957.1
638.474,953.3
639.002,954.1
639.529,955.2
640.056,951.0
640.584,953.7
641.111,951.3
641.638,953.2
642.165,951.4
642.692,951.6
643.219,948.0
643.746,945.1
644.273,941.3
644.8,936.3
645.327,936.8
645.854,940.7
646.381,937.9
646.908,933.3
647.434,938.2
647.961,935.4
648.488,935.0
649.014,933.4
649.541,931.8
650.067,934.4
650.594,931.6
651.12,927.7
651.646,928.7
652.173,924.8
652.699,928.7
653.225,926.7
653.752,923.3
654.278,924.8
654.804,923.7
655.33,923.8
655.856,921.3
656.382,923.0
656.908,925.5
657.434,926.2
657.96,921.9
658.486,925.9
659.012,918.8
659.538,919.3
660.064,921.8
660.589,917.3
661.115,915.5
661.641,916.7
662.166,914.4
662.692,912.8
663.086,912.8