File: spectra/VLFR_08-PLA_bio_Raman_ab6cd987.csv
nm,Intensity
526.508,829.8
527.055,830.3
527.602,830.7
528.149,830.0
528.695,830.4
529.241,829.2
529.787,830.5
530.334,829.0
530.879,829.8
531.425,830.3
531.971,833.7
532.516,830.1
533.062,828.9
533.607,832.8
534.152,954.2
534.697,923.4
535.242,909.1
535.786,898.0
536.331,892.9
536.876,893.9
537.42,886.0
537.964,885.6
538.508,880.3
539.052,880.1
539.596,874.8
540.14,872.5
540.683,881.4
541.227,885.5
541.77,876.3
542.313,874.6
542.856,873.1
543.399,889.6
543.942,896.8
544.485,884.4
545.027,875.5
545.57,874.8
546.112,877.5
546.654,889.0
547.196,876.5
547.738,874.6
548.28,874.3
548.822,874.1
549.363,876.5
549.905,879.3
550.446,878.4
550.988,879.1
551.529,883.8
552.07,883.8
552.611,883.6
553.152,885.0
553.692,882.5
554.233,886.7
554.773,884.0
555.314,878.3
555.854,883.0
556.394,880.3
556.934,880.2
557.474,887.0
558.014,957.8
558.553,906.7
559.093,892.1
559.632,889.4
560.172,888.7
560.711,885.7
561.25,882.6
561.789,885.3
562.328,984.5
562.867,894.3
563.406,910.8
563.944,898.7
564.483,893.8
565.021,904.5
565.559,906.9
566.098,927.6
566.636,912.6
567.174,894.3
567.711,893.2
568.249,897.2
568.787,894.1
569.324,896.1
569.862,894.6
570.399,896.9
570.936,892.8
571.474,905.4
572.011,906.7
572.548,900.7
573.084,899.3
573.621,902.8
574.158,900.0
574.694,906.1
575.231,892.9
575.767,886.9
576.303,899.6
576.84,938.0
577.376,905.1
577.912,896.3
578.447,890.9
578.983,891.4
579.519,891.2
580.054,891.9
580.59,889.4
581.125,892.0
581.661,891.5
582.196,889.4
582.731,890.7
583.266,891.5
583.801,888.5
584.336,891.3
584.87,890.3
585.405,889.9
585.94,894.4
586.474,897.4
587.008,917.5
587.543,933.5
588.077,903.9
588.611,890.9
589.145,890.9
589.679,890.5
590.213,891.8
590.747,890.4
591.28,893.6
591.814,893.8
592.347,891.9
592.881,890.5
593.414,890.2
593.947,890.9
594.48,894.1
595.014,887.8
595.547,897.5
596.079,890.6
596.612,890.1
597.145,893.6
597.678,892.7
598.21,894.0
598.743,898.5
599.275,895.5
599.807,895.2
600.34,896.0
600.872,897.3
601.404,895.4
601.936,894.1
602.468,895.5
603.0,896.6
603.532,895.2
604.063,895.9
604.595,894.2
605.126,891.7
605.658,893.9
606.189,894.7
606.721,894.5
607.252,890.4
607.783,892.6
608.314,894.8
608.845,893.9
609.376,891.3
609.907,892.9
610.438,892.0
610.968,892.2
611.499,893.2
612.03,891.8
612.56,894.8
613.091,891.3
613.621,891.1
614.151,890.7
614.681,893.5
615.212,891.9
615.742,891.3
616.272,891.5
616.802,888.5
617.332,892.9
617.861,889.3
618.391,889.7
618.921,891.0
619.45,890.9
619.98,889.6
620.509,886.5
621.039,888.7
621.568,885.3
622.097,891.4
622.627,897.1
623.156,898.5
623.685,890.3
624.214,890.5
624.743,891.5
625.272,886.6
625.801,886.2
626.33,887.0
626.858,889.9
627.387,888.9
627.916,895.3
628.444,934.5
628.973,927.6
629.501,930.7
630.029,932.6
630.558,967.2
631.086,1215.1
631.614,1068.4
632.142,978.3
632.67,960.6
633.198,1014.4
633.726,996.6
634.254,935.5
634.782,898.5
635.31,891.3
635.838,886.1
636.365,885.5
636.893,886.0
637.421,882.6
637.948,881.3
638.476,881.9
639.003,884.1
639.531,880.8
640.058,885.9
640.585,884.7
641.113,882.5
641.64,885.0
642.167,886.1
642.694,880.6
643.221,881.4
643.748,879.7
644.275,876.7
644.802,876.2
645.329,877.0
645.856,880.4
646.382,875.9
646.909,876.2
647.436,879.8
647.962,877.2
648.489,879.4
649.016,876.4
649.542,882.4
650.069,883.2
650.595,879.5
651.121,878.4
651.648,874.8
652.174,874.7
652.7,878.2
653.227,877.2
653.753,875.2
654.279,876.5
654.805,877.5
655.331,873.1
655.857,876.0
656.383,875.7
656.909,874.4
657.435,876.2
657.961,877.9
658.487,870.7
659.013,872.1
659.538,874.7
660.064,869.0
660.59,871.2
661.116,874.6
661.641,870.6
662.167,867.1
662.692,868.5
663.087,870.7