File: spectra/VLFR_01-LDPE_nobio_Raman_85aaddec.csv
nm,Intensity
526.532,830.0
527.079,830.2
527.625,830.04
528.172,830.28
528.718,830.58
529.265,829.92
529.811,830.12
530.357,830.76
530.903,829.9
531.449,830.04
531.994,837.28
532.54,830.44
533.085,829.92
533.63,831.98
534.176,920.44
534.721,902.74
535.266,886.18
535.81,877.3
536.355,868.84
536.9,866.5
537.444,867.42
537.988,865.74
538.533,863.38
539.077,858.4
539.621,855.56
540.165,855.18
540.708,852.74
541.252,852.46
541.795,851.86
542.339,850.08
542.882,852.02
543.425,851.42
543.968,850.76
544.511,849.52
545.054,849.38
545.597,848.36
546.139,849.28
546.682,847.98
547.224,849.64
547.766,849.1
548.308,848.42
548.85,848.26
549.392,848.38
549.934,847.74
550.475,847.72
551.017,848.2
551.558,847.54
552.1,847.7
552.641,848.24
553.182,850.04
553.723,853.42
554.264,852.12
554.804,853.72
555.345,853.56
555.885,856.1
556.426,857.38
556.966,859.3
557.506,862.42
558.046,867.36
558.586,867.94
559.126,862.9
559.665,860.92
560.205,858.28
560.745,858.8
561.284,860.22
561.823,861.42
562.362,864.22
562.901,867.28
563.44,873.92
563.979,960.76
564.518,898.08
565.056,888.08
565.595,882.94
566.133,1011.06
566.671,885.92
567.21,875.52
567.748,874.72
568.285,870.38
568.823,869.86
569.361,872.08
569.899,875.36
570.436,881.78
570.974,889.78
571.511,1053.66
572.048,925.48
572.585,896.58
573.122,890.18
573.659,893.92
574.196,900.42
574.733,894.16
575.269,905.3
575.806,967.62
576.342,1045.94
576.878,1000.9
577.414,957.02
577.951,927.3
578.486,927.62
579.022,928.46
579.558,935.9
580.094,939.3
580.629,941.74
581.165,946.34
581.7,948.96
582.236,953.28
582.771,957.78
583.306,960.04
583.841,962.32
584.376,965.14
584.911,968.62
585.445,970.22
585.98,973.1
586.514,979.84
587.049,982.22
587.583,985.22
588.117,987.44
588.651,992.78
589.186,996.8
589.72,1000.28
590.253,1003.92
590.787,1007.78
591.321,1011.22
591.854,1012.54
592.388,1014.9
592.921,1017.42
593.455,1018.08
593.988,1018.56
594.521,1022.7
595.054,1024.68
595.587,1029.44
596.12,1031.8
596.653,1035.44
597.186,1041.84
597.718,1044.64
598.251,1051.16
598.783,1057.54
599.316,1062.14
599.848,1066.74
600.38,1061.66
600.912,1063.42
601.444,1061.76
601.976,1061.42
602.508,1058.84
603.04,1052.54
603.572,1046.58
604.103,1039.64
604.635,1032.04
605.167,1022.02
605.698,1011.4
606.229,1003.7
606.761,996.94
607.292,991.66
607.823,989.96
608.354,983.64
608.885,980.5
609.416,977.42
609.947,973.3
610.477,971.02
611.008,968.3
611.539,966.3
612.069,959.54
612.6,958.14
613.13,958.94
613.66,956.88
614.19,956.06
614.721,950.92
615.251,948.6
615.781,948.24
616.311,946.62
616.841,947.16
617.37,950.04
617.9,948.72
618.43,948.52
618.96,945.24
619.489,948.08
620.019,946.96
620.548,948.04
621.077,951.06
621.607,960.1
622.136,982.14
622.665,977.68
623.194,952.82
623.723,946.86
624.252,946.22
624.781,945.6
625.31,949.12
625.839,957.52
626.368,986.0
626.896,1229.88
627.425,1640.28
627.953,1373.22
628.482,1617.98
629.01,1497.04
629.539,1376.82
630.067,1275.74
630.596,1241.8
631.124,1086.12
631.652,1008.68
632.18,976.28
632.708,961.72
633.236,953.54
633.764,949.2
634.292,946.96
634.82,946.52
635.348,946.6
635.876,944.14
636.403,942.26
636.931,944.32
637.459,941.94
637.986,940.34
638.514,941.96
639.041,943.06
639.568,943.38
640.096,944.94
640.623,943.54
641.15,944.74
641.678,945.32
642.205,943.9
642.732,946.58
643.259,944.36
643.786,945.54
644.313,945.74
644.84,946.2
645.367,945.7
645.894,944.68
646.421,945.84
646.948,945.38
647.474,946.42
648.001,946.36
648.528,947.26
649.054,945.84
649.581,943.94
650.108,947.2
650.634,946.62
651.161,946.08
651.687,946.06
652.214,946.7
652.74,948.28
653.266,950.8
653.793,949.14
654.319,949.5
654.845,947.78
655.371,948.7
655.897,944.46
656.424,942.94
656.95,943.4
657.476,941.92
658.002,939.6
658.528,937.68
659.054,935.18
659.58,932.34
660.106,931.64
660.631,926.96
661.157,922.26
661.683,918.96
662.209,915.48
662.735,914.4
663.129,910.92