File: spectra/VLFR_08-PLA_bio_Raman_cd146a34.csv
nm,Intensity
526.495,829.34
527.042,829.5
527.589,829.43
528.136,829.23
528.682,829.07
529.229,829.44
529.775,828.76
530.321,829.07
530.867,829.39
531.413,829.15
531.959,837.51
532.505,830.56
533.051,829.16
533.596,829.34
534.141,856.4
534.687,856.51
535.232,852.21
535.777,850.82
536.321,848.78
536.866,848.85
537.41,847.47
537.955,846.82
538.499,847.17
539.043,847.29
539.587,847.16
540.131,847.17
540.675,850.19
541.219,852.84
541.762,856.42
542.305,855.39
542.849,857.69
543.392,857.32
543.935,853.11
544.478,856.17
545.02,857.99
545.563,858.66
546.106,854.22
546.648,855.85
547.19,857.49
547.732,854.87
548.274,852.52
548.816,853.04
549.358,852.66
549.9,852.83
550.441,852.93
550.983,851.7
551.524,851.55
552.065,851.13
552.606,851.2
553.147,851.63
553.688,851.61
554.229,851.71
554.769,851.45
555.31,851.64
555.85,852.37
556.391,851.9
556.931,852.12
557.471,853.0
558.011,854.25
558.551,855.65
559.09,857.87
559.63,854.85
560.169,854.07
560.709,856.08
561.248,858.41
561.787,859.36
562.326,857.88
562.865,860.18
563.404,862.82
563.943,866.94
564.481,870.83
565.02,894.84
565.558,880.87
566.096,881.83
566.634,867.88
567.172,864.17
567.71,859.96
568.248,859.7
568.786,858.98
569.324,858.89
569.861,860.71
570.399,862.49
570.936,863.0
571.473,864.31
572.01,865.31
572.547,867.38
573.084,870.51
573.621,867.42
574.158,873.26
574.694,871.84
575.231,867.85
575.767,867.46
576.303,864.78
576.84,866.02
577.376,866.12
577.912,862.57
578.448,860.21
578.984,860.31
579.519,860.53
580.055,860.41
580.59,860.65
581.126,861.27
581.661,861.65
582.196,861.54
582.731,861.6
583.267,861.4
583.801,862.02
584.336,862.3
584.871,862.43
585.406,862.5
585.94,862.45
586.475,863.4
587.009,863.35
587.543,862.97
588.078,863.7
588.612,863.02
589.146,861.94
589.68,863.21
590.214,863.16
590.747,862.12
591.281,863.19
591.815,863.97
592.348,863.94
592.881,863.4
593.415,863.72
593.948,862.8
594.481,863.44
595.014,864.2
595.547,863.46
596.08,863.79
596.613,865.11
597.146,864.88
597.678,864.72
598.211,865.82
598.743,865.29
599.276,865.24
599.808,865.36
600.34,865.07
600.872,865.16
601.404,865.24
601.936,864.87
602.468,864.63
603.0,864.94
603.532,865.6
604.064,865.66
604.595,865.33
605.127,864.19
605.658,864.22
606.189,864.16
606.721,863.98
607.252,863.98
607.783,864.76
608.314,865.41
608.845,865.32
609.376,864.07
609.907,864.57
610.438,864.99
610.968,865.24
611.499,864.59
612.029,865.92
612.56,865.49
613.09,866.13
613.621,865.96
614.151,866.59
614.681,866.71
615.211,866.63
615.741,866.5
616.271,866.31
616.801,866.26
617.331,866.86
617.861,867.71
618.39,867.51
618.92,867.34
619.45,867.81
619.979,867.21
620.509,867.68
621.038,867.32
621.567,868.26
622.096,869.05
622.626,870.22
623.155,870.18
623.684,869.73
624.213,870.34
624.742,870.97
625.271,870.34
625.799,872.71
626.328,874.92
626.857,878.6
627.386,882.68
627.914,889.54
628.443,900.5
628.971,912.02
629.5,908.91
630.028,900.01
630.556,894.37
631.084,893.23
631.613,886.55
632.141,883.23
632.669,875.49
633.197,873.04
633.725,870.01
634.253,868.33
634.781,867.79
635.308,865.83
635.836,866.2
636.364,865.64
636.891,865.22
637.419,865.81
637.947,865.98
638.474,865.84
639.002,866.0
639.529,866.38
640.056,865.75
640.584,866.55
641.111,867.03
641.638,867.31
642.165,866.74
642.692,867.93
643.219,868.16
643.746,867.83
644.273,868.89
644.8,871.21
645.327,871.02
645.854,871.09
646.381,871.62
646.908,872.28
647.434,872.79
647.961,872.48
648.488,872.52
649.014,872.91
649.541,870.8
650.067,870.52
650.594,869.71
651.12,870.48
651.646,869.32
652.173,868.97
652.699,867.35
653.225,867.06
653.752,865.98
654.278,865.03
654.804,865.19
655.33,863.36
655.856,862.46
656.382,862.6
656.908,862.05
657.434,862.15
657.96,862.11
658.486,861.62
659.012,861.36
659.538,860.94
660.064,859.48
660.589,860.32
661.115,859.45
661.641,858.87
662.166,859.07
662.692,859.3
663.086,858.2