File: spectra/VLFR_07-PET_bio_Raman_1ed74288.csv
nm,Intensity
791.588,7969.8
792.685,7779.7
793.781,7639.3
794.878,7629.8
795.975,7680.5
797.071,7686.5
798.168,7680.2
799.264,7666.2
800.36,7641.7
801.456,7671.3
802.552,7650.6
803.648,7563.9
804.744,7540.8
805.84,7477.7
806.936,7433.7
808.031,7332.7
809.127,7307.2
810.222,7288.8
811.317,7212.6
812.412,7122.7
813.507,7090.8
814.602,6982.8
815.697,6983.4
816.792,6926.2
817.887,6893.0
818.981,6870.5
820.076,6890.2
821.17,6857.6
822.265,6787.0
823.359,6741.1
824.453,6784.8
825.547,6725.5
826.641,6703.8
827.735,6592.7
828.828,6605.5
829.922,6506.2
831.016,6529.7
832.109,6391.8
833.202,6432.9
834.295,6437.5
835.388,6278.6
836.481,6332.5
837.574,6346.7
838.667,6245.6
839.76,6222.3
840.852,6275.2
841.945,6303.3
843.037,6127.5
844.129,6117.7
845.221,6027.7
846.314,6017.2
847.405,5958.2
848.497,5906.8
849.589,5880.1
850.68,5851.6
851.772,5863.2
852.863,5844.4
853.955,5811.3
855.046,5774.1
856.137,5732.7
857.228,5711.8
858.318,5764.2
859.409,5795.9
860.5,5804.6
861.59,5707.4
862.681,5657.3
863.771,5611.8
864.861,5652.8
865.951,5617.4
867.041,5617.8
868.131,5526.4
869.22,5602.6
870.31,5612.2
871.399,5607.6
872.488,5653.8
873.578,5658.0
874.667,5531.7
875.756,5544.0
876.845,5497.8
877.933,5468.2
879.022,5448.1
880.11,5404.4
881.199,5400.2
882.287,5397.1
883.375,5419.4
884.463,5372.8
885.551,5351.9
886.639,5365.0
887.726,5263.7
888.814,5246.0
889.901,5267.7
890.988,5249.1
892.075,5202.6
893.162,5195.7
894.249,5151.6
895.336,5121.2
896.423,5102.5
897.509,5171.3
898.595,5339.9
899.682,5153.7
900.768,5021.6
901.854,4953.4
902.94,4938.7
904.025,4953.8
905.111,4926.7
906.196,4932.9
907.282,5049.6
908.367,5038.2
909.452,4925.5
910.537,4800.1
911.622,4746.2
912.706,4738.0
913.791,4726.6
914.875,4678.8
915.959,4645.1
917.044,4635.8
918.128,4605.4
919.211,4606.2
920.295,4561.9
921.379,4567.5
922.462,4511.7
923.546,4491.1
924.629,4480.6
925.712,4444.8
926.795,4442.5
927.877,4405.7
928.96,4393.6
930.043,4380.7
931.125,4350.3
932.207,4333.9
933.289,4317.6
934.371,4301.5
935.453,4272.9
936.535,4277.0
937.616,4256.6
938.697,4221.4
939.779,4218.1
940.86,4206.0
941.941,4194.0
943.022,4189.6
944.102,4163.2
945.183,4143.6
946.263,4134.3
947.343,4125.3
948.423,4108.8
949.503,4111.7
950.583,4096.1
951.663,4081.2
952.742,4076.0
953.822,4047.4
954.901,4054.5
955.98,4043.2
957.059,4034.0
958.137,4031.7
959.216,4026.4
960.294,4013.1
961.373,4010.6
962.451,3993.4
963.529,3984.5
964.607,3988.4
965.684,3969.7
966.762,3967.7
967.839,3959.6
968.917,3959.2
969.994,3945.4
971.071,3942.3
972.147,3939.3
973.224,3925.9
974.3,3913.1
975.377,3923.2
976.453,3911.0
977.529,3899.9
978.605,3899.6
979.68,3906.5
980.756,3892.4
981.831,3890.9
982.907,3889.7
983.982,3880.9
985.057,3873.0
986.131,3870.9
987.206,3869.5
988.28,3863.3
989.355,3859.0
990.429,3859.0
991.503,3854.1
992.576,3846.0
993.65,3846.9
994.723,3840.1
995.797,3835.2
996.87,3834.1
997.943,3833.6
999.016,3830.7
1000.09,3827.2
1001.16,3822.6
1002.23,3822.0
1003.31,3814.6
1004.38,3813.8
1005.45,3810.4
1006.52,3810.6
1007.59,3809.9
1008.66,3800.7
1009.73,3800.8
1010.81,3802.8
1011.88,3797.4
1012.95,3797.2
1014.02,3795.8
1015.09,3793.7
1016.16,3789.3
1017.23,3790.8
1018.3,3784.3
1019.37,3787.1
1020.44,3786.0
1021.51,3789.7
1022.58,3785.3
1023.64,3785.6
1024.71,3782.2
1025.78,3777.7
1026.85,3774.5
1027.92,3776.1
1028.99,3769.7
1030.05,3771.0
1031.12,3768.5
1032.19,3769.8
1033.26,3768.5
1034.32,3769.1
1035.39,3768.2
1036.46,3768.5
1037.52,3765.6
1038.59,3763.1
1039.66,3763.7
1040.72,3761.6
1041.79,3760.1
1042.86,3759.5
1043.92,3760.9
1044.99,3758.8
1046.05,3757.4
1047.12,3759.0
1048.18,3759.8
1049.25,3757.2
1050.31,3754.9
1051.37,3756.9
1052.44,3758.2
1053.5,3757.1
1054.57,3756.5
1055.63,3754.1
1056.69,3756.2
1057.76,3755.3
1058.82,3755.2
1059.88,3754.9
1060.95,3756.3
1062.01,3754.6
1063.07,3754.2
1064.13,3752.7
1065.19,3750.7
1066.26,3752.9
1067.32,3753.6
1068.11,3752.7