File: spectra/VLFR_02-HDPE_bio_Raman_1bf926f8.csv
nm,Intensity
526.547,831.85
527.095,832.45
527.642,832.55
528.189,831.3
528.736,833.0
529.283,832.1
529.829,832.95
530.376,830.55
530.922,831.65
531.468,832.35
532.014,838.2
532.56,832.25
533.106,831.8
533.651,833.45
534.196,900.7
534.742,896.5
535.287,892.85
535.832,875.9
536.376,873.2
536.921,870.55
537.465,869.9
538.01,868.75
538.554,869.15
539.098,867.35
539.642,865.5
540.186,866.1
540.729,866.6
541.273,868.15
541.816,868.85
542.36,869.25
542.903,868.4
543.446,869.65
543.988,870.55
544.531,871.55
545.074,869.6
545.616,873.0
546.158,874.25
546.701,871.5
547.243,874.0
547.785,873.2
548.326,873.7
548.868,873.9
549.41,875.85
549.951,876.2
550.492,874.2
551.034,873.7
551.575,874.5
552.116,874.45
552.656,873.95
553.197,876.45
553.738,876.85
554.278,875.85
554.819,878.25
555.359,879.0
555.899,877.5
556.439,878.35
556.979,877.1
557.519,879.2
558.058,880.65
558.598,880.5
559.137,877.75
559.677,881.15
560.216,879.05
560.755,878.95
561.294,880.55
561.833,882.65
562.371,883.35
562.91,884.8
563.449,888.6
563.987,964.4
564.525,903.65
565.064,896.85
565.602,894.9
566.14,985.6
566.678,897.05
567.216,891.5
567.753,893.15
568.291,890.4
568.828,890.5
569.366,892.55
569.903,895.2
570.44,898.75
570.977,901.25
571.514,1036.75
572.051,916.75
572.588,903.5
573.125,900.2
573.661,901.9
574.198,908.6
574.734,905.3
575.271,914.0
575.807,944.95
576.343,1044.15
576.879,981.65
577.415,956.9
577.951,932.3
578.486,932.1
579.022,938.7
579.557,942.8
580.093,948.6
580.628,953.85
581.164,956.9
581.699,967.05
582.234,969.9
582.769,978.45
583.304,985.6
583.838,990.4
584.373,995.7
584.908,1004.05
585.442,1015.65
585.977,1025.05
586.511,1036.75
587.045,1041.95
587.58,1059.15
588.114,1068.25
588.648,1076.1
589.182,1093.1
589.715,1100.3
590.249,1110.5
590.783,1120.7
591.316,1131.35
591.85,1141.2
592.383,1144.2
592.917,1148.6
593.45,1155.55
593.983,1163.95
594.516,1165.85
595.049,1176.2
595.582,1186.8
596.115,1203.25
596.648,1210.85
597.18,1217.1
597.713,1236.85
598.245,1246.7
598.778,1253.7
599.31,1265.65
599.842,1277.45
600.375,1281.05
600.907,1277.1
601.439,1277.55
601.971,1273.55
602.503,1274.85
603.034,1257.6
603.566,1255.7
604.098,1236.15
604.629,1219.15
605.161,1201.35
605.692,1179.2
606.224,1165.7
606.755,1151.8
607.286,1144.9
607.817,1129.35
608.348,1121.0
608.879,1111.8
609.41,1105.2
609.941,1094.3
610.472,1083.15
611.002,1078.1
611.533,1075.65
612.063,1071.05
612.594,1066.65
613.124,1065.2
613.655,1055.05
614.185,1050.0
614.715,1048.15
615.245,1043.45
615.775,1036.35
616.305,1033.45
616.835,1031.2
617.365,1029.1
617.895,1026.15
618.425,1021.7
618.954,1017.0
619.484,1018.2
620.013,1012.35
620.543,1007.7
621.072,1012.9
621.602,1020.25
622.131,1042.15
622.66,1036.3
623.189,1008.6
623.718,1002.2
624.247,999.55
624.776,996.8
625.305,995.1
625.834,1005.4
626.363,1025.8
626.891,1258.3
627.42,1540.3
627.949,1299.1
628.477,1585.4
629.006,1332.2
629.534,1239.75
630.062,1153.75
630.591,1132.25
631.119,1040.5
631.647,995.35
632.175,989.85
632.703,983.6
633.231,980.95
633.759,981.5
634.287,977.9
634.815,977.55
635.343,979.05
635.871,982.05
636.398,978.15
636.926,981.4
637.454,979.2
637.981,978.25
638.509,982.15
639.036,981.15
639.564,988.8
640.091,989.55
640.618,990.25
641.146,994.8
641.673,994.85
642.2,997.25
642.727,1000.2
643.254,997.85
643.781,1001.5
644.308,997.35
644.835,1001.65
645.362,1004.8
645.889,1000.05
646.416,1003.3
646.942,1004.35
647.469,1005.6
647.996,1008.55
648.522,1004.6
649.049,1008.05
649.576,1007.95
650.102,1009.35
650.629,1005.8
651.155,1010.35
651.682,1010.3
652.208,1008.85
652.734,1013.5
653.261,1012.25
653.787,1015.55
654.313,1014.8
654.839,1011.45
655.365,1010.25
655.892,1006.7
656.418,1006.6
656.944,1005.4
657.47,1004.0
657.996,1000.85
658.522,996.1
659.048,993.6
659.574,987.5
660.099,985.55
660.625,978.25
661.151,970.25
661.677,968.15
662.203,965.8
662.728,956.2
663.123,955.8