File: spectra/VLFR_07-PET_nobio_Raman_a388145e.csv
nm,Intensity
791.588,14679.6
792.685,13317.0
793.781,12622.2
794.878,12175.2
795.975,12049.7
797.071,11873.5
798.168,11829.1
799.264,11768.2
800.36,11810.0
801.456,11764.9
802.552,11648.3
803.648,11464.3
804.744,11390.4
805.84,11287.4
806.936,11099.3
808.031,11099.7
809.127,11008.9
810.222,10910.5
811.317,10821.6
812.412,10690.3
813.507,10531.9
814.602,10451.4
815.697,10329.0
816.792,10199.6
817.887,10205.3
818.981,10076.7
820.076,10113.0
821.17,9790.7
822.265,9816.1
823.359,9715.0
824.453,9591.9
825.547,9750.9
826.641,9538.8
827.735,9282.8
828.828,9266.2
829.922,9180.1
831.016,9255.2
832.109,8926.1
833.202,8957.6
834.295,8828.6
835.388,8769.8
836.481,8781.0
837.574,8887.7
838.667,8738.8
839.76,8616.7
840.852,8824.0
841.945,8884.9
843.037,8496.6
844.129,8344.4
845.221,8247.4
846.314,8048.0
847.405,8071.2
848.497,7947.9
849.589,7881.9
850.681,7837.0
851.772,7880.6
852.863,7849.8
853.955,7768.2
855.046,7664.8
856.137,7655.7
857.228,7562.1
858.318,7674.9
859.409,7769.0
860.5,7700.1
861.59,7450.7
862.681,7352.0
863.771,7330.7
864.861,7361.2
865.951,7290.0
867.041,7094.7
868.131,7105.3
869.22,7168.4
870.31,7171.4
871.399,7294.2
872.488,7490.5
873.578,7482.9
874.667,7138.2
875.756,6963.9
876.845,6931.4
877.933,6786.0
879.022,6756.9
880.11,6764.1
881.199,6649.9
882.287,6683.0
883.375,6634.2
884.463,6580.0
885.551,6645.7
886.639,6534.0
887.726,6372.7
888.814,6350.7
889.901,6340.8
890.988,6284.4
892.075,6306.1
893.162,6252.3
894.249,6186.8
895.336,6071.4
896.423,6150.7
897.509,6448.2
898.595,6909.4
899.682,6423.5
900.768,5951.9
901.854,5813.3
902.94,5798.9
904.025,5774.0
905.111,5769.1
906.196,5893.5
907.282,6263.9
908.367,6217.8
909.452,5886.3
910.537,5599.5
911.622,5466.3
912.706,5431.0
913.791,5370.2
914.875,5365.9
915.959,5346.9
917.044,5272.8
918.128,5249.1
919.211,5190.0
920.295,5146.9
921.379,5113.1
922.462,5085.9
923.546,5067.0
924.629,5011.2
925.712,4989.5
926.795,4928.6
927.877,4913.2
928.96,4840.1
930.043,4824.1
931.125,4802.8
932.207,4741.5
933.289,4728.9
934.371,4679.3
935.453,4664.4
936.535,4641.7
937.616,4598.8
938.697,4572.7
939.779,4565.7
940.86,4518.7
941.941,4513.9
943.022,4469.3
944.102,4454.9
945.183,4432.5
946.263,4407.9
947.343,4399.5
948.423,4365.2
949.503,4357.0
950.583,4324.8
951.663,4317.8
952.742,4290.5
953.822,4281.7
954.901,4249.1
955.98,4249.3
957.059,4224.0
958.137,4206.8
959.216,4202.3
960.294,4182.6
961.373,4159.7
962.451,4159.6
963.529,4133.2
964.607,4128.2
965.684,4102.2
966.762,4108.7
967.839,4104.0
968.917,4071.5
969.994,4075.6
971.071,4049.4
972.147,4082.5
973.224,4044.3
974.3,4025.0
975.377,4011.7
976.453,4012.6
977.529,3996.5
978.605,3993.9
979.68,3981.2
980.756,3970.3
981.831,3979.7
982.907,3965.0
983.982,3950.4
985.057,3955.0
986.131,3942.8
987.206,3935.9
988.28,3937.8
989.355,3928.3
990.429,3915.5
991.503,3909.7
992.576,3903.5
993.65,3898.1
994.723,3888.2
995.797,3895.3
996.87,3880.8
997.943,3878.7
999.016,3871.7
1000.09,3868.1
1001.16,3860.9
1002.23,3859.6
1003.31,3855.3
1004.38,3848.9
1005.45,3844.2
1006.52,3847.5
1007.59,3839.6
1008.66,3835.6
1009.73,3830.4
1010.81,3829.3
1011.88,3822.3
1012.95,3825.4
1014.02,3819.5
1015.09,3820.6
1016.16,3815.8
1017.23,3812.2
1018.3,3811.3
1019.37,3812.3
1020.44,3813.0
1021.51,3814.0
1022.58,3812.6
1023.64,3812.7
1024.71,3803.9
1025.78,3801.0
1026.85,3796.9
1027.92,3797.2
1028.99,3790.0
1030.05,3790.1
1031.12,3788.3
1032.19,3785.1
1033.26,3786.4
1034.32,3793.9
1035.39,3791.0
1036.46,3786.2
1037.52,3784.7
1038.59,3777.4
1039.66,3776.5
1040.72,3774.7
1041.79,3772.2
1042.86,3773.0
1043.92,3769.2
1044.99,3772.4
1046.05,3768.8
1047.12,3770.8
1048.18,3767.2
1049.25,3767.3
1050.31,3767.7
1051.37,3767.8
1052.44,3767.0
1053.5,3764.8
1054.57,3765.3
1055.63,3765.2
1056.69,3764.5
1057.76,3765.7
1058.82,3765.6
1059.88,3764.1
1060.95,3761.9
1062.01,3761.7
1063.07,3762.0
1064.13,3763.0
1065.19,3763.1
1066.26,3760.8
1067.32,3761.6
1068.11,3760.8