File: spectra/VLFR_07-PET_bio_Raman_83784984.csv
nm,Intensity
791.588,9101.1
792.685,8465.1
793.781,8286.9
794.878,8187.5
795.975,8083.6
797.071,8077.4
798.168,8018.8
799.264,8119.7
800.36,8051.9
801.456,8077.4
802.552,8055.9
803.648,8041.1
804.744,7850.6
805.84,7833.1
806.936,7767.0
808.031,7726.8
809.127,7694.8
810.222,7636.6
811.317,7554.7
812.412,7514.8
813.507,7420.0
814.602,7422.4
815.697,7324.3
816.792,7322.0
817.887,7238.5
818.981,7252.9
820.076,7165.8
821.17,7081.5
822.265,7085.4
823.359,7035.9
824.453,7044.8
825.547,7094.8
826.641,7042.3
827.735,6860.8
828.828,6924.8
829.922,6846.4
831.016,6914.5
832.109,6757.1
833.202,6718.3
834.295,6697.5
835.388,6670.3
836.481,6630.4
837.574,6693.2
838.667,6571.4
839.76,6560.5
840.852,6688.8
841.945,6740.2
843.037,6515.0
844.129,6470.1
845.221,6397.4
846.314,6221.0
847.405,6262.6
848.497,6185.7
849.589,6161.2
850.68,6153.0
851.772,6165.9
852.863,6112.6
853.955,6073.7
855.046,6006.7
856.137,5996.0
857.228,5983.5
858.318,6047.0
859.409,6056.6
860.5,6059.6
861.59,5935.5
862.681,5921.9
863.771,5906.7
864.861,5900.6
865.951,5809.0
867.041,5790.2
868.131,5731.4
869.22,5755.2
870.31,5792.9
871.399,5829.9
872.488,5983.5
873.578,5923.3
874.667,5830.6
875.756,5709.8
876.845,5667.3
877.933,5627.6
879.022,5594.5
880.11,5566.4
881.199,5581.8
882.287,5515.6
883.375,5541.1
884.463,5485.9
885.551,5491.9
886.639,5477.1
887.726,5416.7
888.814,5393.2
889.901,5343.1
890.988,5331.4
892.075,5319.5
893.162,5275.6
894.249,5208.3
895.336,5202.1
896.423,5230.8
897.509,5337.7
898.595,5538.1
899.682,5315.7
900.768,5105.5
901.854,5052.7
902.94,5010.6
904.025,5026.8
905.111,4998.0
906.196,5100.4
907.282,5206.4
908.367,5199.7
909.452,5025.6
910.537,4899.4
911.622,4811.8
912.706,4803.0
913.791,4748.3
914.875,4734.5
915.959,4727.4
917.044,4679.5
918.128,4670.7
919.211,4622.5
920.295,4633.4
921.379,4593.6
922.462,4576.0
923.546,4547.8
924.629,4544.5
925.712,4501.1
926.795,4494.6
927.877,4447.0
928.96,4427.9
930.043,4417.9
931.125,4391.7
932.207,4352.4
933.289,4338.0
934.371,4319.4
935.453,4318.0
936.535,4287.6
937.616,4273.1
938.697,4262.3
939.779,4245.9
940.86,4247.3
941.941,4224.2
943.022,4183.0
944.102,4188.7
945.183,4176.3
946.263,4172.7
947.343,4153.0
948.423,4149.6
949.503,4127.9
950.583,4093.9
951.663,4110.0
952.742,4093.6
953.822,4080.9
954.901,4073.5
955.98,4070.3
957.059,4051.2
958.137,4045.5
959.216,4039.1
960.294,4031.2
961.373,4009.1
962.451,4012.1
963.529,4003.4
964.607,3995.2
965.684,3982.2
966.762,3984.5
967.839,3979.5
968.917,3976.0
969.994,3970.1
971.071,3965.3
972.147,3948.5
973.224,3941.8
974.3,3935.2
975.377,3931.1
976.453,3927.6
977.529,3924.3
978.605,3916.8
979.68,3905.3
980.756,3904.1
981.831,3907.9
982.907,3897.6
983.982,3904.0
985.057,3887.4
986.131,3890.0
987.206,3880.9
988.28,3883.7
989.355,3874.2
990.429,3873.9
991.503,3864.4
992.576,3863.2
993.65,3855.8
994.723,3851.3
995.797,3849.1
996.87,3845.8
997.943,3842.5
999.016,3836.7
1000.09,3841.0
1001.16,3837.5
1002.23,3831.4
1003.31,3829.2
1004.38,3824.6
1005.45,3820.9
1006.52,3820.5
1007.59,3813.3
1008.66,3819.1
1009.73,3809.5
1010.81,3806.0
1011.88,3805.2
1012.95,3801.2
1014.02,3806.2
1015.09,3802.0
1016.16,3800.1
1017.23,3801.1
1018.3,3796.1
1019.37,3796.9
1020.44,3794.5
1021.51,3796.8
1022.58,3793.8
1023.64,3796.7
1024.71,3791.7
1025.78,3788.6
1026.85,3788.0
1027.92,3784.5
1028.99,3779.3
1030.05,3778.5
1031.12,3774.2
1032.19,3777.7
1033.26,3774.2
1034.32,3777.1
1035.39,3776.4
1036.46,3776.7
1037.52,3773.1
1038.59,3770.3
1039.66,3770.2
1040.72,3772.3
1041.79,3769.0
1042.86,3767.5
1043.92,3768.1
1044.99,3766.0
1046.05,3763.9
1047.12,3763.7
1048.18,3763.2
1049.25,3762.7
1050.31,3762.3
1051.37,3762.5
1052.44,3762.4
1053.5,3764.8
1054.57,3762.6
1055.63,3762.1
1056.69,3761.4
1057.76,3763.1
1058.82,3760.8
1059.88,3760.8
1060.95,3760.0
1062.01,3761.7
1063.07,3760.4
1064.13,3759.7
1065.19,3761.0
1066.26,3758.9
1067.32,3759.0
1068.11,3758.0