File: spectra/VLFR_07-PET_bio_Raman_aae56f9e.csv
nm,Intensity
791.496,12034.6
792.594,11198.0
793.692,10854.9
794.79,10723.5
795.888,10609.0
796.986,10461.5
798.083,10593.6
799.181,10418.5
800.278,10424.3
801.375,10374.0
802.473,10279.1
803.57,10188.2
804.667,10128.7
805.764,9991.2
806.86,9916.1
807.957,9866.7
809.054,9831.0
810.15,9809.6
811.246,9664.5
812.343,9698.4
813.439,9567.5
814.535,9388.8
815.631,9451.2
816.727,9283.8
817.822,9251.4
818.918,9106.5
820.013,9115.9
821.109,8975.7
822.204,8842.4
823.299,8783.2
824.394,8659.0
825.489,8842.9
826.584,8676.7
827.679,8449.3
828.774,8439.7
829.868,8397.6
830.963,8311.4
832.057,8275.6
833.151,8142.1
834.245,8042.7
835.339,8067.1
836.433,8165.4
837.527,8023.5
838.621,8027.6
839.714,7974.9
840.808,8216.7
841.901,8002.4
842.994,7851.4
844.087,7774.1
845.18,7579.4
846.273,7536.2
847.366,7465.1
848.458,7450.8
849.551,7381.9
850.643,7367.7
851.735,7405.2
852.828,7273.6
853.92,7255.7
855.012,7168.5
856.103,7157.1
857.195,7162.5
858.287,7188.4
859.378,7239.3
860.469,7125.3
861.56,7054.4
862.651,6938.5
863.742,6982.7
864.833,6887.8
865.924,6752.3
867.014,6788.0
868.105,6691.3
869.195,6719.3
870.285,6723.1
871.376,6896.4
872.465,6979.1
873.555,6825.9
874.645,6684.6
875.735,6541.2
876.824,6488.0
877.913,6426.3
879.002,6387.5
880.092,6281.7
881.18,6364.5
882.269,6336.4
883.358,6225.8
884.446,6287.5
885.535,6192.4
886.623,6091.9
887.711,6094.7
888.799,6044.9
889.887,5960.7
890.975,5980.7
892.062,5942.8
893.15,5827.8
894.237,5883.5
895.325,5832.4
896.412,5795.8
897.499,6167.1
898.585,6223.6
899.672,5883.0
900.759,5651.3
901.845,5559.7
902.931,5559.8
904.017,5530.2
905.103,5531.7
906.189,5695.7
907.275,5813.5
908.361,5680.0
909.446,5491.7
910.531,5309.6
911.616,5235.0
912.701,5245.3
913.786,5161.7
914.871,5173.8
915.956,5123.2
917.04,5095.6
918.124,5066.4
919.209,5019.3
920.293,4963.8
921.376,4918.0
922.46,4869.9
923.544,4890.7
924.627,4834.2
925.711,4789.8
926.794,4775.9
927.877,4757.1
928.96,4690.8
930.042,4669.5
931.125,4652.0
932.207,4607.1
933.29,4589.4
934.372,4561.0
935.454,4518.4
936.536,4514.7
937.617,4469.9
938.699,4446.0
939.78,4460.8
940.861,4420.9
941.943,4375.4
943.023,4367.9
944.104,4350.7
945.185,4323.6
946.265,4292.6
947.346,4285.0
948.426,4275.8
949.506,4244.2
950.586,4225.9
951.665,4216.9
952.745,4198.0
953.824,4162.7
954.904,4152.4
955.983,4156.1
957.062,4131.1
958.141,4109.3
959.219,4100.4
960.298,4090.8
961.376,4066.1
962.454,4060.7
963.532,4054.4
964.61,4051.5
965.688,4028.7
966.765,4026.5
967.842,4013.7
968.92,4003.6
969.997,3994.1
971.074,3979.6
972.15,3958.5
973.227,3958.4
974.303,3956.6
975.379,3938.3
976.455,3938.3
977.531,3922.5
978.607,3915.3
979.683,3915.3
980.758,3896.3
981.833,3888.1
982.908,3886.3
983.983,3884.4
985.058,3872.0
986.133,3870.5
987.207,3865.4
988.281,3863.9
989.355,3854.1
990.429,3844.1
991.503,3837.2
992.577,3830.1
993.65,3832.2
994.723,3831.0
995.796,3822.3
996.869,3811.9
997.942,3813.7
999.014,3809.8
1000.09,3799.9
1001.16,3798.6
1002.23,3793.1
1003.3,3786.7
1004.37,3784.4
1005.45,3782.2
1006.52,3779.0
1007.59,3772.4
1008.66,3768.3
1009.73,3768.3
1010.8,3763.0
1011.87,3764.5
1012.94,3759.9
1014.01,3757.4
1015.08,3753.0
1016.15,3750.8
1017.22,3756.0
1018.29,3747.5
1019.36,3746.2
1020.43,3744.0
1021.5,3751.7
1022.57,3752.7
1023.64,3745.3
1024.7,3736.2
1025.77,3731.9
1026.84,3732.2
1027.91,3727.4
1028.97,3723.5
1030.04,3725.3
1031.11,3724.7
1032.18,3722.2
1033.24,3725.0
1034.31,3724.6
1035.38,3723.3
1036.44,3717.4
1037.51,3716.5
1038.58,3715.4
1039.64,3714.2
1040.71,3709.9
1041.77,3707.4
1042.84,3708.6
1043.9,3707.2
1044.97,3708.0
1046.03,3705.4
1047.1,3706.2
1048.16,3704.7
1049.22,3705.7
1050.29,3703.5
1051.35,3704.3
1052.42,3704.7
1053.48,3704.8
1054.54,3702.6
1055.61,3703.8
1056.67,3699.4
1057.73,3703.6
1058.79,3698.2
1059.86,3698.2
1060.92,3701.6
1061.98,3701.7
1063.04,3698.1
1064.1,3701.4
1065.16,3696.9
1066.22,3700.4
1067.29,3696.7
1068.08,3699.2