File: spectra/VLFR_06-PET_nobio_Raman_31789562.csv
nm,Intensity
526.508,830.933
527.055,829.867
527.602,830.7
528.149,830.967
528.695,830.3
529.241,830.1
529.787,830.467
530.334,831.033
530.879,830.2
531.425,830.033
531.971,834.267
532.516,831.133
533.062,829.933
533.607,830.6
534.152,921.1
534.697,905.3
535.242,886.067
535.786,872.367
536.331,865.6
536.876,863.5
537.42,860.367
537.964,860.833
538.508,862.0
539.052,863.467
539.596,865.833
540.14,862.467
540.683,863.267
541.227,863.033
541.77,864.5
542.313,869.033
542.856,872.0
543.399,868.967
543.942,867.633
544.485,868.533
545.027,869.233
545.57,869.667
546.112,867.467
546.654,870.967
547.196,870.133
547.738,868.367
548.28,865.767
548.822,865.4
549.363,867.6
549.905,867.433
550.446,867.367
550.988,868.5
551.529,866.667
552.07,865.967
552.611,867.7
553.152,867.6
553.692,867.4
554.233,866.633
554.773,868.1
555.314,869.067
555.854,871.067
556.394,870.633
556.934,871.833
557.474,881.267
558.014,875.767
558.553,877.833
559.093,875.6
559.632,873.3
560.172,872.767
560.711,873.0
561.25,875.4
561.789,877.0
562.328,876.567
562.867,881.267
563.406,883.2
563.944,887.167
564.483,891.0
565.021,904.567
565.559,903.867
566.098,899.233
566.636,889.2
567.174,885.167
567.711,885.267
568.249,882.0
568.787,883.3
569.324,885.267
569.862,888.367
570.399,890.3
570.936,899.033
571.474,904.367
572.011,897.367
572.548,894.733
573.084,895.467
573.621,896.9
574.158,901.133
574.694,898.167
575.231,897.433
575.767,895.7
576.303,895.333
576.84,895.133
577.376,896.033
577.912,891.2
578.447,890.333
578.983,890.333
579.519,891.133
580.054,891.2
580.59,890.267
581.125,892.167
581.661,896.1
582.196,950.233
582.731,897.2
583.266,894.4
583.801,894.033
584.336,895.533
584.87,895.033
585.405,899.867
585.94,922.5
586.474,915.4
587.008,898.533
587.543,898.0
588.077,896.0
588.611,896.133
589.145,897.533
589.679,895.633
590.213,898.0
590.747,897.367
591.28,898.633
591.814,898.767
592.347,900.3
592.881,897.767
593.414,897.067
593.947,898.533
594.48,900.2
595.014,900.767
595.547,901.367
596.079,901.967
596.612,901.867
597.145,900.667
597.678,902.2
598.21,903.7
598.743,903.933
599.275,904.9
599.807,901.633
600.34,903.3
600.872,901.067
601.404,903.4
601.936,904.367
602.468,904.667
603.0,904.4
603.532,904.6
604.063,904.467
604.595,903.3
605.126,901.833
605.658,903.867
606.189,901.533
606.721,900.8
607.252,901.233
607.783,902.6
608.314,904.433
608.845,905.267
609.376,903.0
609.907,904.233
610.438,903.1
610.968,904.933
611.499,904.433
612.03,906.667
612.56,905.0
613.091,905.367
613.621,907.833
614.151,907.5
614.681,907.3
615.212,907.967
615.742,907.7
616.272,909.9
616.802,905.8
617.332,909.1
617.861,910.0
618.391,910.733
618.921,910.733
619.45,908.3
619.98,910.5
620.509,910.267
621.039,912.067
621.568,910.667
622.097,912.233
622.627,912.067
623.156,913.1
623.685,914.333
624.214,914.533
624.743,917.1
625.272,918.233
625.801,920.7
626.33,920.3
626.858,923.367
627.387,928.7
627.916,935.267
628.444,951.9
628.973,956.867
629.501,955.933
630.029,950.433
630.558,946.033
631.086,946.533
631.614,944.7
632.142,941.533
632.67,934.233
633.198,928.8
633.726,922.9
634.254,920.033
634.782,921.433
635.31,922.0
635.838,924.067
636.365,927.733
636.893,927.267
637.421,924.467
637.948,925.233
638.476,922.067
639.003,922.933
639.531,924.667
640.058,924.9
640.585,926.1
641.113,925.533
641.64,927.5
642.167,927.533
642.694,927.2
643.221,926.1
643.748,926.8
644.275,924.167
644.802,927.167
645.329,928.1
645.856,926.8
646.382,927.733
646.909,930.033
647.436,929.833
647.962,930.2
648.489,928.9
649.016,929.367
649.542,930.033
650.069,930.3
650.595,929.967
651.121,929.133
651.648,931.267
652.174,930.433
652.7,927.467
653.227,927.033
653.753,929.133
654.279,924.633
654.805,926.533
655.331,925.267
655.857,924.233
656.383,925.133
656.909,925.467
657.435,922.167
657.961,921.467
658.487,922.533
659.013,921.267
659.538,921.233
660.064,920.9
660.59,918.833
661.116,919.167
661.641,918.467
662.167,916.1
662.692,918.833
663.087,916.533