File: spectra/VLFR_02-HDPE_nobio_Raman_4d032ea3.csv
nm,Intensity
526.547,832.3
527.094,833.7
527.641,833.3
528.188,833.2
528.734,831.6
529.281,833.0
529.827,833.8
530.373,832.6
530.92,831.7
531.466,832.5
532.011,839.3
532.557,832.3
533.103,832.7
533.648,834.9
534.193,904.5
534.738,891.1
535.283,878.9
535.828,869.9
536.373,865.7
536.917,863.1
537.462,864.2
538.006,862.0
538.55,859.5
539.094,856.3
539.638,854.1
540.182,854.1
540.726,852.8
541.269,855.4
541.812,855.2
542.356,855.3
542.899,855.3
543.442,853.0
543.985,854.7
544.527,857.8
545.07,855.6
545.612,853.6
546.155,857.9
546.697,854.6
547.239,853.6
547.781,856.3
548.323,854.5
548.865,855.6
549.406,856.9
549.948,857.0
550.489,856.1
551.03,858.7
551.572,856.0
552.113,857.3
552.654,856.0
553.194,856.2
553.735,861.7
554.276,860.9
554.816,861.0
555.356,861.4
555.896,862.9
556.437,862.5
556.977,866.3
557.516,867.9
558.056,870.1
558.596,871.0
559.135,868.4
559.675,867.8
560.214,867.5
560.753,868.6
561.292,865.2
561.831,867.7
562.37,872.3
562.909,871.8
563.448,877.8
563.986,990.9
564.525,894.1
565.063,889.2
565.601,888.5
566.139,1119.5
566.677,891.8
567.215,881.3
567.753,880.0
568.291,875.8
568.828,875.6
569.366,878.0
569.903,875.8
570.441,883.1
570.978,889.5
571.515,1102.7
572.052,911.3
572.589,890.0
573.126,881.2
573.662,882.0
574.199,893.0
574.735,884.0
575.272,903.4
575.808,964.9
576.344,1014.0
576.88,970.3
577.416,930.7
577.952,903.0
578.488,901.6
579.024,899.0
579.559,900.6
580.095,903.1
580.63,905.5
581.166,909.8
581.701,912.3
582.236,914.7
582.771,923.7
583.306,924.4
583.841,928.1
584.376,935.4
584.911,939.7
585.445,945.7
585.98,954.8
586.514,961.0
587.048,973.0
587.583,979.2
588.117,982.2
588.651,996.1
589.185,1001.0
589.719,1004.0
590.253,1013.3
590.786,1017.2
591.32,1015.5
591.853,1023.5
592.387,1019.3
592.92,1024.5
593.454,1025.0
593.987,1026.3
594.52,1022.8
595.053,1024.6
595.586,1026.4
596.119,1020.9
596.651,1020.0
597.184,1023.8
597.717,1022.1
598.249,1021.3
598.782,1019.2
599.314,1020.8
599.846,1022.2
600.379,1014.4
600.911,1014.4
601.443,1020.1
601.975,1014.2
602.507,1008.1
603.038,1009.0
603.57,1007.5
604.102,1006.2
604.633,998.2
605.165,995.1
605.696,993.8
606.228,982.7
606.759,976.1
607.29,982.0
607.821,973.9
608.352,974.7
608.883,967.9
609.414,969.5
609.945,966.2
610.476,966.5
611.006,970.7
611.537,965.5
612.067,963.2
612.598,956.4
613.128,957.9
613.659,955.6
614.189,958.8
614.719,954.1
615.249,950.1
615.779,954.7
616.309,945.9
616.839,946.2
617.369,948.8
617.899,951.1
618.428,952.9
618.958,949.4
619.487,945.7
620.017,947.3
620.546,948.1
621.076,952.4
621.605,963.5
622.134,986.1
622.663,973.8
623.193,949.9
623.722,946.9
624.251,943.7
624.78,944.4
625.308,950.3
625.837,952.3
626.366,986.7
626.895,1263.7
627.423,1647.6
627.952,1346.0
628.48,1631.9
629.009,1467.6
629.537,1341.6
630.065,1221.6
630.594,1192.1
631.122,1052.7
631.65,978.6
632.178,954.1
632.706,950.8
633.234,949.4
633.762,941.7
634.29,940.9
634.818,939.3
635.346,946.1
635.873,940.9
636.401,944.6
636.929,944.0
637.456,943.0
637.984,943.5
638.511,942.5
639.039,944.1
639.566,950.4
640.093,945.4
640.62,948.1
641.148,953.2
641.675,951.5
642.202,947.9
642.729,953.7
643.256,951.3
643.783,951.3
644.31,953.5
644.837,952.3
645.364,941.6
645.891,946.6
646.417,943.6
646.944,944.7
647.471,947.5
647.997,941.9
648.524,942.3
649.051,942.1
649.577,939.4
650.104,933.9
650.63,935.2
651.157,933.7
651.683,931.7
652.209,935.5
652.736,928.3
653.262,928.8
653.788,928.6
654.314,930.7
654.84,925.0
655.366,926.0
655.893,925.6
656.419,924.5
656.945,918.0
657.471,918.9
657.997,919.0
658.522,916.9
659.048,915.5
659.574,916.4
660.1,918.5
660.626,912.2
661.152,910.3
661.677,905.6
662.203,903.7
662.729,901.7
663.123,901.4