File: spectra/VLFR_01-LDPE_bio_Raman_b846bd83.csv
nm,Intensity
526.508,830.7
527.055,829.7
527.602,829.6
528.149,829.7
528.695,828.9
529.241,828.9
529.787,829.3
530.334,830.9
530.879,829.8
531.425,830.1
531.971,832.1
532.516,830.6
533.062,829.8
533.607,831.2
534.152,916.5
534.697,901.3
535.242,882.2
535.786,873.0
536.331,865.3
536.876,859.3
537.42,857.7
537.964,858.6
538.508,855.5
539.052,854.9
539.596,851.4
540.14,848.0
540.683,846.6
541.227,846.3
541.77,845.5
542.313,847.5
542.856,846.0
543.399,845.6
543.942,846.2
544.485,845.6
545.027,843.3
545.57,843.3
546.112,842.8
546.654,843.4
547.196,843.2
547.738,843.4
548.28,844.2
548.822,841.3
549.363,842.0
549.905,842.2
550.446,841.0
550.988,839.8
551.529,842.3
552.07,843.5
552.611,842.6
553.152,843.1
553.692,845.7
554.233,845.7
554.773,846.4
555.314,846.9
555.854,849.4
556.394,851.2
556.934,854.2
557.474,856.7
558.014,862.0
558.553,861.2
559.093,857.8
559.632,853.7
560.172,854.8
560.711,854.8
561.25,853.9
561.789,856.8
562.328,858.0
562.867,865.0
563.406,869.2
563.944,925.5
564.483,892.6
565.021,886.9
565.559,875.8
566.098,957.4
566.636,883.6
567.174,873.8
567.711,876.5
568.249,872.0
568.787,869.6
569.324,874.3
569.862,878.3
570.399,882.8
570.936,893.6
571.474,994.4
572.011,935.0
572.548,912.0
573.084,905.6
573.621,913.2
574.158,919.8
574.694,921.9
575.231,931.5
575.767,989.5
576.303,1099.9
576.84,1055.5
577.376,1020.8
577.912,992.6
578.447,1000.7
578.983,1018.5
579.519,1037.4
580.054,1044.6
580.59,1066.4
581.125,1077.7
581.661,1091.7
582.196,1110.4
582.731,1126.1
583.266,1142.2
583.801,1149.7
584.336,1161.0
584.87,1172.8
585.405,1187.5
585.94,1203.6
586.474,1209.4
587.008,1239.5
587.543,1247.8
588.077,1260.8
588.611,1280.4
589.145,1288.6
589.679,1314.8
590.213,1332.6
590.747,1358.0
591.28,1373.3
591.814,1382.7
592.347,1387.3
592.881,1397.0
593.414,1408.4
593.947,1410.6
594.48,1426.7
595.014,1425.4
595.547,1445.9
596.079,1438.9
596.612,1453.0
597.145,1465.4
597.678,1471.6
598.21,1487.6
598.743,1499.6
599.275,1530.1
599.807,1516.6
600.34,1523.4
600.872,1520.3
601.404,1514.2
601.936,1513.5
602.468,1497.6
603.0,1497.1
603.532,1466.9
604.063,1441.9
604.595,1438.1
605.126,1405.9
605.658,1377.9
606.189,1357.3
606.721,1332.0
607.252,1304.8
607.783,1295.0
608.314,1276.0
608.845,1259.7
609.376,1260.8
609.907,1233.8
610.438,1219.1
610.968,1217.4
611.499,1203.5
612.03,1192.3
612.56,1189.6
613.091,1180.5
613.621,1169.6
614.151,1160.8
614.681,1162.9
615.212,1152.1
615.742,1144.1
616.272,1133.9
616.802,1135.5
617.332,1131.0
617.861,1124.9
618.391,1125.3
618.921,1112.7
619.45,1109.1
619.98,1110.8
620.509,1107.4
621.039,1109.0
621.568,1114.2
622.097,1136.2
622.627,1133.7
623.156,1105.3
623.685,1096.3
624.214,1095.9
624.743,1089.8
625.272,1100.8
625.801,1103.0
626.33,1129.7
626.858,1352.0
627.387,1873.3
627.916,1569.3
628.444,1784.3
628.973,1681.6
629.501,1551.8
630.029,1425.2
630.558,1397.6
631.086,1253.0
631.614,1154.6
632.142,1127.6
632.67,1111.4
633.198,1108.6
633.726,1108.2
634.254,1111.2
634.782,1113.0
635.31,1108.4
635.838,1106.1
636.365,1113.5
636.893,1114.4
637.421,1109.8
637.948,1116.5
638.476,1122.2
639.003,1124.4
639.531,1129.4
640.058,1135.2
640.585,1141.3
641.113,1146.2
641.64,1153.6
642.167,1157.3
642.694,1158.5
643.221,1157.8
643.748,1162.8
644.275,1166.4
644.802,1169.1
645.329,1171.3
645.856,1173.0
646.382,1172.9
646.909,1178.5
647.436,1175.2
647.962,1173.7
648.489,1172.1
649.016,1169.3
649.542,1169.4
650.069,1164.7
650.595,1170.2
651.121,1163.2
651.648,1168.5
652.174,1166.6
652.7,1172.6
653.227,1170.1
653.753,1167.1
654.279,1167.9
654.805,1161.0
655.331,1154.3
655.857,1160.2
656.383,1147.9
656.909,1148.1
657.435,1140.5
657.961,1131.3
658.487,1135.6
659.013,1120.0
659.538,1112.5
660.064,1106.1
660.59,1092.0
661.116,1082.9
661.641,1074.2
662.167,1058.2
662.692,1051.9
663.087,1047.8