File: spectra/VLFR_08-PLA_nobio_Raman_563bb233.csv
cm-1,Intensity
-123.878,1852.35
-105.821,1852.4
-87.8007,1851.8
-69.8161,1853.0
-51.8675,1853.9
-33.9547,1853.45
-16.0776,1883.1
1.76388,2979.55
19.5698,1855.0
37.3403,1853.3
55.0755,1927.45
72.7754,2108.3
90.4402,2104.9
108.07,2103.3
125.665,2088.6
143.225,2078.45
160.75,2082.65
178.241,2075.15
195.697,2097.0
213.119,2076.15
230.506,2071.45
247.859,2087.4
265.178,2079.45
282.463,2084.2
299.713,2106.45
316.93,2105.0
334.113,2095.15
351.263,2098.8
368.379,2098.4
385.461,2127.4
402.51,2171.35
419.526,2126.8
436.508,2111.7
453.458,2114.1
470.374,2124.45
487.257,2131.0
504.107,2127.6
520.925,2135.05
537.71,2132.05
554.462,2145.75
571.182,2147.6
587.87,2145.0
604.525,2153.6
621.148,2148.25
637.739,2167.6
654.297,2158.95
670.824,2180.4
687.319,2177.65
703.782,2179.55
720.213,2176.45
736.613,2194.2
752.981,2182.3
769.317,2194.65
785.623,2185.85
801.897,2181.1
818.139,2189.0
834.351,2193.0
850.532,2198.85
866.681,2331.3
882.8,2273.6
898.888,2227.25
914.945,2216.8
930.972,2213.05
946.968,2211.2
962.934,2215.6
978.869,2216.65
994.774,2222.6
1010.65,2231.45
1026.49,2242.65
1042.31,2289.15
1058.09,2244.0
1073.85,2252.25
1089.57,2286.0
1105.27,2268.3
1120.93,2308.7
1136.57,2297.75
1152.18,2275.95
1167.75,2256.4
1183.3,2283.4
1198.82,2280.75
1214.31,2285.95
1229.77,2275.05
1245.2,2285.65
1260.6,2274.3
1275.97,2282.7
1291.32,2327.1
1306.63,2319.1
1321.92,2313.35
1337.18,2307.1
1352.41,2310.35
1367.61,2313.7
1382.78,2326.7
1397.93,2316.1
1413.05,2290.9
1428.14,2314.5
1443.2,2360.2
1458.23,2374.65
1473.23,2311.5
1488.21,2305.45
1503.16,2291.05
1518.08,2298.5
1532.97,2296.45
1547.84,2297.65
1562.68,2298.8
1577.49,2313.6
1592.27,2302.7
1607.03,2319.55
1621.76,2314.9
1636.46,2297.8
1651.14,2311.9
1665.78,2289.4
1680.41,2292.0
1695.0,2298.05
1709.57,2292.55
1724.11,2297.5
1738.62,2299.45
1753.11,2348.45
1767.57,2395.15
1782.01,2357.8
1796.41,2304.25
1810.8,2291.45
1825.15,2283.7
1839.48,2298.85
1853.79,2305.9
1868.06,2291.6
1882.31,2295.55
1896.54,2299.95
1910.74,2301.85
1924.91,2271.15
1939.06,2291.3
1953.19,2302.3
1967.28,2304.3
1981.35,2292.1
1995.4,2291.75
2009.42,2292.15
2023.42,2290.15
2037.39,2293.85
2051.33,2293.4
2065.25,2294.45
2079.15,2288.75
2093.01,2300.8
2106.86,2292.3
2120.68,2309.0
2134.47,2301.45
2148.24,2308.45
2161.99,2306.7
2175.71,2301.1
2189.41,2303.5
2203.08,2315.05
2216.73,2302.55
2230.35,2300.5
2243.95,2300.8
2257.52,2302.75
2271.07,2294.8
2284.6,2298.45
2298.1,2293.85
2311.58,2311.05
2325.03,2302.3
2338.46,2306.3
2351.87,2289.35
2365.25,2295.0
2378.61,2280.6
2391.94,2298.95
2405.26,2295.4
2418.54,2295.55
2431.81,2309.95
2445.05,2300.55
2458.27,2275.9
2471.46,2278.05
2484.63,2279.65
2497.78,2302.9
2510.9,2286.2
2524.0,2285.0
2537.08,2282.65
2550.14,2278.3
2563.17,2291.4
2576.18,2285.25
2589.17,2282.0
2602.13,2268.95
2615.07,2279.75
2627.99,2273.85
2640.89,2269.95
2653.76,2280.7
2666.61,2287.6
2679.44,2274.5
2692.25,2275.3
2705.03,2271.1
2717.79,2265.05
2730.53,2265.3
2743.25,2290.75
2755.94,2281.45
2768.61,2269.95
2781.27,2274.6
2793.89,2253.85
2806.5,2248.95
2819.09,2264.8
2831.65,2244.95
2844.19,2249.05
2856.71,2250.2
2869.21,2314.75
2881.69,2388.85
2894.14,2353.85
2906.58,2357.85
2918.99,2363.95
2931.38,2486.9
2943.75,3171.7
2956.1,2836.45
2968.42,2532.4
2980.73,2436.35
2993.01,2533.25
3005.28,2582.65
3017.52,2442.85
3029.74,2297.15
3041.94,2254.1
3054.12,2225.5
3066.28,2214.1
3078.42,2211.2
3090.54,2201.95
3102.63,2179.35
3114.71,2199.85
3126.77,2212.45
3138.8,2191.5
3150.82,2191.1
3162.81,2178.85
3174.78,2184.6
3186.74,2179.85
3198.67,2182.9
3210.58,2174.3
3222.47,2168.35
3234.35,2194.25
3246.2,2158.6
3258.03,2153.55
3269.84,2161.2
3281.64,2157.35
3293.41,2147.6
3305.16,2148.7
3316.89,2149.1
3328.61,2132.25
3340.3,2140.5
3351.97,2143.05
3363.63,2136.7
3375.26,2119.6
3386.88,2129.85
3398.47,2117.6
3410.05,2114.25
3421.6,2126.3
3433.14,2113.55
3444.66,2117.55
3456.15,2123.3
3467.63,2103.5
3479.09,2108.45
3490.53,2090.2
3501.96,2090.3
3513.36,2109.3
3524.74,2088.45
3536.11,2099.55
3547.45,2085.9
3558.78,2090.0
3570.09,2081.0
3581.37,2083.5
3592.64,2085.85
3603.9,2079.9
3615.13,2072.35
3626.34,2051.6
3637.54,2059.25
3648.72,2070.85
3659.87,2061.75
3665.45,2056.7