File: spectra/VLFR_02-HDPE_nobio_Raman_c20ef9c5.csv
nm,Intensity
526.508,831.0
527.055,830.3
527.602,829.4
528.149,830.5
528.695,830.5
529.241,830.5
529.787,830.9
530.334,829.9
530.879,830.7
531.425,830.1
531.971,834.2
532.516,830.5
533.062,829.9
533.607,831.2
534.152,903.6
534.697,910.3
535.242,906.8
535.786,869.3
536.331,858.5
536.876,855.4
537.42,853.9
537.964,852.5
538.508,849.1
539.052,848.9
539.596,846.5
540.14,844.0
540.683,842.9
541.227,844.7
541.77,843.9
542.313,843.1
542.856,842.7
543.399,844.1
543.942,842.7
544.485,841.9
545.027,841.9
545.57,841.8
546.112,841.9
546.654,844.0
547.196,842.3
547.738,845.1
548.28,843.2
548.822,842.1
549.363,841.9
549.905,842.1
550.446,842.8
550.988,843.0
551.529,843.2
552.07,843.4
552.611,844.0
553.152,845.8
553.692,845.4
554.233,845.6
554.773,847.8
555.314,848.1
555.854,849.1
556.394,848.2
556.934,849.2
557.474,851.6
558.014,855.3
558.553,854.9
559.093,849.1
559.632,852.3
560.172,848.8
560.711,848.7
561.25,851.1
561.789,851.0
562.328,852.2
562.867,854.5
563.406,857.0
563.944,951.8
564.483,875.7
565.021,870.1
565.559,861.9
566.098,921.2
566.636,863.1
567.174,858.6
567.711,869.3
568.249,854.6
568.787,852.6
569.324,855.2
569.862,855.1
570.399,857.5
570.936,867.1
571.474,997.8
572.011,885.5
572.548,865.3
573.084,863.0
573.621,860.2
574.158,872.6
574.694,857.7
575.231,863.4
575.767,906.1
576.303,1039.1
576.84,956.9
577.376,928.1
577.912,875.3
578.447,866.5
578.983,863.5
579.519,864.6
580.054,864.8
580.59,865.6
581.125,861.3
581.661,866.7
582.196,869.4
582.731,867.2
583.266,865.8
583.801,869.1
584.336,870.9
584.87,867.6
585.405,869.5
585.94,871.4
586.474,872.6
587.008,874.6
587.543,878.0
588.077,877.8
588.611,878.3
589.145,878.6
589.679,879.6
590.213,879.1
590.747,881.0
591.28,879.4
591.814,880.9
592.347,881.6
592.881,880.2
593.414,883.6
593.947,883.6
594.48,878.9
595.014,883.0
595.547,885.5
596.079,882.8
596.612,880.9
597.145,881.8
597.678,886.0
598.21,882.2
598.743,884.6
599.275,886.4
599.807,888.7
600.34,884.2
600.872,887.0
601.404,884.5
601.936,891.4
602.468,889.4
603.0,885.2
603.532,885.8
604.063,884.4
604.595,887.6
605.126,881.4
605.658,882.1
606.189,878.2
606.721,877.2
607.252,879.0
607.783,875.8
608.314,875.9
608.845,876.3
609.376,876.3
609.907,876.2
610.438,874.1
610.968,874.5
611.499,874.9
612.03,874.2
612.56,875.5
613.091,872.1
613.621,875.4
614.151,870.5
614.681,875.8
615.212,874.6
615.742,871.7
616.272,873.8
616.802,879.0
617.332,886.4
617.861,887.4
618.391,888.2
618.921,885.5
619.45,893.9
619.98,894.8
620.509,892.0
621.039,901.2
621.568,924.4
622.097,969.0
622.627,967.2
623.156,909.8
623.685,896.3
624.214,894.6
624.743,897.4
625.272,897.2
625.801,911.5
626.33,965.2
626.858,1416.0
627.387,2167.8
627.916,1609.9
628.444,2046.0
628.973,1542.7
629.501,1383.9
630.029,1222.1
630.558,1187.3
631.086,1016.9
631.614,918.3
632.142,902.3
632.67,890.4
633.198,890.5
633.726,883.3
634.254,877.5
634.782,877.1
635.31,875.0
635.838,873.2
636.365,873.0
636.893,871.4
637.421,866.6
637.948,865.8
638.476,861.9
639.003,863.9
639.531,864.5
640.058,864.7
640.585,862.7
641.113,863.5
641.64,861.2
642.167,861.2
642.694,861.7
643.221,862.6
643.748,863.1
644.275,861.4
644.802,861.8
645.329,861.6
645.856,860.4
646.382,859.1
646.909,862.4
647.436,861.1
647.962,859.7
648.489,859.5
649.016,860.2
649.542,859.6
650.069,860.0
650.595,857.8
651.121,860.9
651.648,858.3
652.174,857.5
652.7,856.5
653.227,857.0
653.753,858.1
654.279,859.2
654.805,857.2
655.331,857.1
655.857,857.1
656.383,856.4
656.909,857.5
657.435,853.7
657.961,854.9
658.487,857.6
659.013,856.2
659.538,857.0
660.064,858.1
660.59,856.8
661.116,853.8
661.641,854.8
662.167,854.6
662.692,853.1
663.087,854.2