File: spectra/VLFR_07-PET_bio_Raman_adee5d0f.csv
nm,Intensity
791.75,7729.8
792.846,7522.2
793.942,7412.9
795.037,7438.75
796.133,7380.2
797.228,7346.45
798.324,7318.2
799.419,7337.7
800.514,7294.15
801.61,7298.85
802.705,7234.25
803.8,7225.2
804.894,7194.5
805.989,7105.2
807.084,7075.3
808.178,6940.3
809.273,7077.4
810.367,6907.9
811.461,6895.35
812.556,6926.9
813.65,6815.65
814.744,6728.85
815.837,6700.2
816.931,6605.85
818.025,6540.55
819.118,6582.5
820.212,6533.7
821.305,6493.05
822.398,6407.15
823.491,6353.45
824.585,6389.8
825.677,6391.4
826.77,6300.8
827.863,6264.4
828.956,6193.2
830.048,6178.35
831.14,6122.65
832.233,6073.75
833.325,6096.65
834.417,6068.75
835.509,6003.15
836.601,6016.2
837.692,6045.7
838.784,5985.3
839.876,5959.3
840.967,5974.0
842.058,6010.7
843.149,5895.2
844.24,5853.65
845.331,5849.25
846.422,5762.05
847.513,5793.4
848.604,5714.7
849.694,5704.7
850.784,5708.4
851.875,5665.6
852.965,5688.25
854.055,5621.65
855.145,5605.45
856.235,5586.8
857.324,5577.35
858.414,5601.3
859.503,5597.45
860.593,5575.35
861.682,5496.55
862.771,5487.95
863.86,5473.65
864.949,5442.2
866.038,5391.8
867.126,5365.45
868.215,5358.8
869.303,5391.35
870.391,5358.15
871.479,5411.9
872.567,5437.4
873.655,5415.65
874.743,5368.6
875.831,5286.65
876.918,5236.25
878.006,5256.75
879.093,5219.2
880.18,5183.85
881.267,5192.7
882.354,5190.3
883.441,5173.4
884.527,5127.35
885.614,5123.0
886.7,5099.6
887.786,5027.25
888.872,5043.45
889.958,4997.2
891.044,5019.6
892.13,4979.8
893.216,4968.5
894.301,4908.75
895.386,4899.8
896.472,4896.5
897.557,4993.8
898.642,5048.1
899.726,4893.5
900.811,4807.4
901.896,4746.95
902.98,4786.0
904.064,4745.5
905.148,4721.3
906.232,4791.65
907.316,4859.6
908.4,4872.45
909.484,4718.6
910.567,4634.0
911.65,4608.45
912.734,4573.8
913.817,4576.6
914.9,4540.95
915.982,4501.9
917.065,4518.9
918.147,4487.25
919.23,4476.5
920.312,4446.7
921.394,4450.7
922.476,4424.45
923.558,4390.55
924.639,4373.1
925.721,4374.15
926.802,4348.15
927.884,4335.65
928.965,4290.3
930.046,4275.2
931.126,4274.9
932.207,4240.3
933.288,4234.85
934.368,4207.2
935.448,4210.65
936.528,4198.1
937.608,4168.2
938.688,4158.05
939.767,4157.35
940.847,4152.05
941.926,4128.95
943.005,4118.1
944.084,4102.55
945.163,4093.85
946.242,4079.7
947.321,4073.05
948.399,4063.3
949.477,4048.7
950.556,4050.3
951.634,4027.65
952.711,4021.85
953.789,4011.15
954.867,4005.6
955.944,3999.2
957.021,3988.9
958.098,3983.7
959.175,3972.1
960.252,3983.15
961.328,3967.0
962.405,3958.05
963.481,3944.35
964.557,3938.2
965.633,3942.55
966.709,3932.7
967.785,3931.45
968.86,3925.15
969.936,3915.9
971.011,3914.3
972.086,3902.55
973.161,3901.75
974.235,3894.05
975.31,3897.55
976.384,3879.5
977.459,3878.05
978.533,3879.3
979.607,3869.9
980.68,3868.45
981.754,3867.2
982.827,3864.05
983.901,3855.2
984.974,3855.9
986.047,3849.35
987.119,3847.5
988.192,3846.1
989.264,3840.3
990.337,3834.8
991.409,3832.0
992.481,3829.3
993.553,3827.35
994.624,3821.6
995.696,3818.85
996.767,3819.8
997.838,3816.75
998.909,3810.3
999.98,3814.25
1001.05,3805.35
1002.12,3805.65
1003.19,3802.0
1004.26,3801.55
1005.33,3797.85
1006.4,3797.95
1007.47,3794.65
1008.54,3788.85
1009.61,3789.55
1010.68,3788.75
1011.75,3785.35
1012.82,3784.05
1013.88,3781.2
1014.95,3782.7
1016.02,3779.35
1017.09,3777.35
1018.16,3774.85
1019.22,3774.8
1020.29,3773.3
1021.36,3775.35
1022.43,3775.3
1023.49,3772.7
1024.56,3770.35
1025.63,3768.15
1026.69,3764.4
1027.76,3765.25
1028.83,3762.45
1029.89,3761.75
1030.96,3759.9
1032.02,3760.1
1033.09,3759.45
1034.15,3760.55
1035.22,3760.5
1036.28,3759.55
1037.35,3754.75
1038.41,3754.85
1039.48,3753.7
1040.54,3753.9
1041.6,3751.75
1042.67,3750.85
1043.73,3750.9
1044.79,3749.45
1045.86,3746.55
1046.92,3747.65
1047.98,3749.4
1049.05,3747.9
1050.11,3747.95
1051.17,3746.8
1052.23,3747.0
1053.29,3745.4
1054.36,3745.85
1055.42,3745.9
1056.48,3746.05
1057.54,3745.85
1058.6,3744.5
1059.66,3745.65
1060.72,3743.4
1061.78,3746.15
1062.84,3746.55
1063.9,3744.4
1064.96,3744.45
1066.02,3743.3
1067.08,3744.1
1067.88,3743.35