File: spectra/VLFR_02-HDPE_bio_Raman_2f16ce2b.csv
nm,Intensity
526.495,828.8
527.042,829.0
527.589,829.5
528.136,829.3
528.682,829.1
529.229,828.3
529.775,829.1
530.321,828.9
530.867,829.8
531.413,829.0
531.959,833.3
532.505,831.1
533.051,829.3
533.596,827.7
534.141,910.0
534.687,904.5
535.232,895.4
535.777,886.2
536.321,880.8
536.866,878.4
537.41,875.3
537.955,873.0
538.499,870.6
539.043,874.3
539.587,867.3
540.131,862.4
540.675,863.8
541.219,862.5
541.762,862.6
542.305,864.6
542.849,863.3
543.392,863.9
543.935,862.7
544.478,864.2
545.02,865.5
545.563,863.8
546.106,865.2
546.648,865.4
547.19,865.3
547.732,863.1
548.274,862.9
548.816,863.1
549.358,866.2
549.9,867.3
550.441,866.5
550.983,867.0
551.524,868.7
552.065,866.8
552.606,867.7
553.147,866.6
553.688,868.9
554.229,868.0
554.769,866.8
555.31,863.4
555.85,866.9
556.391,866.2
556.931,869.0
557.471,866.5
558.011,869.2
558.551,867.8
559.09,868.3
559.63,870.1
560.169,870.3
560.709,867.6
561.248,869.3
561.787,874.7
562.326,873.1
562.865,875.1
563.404,872.0
563.943,896.9
564.481,881.5
565.02,874.7
565.558,874.6
566.096,904.0
566.634,877.6
567.172,870.6
567.71,874.3
568.248,873.5
568.786,873.9
569.324,876.5
569.861,875.9
570.399,879.4
570.936,879.9
571.473,921.7
572.01,885.3
572.547,880.1
573.084,878.2
573.621,881.4
574.158,883.6
574.694,881.6
575.231,882.1
575.767,892.5
576.303,937.9
576.84,913.2
577.376,900.5
577.912,885.8
578.448,887.0
578.984,887.2
579.519,884.7
580.055,887.1
580.59,886.2
581.126,885.8
581.661,892.9
582.196,893.0
582.731,896.2
583.267,898.7
583.801,899.6
584.336,901.6
584.871,902.1
585.406,904.5
585.94,907.4
586.475,907.8
587.009,909.7
587.543,914.5
588.078,912.8
588.612,918.8
589.146,927.1
589.68,926.2
590.214,932.3
590.747,935.2
591.281,940.9
591.815,939.6
592.348,942.9
592.881,944.7
593.415,947.7
593.948,947.1
594.481,950.1
595.014,949.7
595.547,951.7
596.08,952.4
596.613,951.0
597.146,953.3
597.678,956.2
598.211,958.8
598.743,963.9
599.276,962.0
599.808,966.8
600.34,967.0
600.872,959.5
601.404,964.6
601.936,966.8
602.468,961.4
603.0,961.7
603.532,958.7
604.064,955.4
604.595,953.8
605.127,951.1
605.658,947.0
606.189,944.7
606.721,939.4
607.252,943.3
607.783,939.1
608.314,938.6
608.845,934.8
609.376,935.5
609.907,936.4
610.438,934.4
610.968,927.8
611.499,925.8
612.029,928.8
612.56,928.5
613.09,930.5
613.621,928.0
614.151,927.1
614.681,925.5
615.211,925.2
615.741,921.6
616.271,919.7
616.801,922.8
617.331,926.3
617.861,921.4
618.39,922.2
618.92,919.4
619.45,917.4
619.979,921.8
620.509,922.0
621.038,919.5
621.567,928.0
622.096,936.3
622.626,935.5
623.155,918.5
623.684,915.4
624.213,915.9
624.742,911.9
625.271,914.8
625.799,916.8
626.328,928.4
626.857,1046.6
627.386,1223.8
627.914,1088.0
628.443,1197.2
628.971,1096.5
629.5,1050.2
630.028,1000.0
630.556,995.4
631.084,943.3
631.613,921.7
632.141,911.2
632.669,910.4
633.197,910.7
633.725,906.8
634.253,909.4
634.781,907.3
635.308,908.2
635.836,907.6
636.364,910.4
636.891,910.5
637.419,909.0
637.947,912.2
638.474,909.7
639.002,912.9
639.529,915.0
640.056,912.8
640.584,915.0
641.111,916.1
641.638,919.1
642.165,921.7
642.692,921.7
643.219,923.1
643.746,924.8
644.273,922.6
644.8,921.9
645.327,927.2
645.854,930.2
646.381,931.3
646.908,933.2
647.434,930.1
647.961,931.9
648.488,934.1
649.014,934.6
649.541,934.3
650.067,931.9
650.594,935.3
651.12,936.5
651.646,931.8
652.173,931.9
652.699,934.2
653.225,930.3
653.752,928.6
654.278,924.5
654.804,926.6
655.33,924.1
655.856,917.6
656.382,915.6
656.908,910.1
657.434,912.8
657.96,909.3
658.486,911.0
659.012,901.9
659.538,901.7
660.064,900.4
660.589,895.9
661.115,896.2
661.641,898.8
662.166,893.8
662.692,891.6
663.086,888.2