File: spectra/VLFR_07-PET_bio_Raman_01ef9eac.csv
nm,Intensity
791.75,12332.8
792.846,11456.8
793.942,11124.7
795.037,10802.7
796.133,10737.2
797.228,10823.5
798.324,10716.8
799.419,10762.0
800.514,10501.8
801.61,10643.8
802.705,10688.8
803.8,10399.8
804.894,10405.2
805.989,10351.0
807.084,10195.5
808.178,10039.6
809.273,9946.9
810.367,9896.95
811.461,9851.3
812.556,9756.1
813.65,9709.7
814.744,9444.8
815.837,9476.3
816.931,9369.25
818.025,9188.55
819.118,9122.6
820.212,9062.45
821.305,9014.65
822.398,8860.85
823.491,8698.3
824.585,8813.4
825.677,8948.2
826.77,8621.3
827.863,8416.1
828.956,8400.1
830.048,8396.95
831.14,8403.35
832.233,8311.75
833.325,8318.85
834.417,8190.35
835.509,8112.25
836.601,8174.5
837.692,8098.7
838.784,8272.1
839.876,8081.45
840.967,8475.5
842.058,8082.45
843.149,8042.95
844.24,7893.8
845.331,7688.65
846.422,7610.05
847.513,7603.15
848.604,7502.7
849.694,7481.8
850.784,7377.95
851.875,7430.65
852.965,7352.85
854.055,7302.4
855.145,7259.25
856.235,7138.4
857.324,7229.45
858.414,7299.5
859.503,7338.85
860.593,7149.85
861.682,7001.1
862.771,6993.0
863.86,6930.7
864.949,6934.8
866.038,6850.95
867.126,6773.4
868.215,6705.2
869.303,6784.2
870.391,6834.65
871.479,6937.65
872.567,7146.1
873.655,6885.85
874.743,6702.95
875.831,6556.85
876.918,6513.4
878.006,6475.5
879.093,6452.4
880.18,6445.0
881.267,6398.1
882.354,6354.0
883.441,6308.85
884.527,6313.95
885.614,6342.5
886.7,6150.1
887.786,6209.5
888.872,6079.7
889.958,6091.65
891.044,6083.45
892.13,6029.05
893.216,5945.0
894.301,5938.85
895.386,5855.05
896.472,5940.5
897.557,6426.35
898.642,6472.85
899.726,5919.0
900.811,5696.1
901.896,5650.6
902.98,5656.0
904.064,5623.75
905.148,5581.5
906.232,5866.9
907.316,6162.25
908.4,5869.1
909.484,5537.45
910.567,5377.05
911.65,5309.3
912.734,5295.95
913.817,5240.6
914.9,5201.1
915.982,5133.7
917.065,5138.7
918.147,5088.8
919.23,5050.6
920.312,5004.2
921.394,4977.6
922.476,4934.75
923.558,4898.05
924.639,4901.85
925.721,4863.3
926.802,4833.55
927.884,4749.1
928.965,4742.65
930.046,4671.3
931.126,4670.05
932.207,4637.65
933.288,4601.5
934.368,4573.85
935.448,4547.4
936.528,4526.2
937.608,4466.9
938.688,4461.55
939.767,4462.55
940.847,4432.4
941.926,4406.05
943.005,4369.25
944.084,4369.95
945.163,4368.25
946.242,4328.65
947.321,4287.85
948.399,4280.85
949.477,4267.0
950.556,4237.15
951.634,4232.25
952.711,4212.9
953.789,4197.1
954.867,4184.0
955.944,4171.0
957.021,4141.95
958.098,4133.8
959.175,4119.4
960.252,4100.25
961.328,4106.55
962.405,4076.95
963.481,4074.35
964.557,4053.25
965.633,4050.5
966.709,4052.7
967.785,4027.6
968.86,4015.9
969.936,4008.0
971.011,4004.6
972.086,3985.1
973.161,3978.0
974.235,3966.7
975.31,3964.9
976.384,3953.7
977.459,3932.15
978.533,3934.6
979.607,3937.05
980.68,3928.5
981.754,3911.6
982.827,3907.15
983.901,3904.25
984.974,3896.85
986.047,3895.5
987.119,3881.25
988.192,3871.0
989.264,3873.35
990.337,3865.55
991.409,3856.65
992.481,3845.7
993.553,3847.65
994.624,3844.25
995.696,3831.95
996.767,3828.15
997.838,3823.25
998.909,3813.1
999.98,3811.95
1001.05,3816.55
1002.12,3806.75
1003.19,3803.2
1004.26,3799.1
1005.33,3791.8
1006.4,3787.85
1007.47,3785.3
1008.54,3782.0
1009.61,3773.05
1010.68,3776.75
1011.75,3773.35
1012.82,3769.25
1013.88,3767.7
1014.95,3770.35
1016.02,3763.8
1017.09,3756.4
1018.16,3758.55
1019.22,3759.2
1020.29,3757.85
1021.36,3763.4
1022.43,3767.6
1023.49,3761.45
1024.56,3751.5
1025.63,3746.2
1026.69,3740.15
1027.76,3736.25
1028.83,3733.2
1029.89,3731.05
1030.96,3727.05
1032.02,3728.4
1033.09,3731.95
1034.15,3734.9
1035.22,3733.8
1036.28,3726.4
1037.35,3722.0
1038.41,3717.15
1039.48,3716.9
1040.54,3715.3
1041.6,3713.0
1042.67,3712.45
1043.73,3710.35
1044.79,3709.9
1045.86,3708.7
1046.92,3708.45
1047.98,3708.75
1049.05,3707.05
1050.11,3705.3
1051.17,3707.05
1052.23,3707.3
1053.29,3705.95
1054.36,3704.95
1055.42,3704.35
1056.48,3706.3
1057.54,3702.6
1058.6,3702.45
1059.66,3703.4
1060.72,3703.45
1061.78,3701.85
1062.84,3701.5
1063.9,3702.2
1064.96,3702.0
1066.02,3701.7
1067.08,3701.0
1067.88,3700.55