File: spectra/VLFR_01-LDPE_bio_Raman_6e77e23d.csv
nm,Intensity
528.65,1837.9
529.155,1837.4
529.66,1838.45
530.165,1837.35
530.67,1836.9
531.175,1838.05
531.68,1849.75
532.185,2178.3
532.69,1839.05
533.194,1838.25
533.699,1929.6
534.204,2075.8
534.708,2046.7
535.213,2028.6
535.717,1997.65
536.222,1975.45
536.726,1967.55
537.231,1971.15
537.735,1966.15
538.239,1959.0
538.743,1948.5
539.247,1939.35
539.751,1925.55
540.255,1926.7
540.759,1930.1
541.263,1923.3
541.767,1927.2
542.271,1921.85
542.775,1925.1
543.279,1922.3
543.782,1930.55
544.286,1933.3
544.789,1944.7
545.293,1978.2
545.796,2046.1
546.3,2010.8
546.803,1954.75
547.306,1929.3
547.81,1925.55
548.313,1922.65
548.816,1922.25
549.319,1931.95
549.822,1952.85
550.325,1953.8
550.828,1979.7
551.331,1938.6
551.834,1931.9
552.337,1924.15
552.839,1927.45
553.342,1941.2
553.844,1938.9
554.347,1940.6
554.849,1944.8
555.352,1946.15
555.854,1950.35
556.357,1959.2
556.859,1964.6
557.361,1972.4
557.863,1986.8
558.365,1996.15
558.867,1987.95
559.369,1970.4
559.871,1970.45
560.373,1974.0
560.875,1977.85
561.377,2002.0
561.878,2209.25
562.38,2694.15
562.881,2090.9
563.383,2035.55
563.884,2304.0
564.386,2142.45
564.887,2105.0
565.388,2078.5
565.89,2311.15
566.391,2238.5
566.892,2060.95
567.393,2055.35
567.894,2027.9
568.395,2019.25
568.896,2024.3
569.396,2026.4
569.897,2023.1
570.398,2057.55
570.898,2081.35
571.399,2524.9
571.9,2228.1
572.4,2100.15
572.9,2072.3
573.401,2067.75
573.901,2111.05
574.401,2083.0
574.901,2090.9
575.401,2337.3
575.901,2378.15
576.401,2534.35
576.901,2439.2
577.401,2258.6
577.901,2202.7
578.4,2194.9
578.9,2229.3
579.399,2254.4
579.899,2269.75
580.398,2293.6
580.898,2321.35
581.397,2363.95
581.896,2383.9
582.395,2390.35
582.895,2439.4
583.394,2460.95
583.893,2482.8
584.391,2492.5
584.89,2510.2
585.389,2529.05
585.888,2565.35
586.386,2594.35
586.885,2621.95
587.384,2614.3
587.882,2680.85
588.38,2701.1
588.879,2732.1
589.377,2731.5
589.875,2784.1
590.373,2835.25
590.871,2850.65
591.369,2888.25
591.867,2916.0
592.365,2932.55
592.863,2999.15
593.361,2954.05
593.858,2984.6
594.356,3049.95
594.853,3035.5
595.351,3094.45
595.848,3128.0
596.345,3151.5
596.843,3211.15
597.34,3278.45
597.837,3288.3
598.334,3310.05
598.831,3376.8
599.328,3416.15
599.824,3420.45
600.321,3439.7
600.818,3471.15
601.314,3447.1
601.811,3475.2
602.307,3428.1
602.804,3381.9
603.3,3376.0
603.796,3315.1
604.293,3286.15
604.789,3257.6
605.285,3205.0
605.781,3121.85
606.277,3083.45
606.772,3057.1
607.268,3005.9
607.764,2976.4
608.259,2926.1
608.755,2863.45
609.25,2857.6
609.746,2859.45
610.241,2788.9
610.736,2804.4
611.231,2787.9
611.727,2734.1
612.222,2732.75
612.716,2716.5
613.211,2666.0
613.706,2652.1
614.201,2668.2
614.695,2625.4
615.19,2611.8
615.684,2602.9
616.179,2597.45
616.673,2557.2
617.168,2584.65
617.662,2566.55
618.156,2542.15
618.65,2524.0
619.144,2526.5
619.638,2549.5
620.131,2497.75
620.625,2530.3
621.119,2526.0
621.612,2564.85
622.106,2603.15
622.599,2588.5
623.093,2486.3
623.586,2466.15
624.079,2468.4
624.572,2444.65
625.065,2471.1
625.558,2471.85
626.051,2532.65
626.544,2818.4
627.037,4414.55
627.529,4308.65
628.022,3800.65
628.514,4730.15
629.007,4086.75
629.499,3709.45
629.991,3475.55
630.483,3295.6
630.976,2904.7
631.468,2613.75
631.959,2529.95
632.451,2464.95
632.943,2435.85
633.435,2426.2
633.926,2422.25
634.418,2424.85
634.909,2419.6
635.401,2426.45
635.892,2419.4
636.383,2409.35
636.874,2422.5
637.365,2416.2
637.856,2418.8
638.347,2406.75
638.838,2424.3
639.329,2425.95
639.819,2423.55
640.31,2408.8
640.8,2432.0
641.291,2452.6
641.781,2443.35
642.271,2447.35
642.761,2432.05
643.251,2437.75
643.741,2440.6
644.231,2451.05
644.721,2458.8
645.211,2469.9
645.7,2457.65
646.19,2432.55
646.679,2434.8
647.169,2454.0
647.658,2462.15
648.147,2451.25
648.636,2459.65
649.125,2440.65
649.614,2445.75
650.103,2446.5
650.592,2457.8
651.08,2433.5
651.569,2458.5
652.058,2453.3
652.546,2421.45
653.034,2438.4
653.523,2431.35
654.011,2425.15
654.499,2435.05
654.987,2430.8
655.475,2419.75
655.963,2427.35
656.45,2383.4
656.938,2371.8
657.425,2388.6
657.913,2357.25
658.4,2353.85
658.888,2323.2
659.375,2319.85
659.862,2292.55
660.349,2296.15
660.836,2243.1
661.079,2257.0