File: spectra/VLFR_02-HDPE_bio_Raman_8a0b2183.csv
nm,Intensity
528.626,1868.65
529.132,1870.03
529.637,1869.1
530.143,1868.57
530.648,1870.43
531.153,1869.78
531.658,1895.88
532.164,3190.18
532.669,1870.97
533.174,1871.03
533.679,1937.63
534.184,2210.8
534.689,2224.3
535.194,2248.6
535.699,2236.93
536.203,2224.55
536.708,2226.3
537.213,2235.5
537.717,2254.4
538.222,2237.13
538.726,2259.4
539.231,2269.15
539.735,2274.55
540.239,2290.85
540.744,2316.95
541.248,2347.27
541.752,2343.1
542.256,2368.32
542.76,2364.23
543.264,2355.98
543.768,2358.95
544.272,2365.23
544.776,2378.77
545.28,2385.0
545.784,2360.8
546.287,2359.57
546.791,2348.55
547.294,2359.35
547.798,2336.27
548.301,2336.52
548.805,2344.82
549.308,2348.95
549.811,2320.85
550.315,2339.73
550.818,2324.95
551.321,2324.35
551.824,2332.75
552.327,2313.63
552.83,2305.6
553.333,2308.48
553.835,2299.48
554.338,2304.4
554.841,2304.6
555.343,2301.32
555.846,2298.43
556.349,2310.95
556.851,2308.6
557.353,2308.18
557.856,2313.75
558.358,2330.18
558.86,2367.23
559.362,2331.9
559.864,2321.02
560.366,2319.73
560.868,2330.0
561.37,2332.8
561.872,2352.82
562.374,2347.8
562.876,2370.9
563.377,2379.57
563.879,2470.98
564.38,2452.63
564.882,2629.9
565.383,2590.82
565.885,2572.48
566.386,2526.3
566.887,2437.77
567.388,2430.93
567.889,2386.3
568.391,2403.7
568.892,2453.4
569.392,2372.52
569.893,2389.25
570.394,2425.73
570.895,2410.15
571.395,2485.6
571.896,2421.93
572.397,2452.5
572.897,2566.75
573.397,2572.07
573.898,2513.15
574.398,2736.5
574.898,2835.55
575.398,2564.7
575.898,2611.88
576.398,2558.05
576.898,2510.48
577.398,2453.73
577.898,2419.18
578.398,2411.48
578.897,2392.43
579.397,2405.15
579.896,2414.35
580.396,2423.2
580.895,2428.4
581.395,2494.1
581.894,2491.18
582.393,2478.6
582.892,2448.6
583.391,2450.65
583.89,2459.93
584.389,2456.4
584.888,2465.13
585.387,2469.15
585.886,2465.5
586.384,2475.02
586.883,2493.27
587.381,2485.5
587.88,2489.75
588.378,2501.05
588.876,2505.52
589.375,2526.68
589.873,2525.57
590.371,2539.68
590.869,2544.02
591.367,2562.27
591.865,2573.3
592.363,2580.8
592.86,2596.55
593.358,2583.13
593.856,2614.27
594.353,2619.18
594.851,2642.07
595.348,2659.48
595.845,2692.8
596.342,2694.2
596.84,2705.55
597.337,2722.57
597.834,2744.75
598.331,2765.15
598.828,2772.07
599.324,2798.9
599.821,2829.68
600.318,2848.63
600.814,2872.1
601.311,2879.85
601.807,2905.5
602.304,2924.07
602.8,2946.35
603.296,2969.8
603.792,2970.18
604.288,2983.38
604.784,3036.95
605.28,3025.45
605.776,3035.18
606.272,3061.55
606.767,3097.07
607.263,3117.43
607.759,3094.43
608.254,3141.45
608.749,3156.9
609.245,3168.2
609.74,3166.43
610.235,3191.63
610.73,3234.35
611.225,3256.25
611.72,3262.95
612.215,3246.9
612.71,3261.3
613.204,3261.23
613.699,3288.23
614.194,3341.05
614.688,3310.65
615.182,3367.27
615.677,3358.32
616.171,3371.88
616.665,3370.0
617.159,3415.88
617.653,3428.05
618.147,3436.98
618.641,3399.95
619.135,3456.9
619.628,3434.15
620.122,3445.98
620.615,3437.27
621.109,3486.77
621.602,3471.5
622.095,3498.55
622.589,3539.5
623.082,3511.18
623.575,3507.3
624.068,3519.02
624.561,3581.1
625.053,3562.57
625.546,3542.52
626.039,3590.8
626.531,3584.2
627.024,3943.3
627.516,4007.8
628.008,3965.0
628.501,4280.8
628.993,4144.95
629.485,4031.1
629.977,3872.18
630.469,3778.35
630.96,3707.5
631.452,3649.02
631.944,3610.85
632.435,3588.8
632.927,3523.75
633.418,3482.45
633.91,3465.65
634.401,3418.77
634.892,3399.45
635.383,3382.85
635.874,3386.65
636.365,3354.1
636.856,3351.93
637.346,3333.63
637.837,3331.48
638.327,3370.95
638.818,3334.68
639.308,3337.38
639.799,3281.4
640.289,3337.95
640.779,3298.77
641.269,3279.93
641.759,3293.35
642.249,3293.73
642.738,3302.2
643.228,3293.9
643.718,3317.23
644.207,3293.02
644.697,3241.13
645.186,3261.2
645.675,3273.57
646.164,3218.38
646.653,3235.65
647.142,3220.35
647.631,3245.32
648.12,3178.9
648.609,3193.82
649.098,3201.5
649.586,3203.13
650.075,3127.98
650.563,3155.95
651.051,3148.23
651.539,3105.85
652.027,3144.02
652.515,3055.25
653.003,3021.85
653.491,3021.98
653.979,3017.88
654.467,2968.52
654.954,2946.05
655.442,2911.3
655.929,2913.7
656.416,2871.57
656.904,2877.2
657.391,2868.63
657.878,2838.68
658.365,2817.0
658.851,2826.88
659.338,2776.63
659.825,2804.68
660.311,2784.98
660.798,2782.07
661.041,2793.3