File: spectra/VLFR_06-PET_bio_Raman_c6aee2f4.csv
nm,Intensity
528.65,1845.8
529.155,1846.55
529.66,1845.75
530.165,1846.5
530.67,1846.65
531.175,1847.95
531.68,1863.85
532.185,2636.1
532.69,1847.7
533.194,1848.35
533.699,2172.35
534.204,2851.2
534.708,2639.1
535.213,2543.45
535.717,2413.6
536.222,2315.8
536.726,2313.8
537.231,2305.7
537.735,2295.65
538.239,2323.5
538.743,2327.5
539.247,2338.4
539.751,2357.85
540.255,2347.6
540.759,2358.45
541.263,2334.9
541.767,2339.55
542.271,2347.85
542.775,2363.2
543.279,2372.85
543.782,2390.75
544.286,2401.95
544.789,2400.8
545.293,2402.05
545.796,2417.1
546.3,2530.6
546.803,2490.5
547.306,2437.25
547.81,2447.0
548.313,2458.45
548.816,2469.25
549.319,2467.65
549.822,2487.1
550.325,2549.25
550.828,2564.55
551.331,2514.7
551.834,2534.65
552.337,2500.65
552.839,2567.2
553.342,2526.8
553.844,2502.15
554.347,2526.7
554.849,2538.15
555.352,2579.6
555.854,2590.65
556.357,2620.25
556.859,2622.75
557.361,2766.5
557.863,2680.95
558.365,2676.6
558.867,2649.05
559.369,2617.5
559.871,2604.25
560.373,2630.7
560.875,2647.65
561.377,2666.9
561.878,2765.2
562.38,3487.25
562.881,2723.5
563.383,2707.85
563.884,2703.85
564.386,2739.15
564.887,2767.05
565.388,2895.75
565.89,2938.5
566.391,2918.15
566.892,2806.65
567.393,2868.2
567.894,2867.15
568.395,2856.6
568.896,2879.6
569.396,2897.6
569.897,2925.7
570.398,3035.2
570.898,3168.7
571.399,3281.55
571.9,3137.0
572.4,3062.35
572.9,3054.9
573.401,3031.7
573.901,3068.5
574.401,3072.2
574.901,3084.4
575.401,3135.45
575.901,3098.45
576.401,3179.05
576.901,3161.75
577.401,3111.95
577.901,3155.05
578.4,3146.4
578.9,3184.65
579.399,3199.35
579.899,3215.0
580.398,3229.8
580.898,3258.2
581.397,3347.95
581.896,3872.85
582.395,3718.95
582.895,3297.65
583.394,3287.8
583.893,3295.9
584.391,3322.05
584.89,3303.25
585.389,3463.55
585.888,3874.0
586.386,3642.6
586.885,3346.5
587.384,3343.25
587.882,3330.6
588.38,3304.3
588.879,3353.75
589.377,3332.8
589.875,3360.8
590.373,3321.25
590.871,3295.15
591.369,3351.05
591.867,3353.3
592.365,3395.35
592.863,3349.95
593.361,3367.65
593.858,3333.8
594.356,3374.85
594.853,3381.05
595.351,3377.0
595.848,3388.45
596.345,3364.35
596.843,3384.1
597.34,3388.0
597.837,3423.8
598.334,3390.5
598.831,3399.2
599.328,3410.55
599.824,3393.65
600.321,3429.6
600.818,3455.5
601.314,3455.8
601.811,3432.85
602.307,3413.75
602.804,3466.35
603.3,3515.6
603.796,3455.3
604.293,3456.8
604.789,3477.55
605.285,3429.6
605.781,3462.2
606.277,3460.25
606.772,3491.7
607.268,3521.65
607.764,3457.1
608.259,3493.4
608.755,3484.0
609.25,3508.25
609.746,3516.5
610.241,3464.3
610.736,3542.25
611.231,3559.2
611.727,3514.1
612.222,3561.25
612.716,3508.85
613.211,3521.4
613.706,3495.1
614.201,3535.9
614.695,3558.55
615.19,3566.45
615.684,3539.25
616.179,3556.85
616.673,3580.65
617.168,3558.8
617.662,3594.4
618.156,3668.05
618.65,3643.15
619.144,3644.45
619.638,3584.6
620.131,3623.55
620.625,3630.6
621.119,3622.9
621.612,3634.1
622.106,3596.75
622.599,3641.15
623.093,3655.2
623.586,3719.55
624.079,3691.2
624.572,3657.4
625.065,3781.7
625.558,3678.35
626.051,3694.6
626.544,3688.6
627.037,3728.65
627.529,3790.6
628.022,3768.85
628.514,3797.75
629.007,3828.95
629.499,3901.1
629.991,3772.15
630.483,3868.15
630.976,3859.8
631.468,4082.7
631.959,4079.3
632.451,3996.5
632.943,4026.45
633.435,4035.25
633.926,3967.95
634.418,3955.35
634.909,3999.9
635.401,3934.75
635.892,4040.5
636.383,4206.15
636.874,4131.75
637.365,4016.6
637.856,4007.85
638.347,4014.25
638.838,3956.1
639.329,4016.3
639.819,3917.75
640.31,3987.35
640.8,3957.85
641.291,3882.6
641.781,3968.65
642.271,4004.15
642.761,3947.2
643.251,3873.85
643.741,3988.2
644.231,3936.65
644.721,3928.45
645.211,3938.25
645.7,3976.1
646.19,3958.45
646.679,3916.25
647.169,3914.65
647.658,3978.6
648.147,3880.05
648.636,3860.2
649.125,3896.85
649.614,3841.45
650.103,3965.15
650.592,3814.85
651.08,3939.3
651.569,3854.85
652.058,3817.4
652.546,3827.3
653.034,3770.85
653.523,3833.3
654.011,3875.95
654.499,3723.35
654.987,3775.9
655.475,3701.3
655.963,3710.15
656.45,3671.0
656.938,3737.9
657.425,3644.05
657.913,3652.45
658.4,3537.85
658.888,3605.5
659.375,3504.2
659.862,3519.7
660.349,3536.55
660.836,3468.25
661.079,3462.15