File: spectra/VLFR_08-PLA_bio_Raman_b44a6a4c.csv
nm,Intensity
528.637,1840.6
529.143,1840.6
529.648,1839.6
530.153,1838.6
530.659,1839.0
531.164,1841.4
531.669,1883.0
532.174,4001.2
532.679,1841.1
533.184,1843.2
533.689,2233.6
534.194,3067.9
534.699,2880.1
535.203,2749.9
535.708,2614.9
536.213,2597.5
536.717,2601.2
537.222,2555.8
537.726,2549.6
538.231,2479.0
538.735,2478.1
539.24,2454.1
539.744,2402.2
540.248,2460.2
540.752,2534.4
541.256,2516.7
541.761,2466.2
542.265,2439.8
542.769,2450.0
543.272,2614.6
543.776,2664.2
544.28,2566.1
544.784,2468.7
545.288,2449.1
545.791,2443.1
546.295,2446.5
546.798,2476.7
547.302,2461.0
547.805,2469.2
548.308,2491.0
548.812,2502.4
549.315,2507.0
549.818,2507.9
550.321,2507.3
550.824,2529.4
551.327,2558.4
551.83,2577.1
552.333,2583.6
552.836,2619.9
553.339,2571.0
553.842,2637.7
554.344,2626.0
554.847,2600.9
555.349,2547.5
555.852,2571.9
556.354,2564.3
556.857,2560.4
557.359,2713.3
557.861,3443.8
558.363,3124.5
558.866,2750.8
559.368,2675.4
559.87,2636.3
560.372,2645.1
560.873,2629.8
561.375,2613.7
561.877,2629.2
562.379,2663.3
562.88,2769.3
563.382,2951.6
563.883,2802.5
564.385,2735.0
564.886,2879.7
565.388,2871.3
565.889,3024.4
566.39,2963.2
566.891,2704.8
567.392,2716.4
567.893,2771.6
568.394,2765.8
568.895,2775.8
569.396,2778.1
569.897,2717.0
570.398,2728.2
570.898,2760.9
571.399,2892.9
571.899,2911.3
572.4,2869.4
572.9,2867.9
573.4,2891.6
573.901,2867.7
574.401,2905.4
574.901,2807.3
575.401,2749.5
575.901,2829.1
576.401,3157.9
576.901,3331.4
577.401,2898.9
577.9,2801.6
578.4,2776.3
578.9,2765.9
579.399,2772.4
579.899,2802.4
580.398,2778.7
580.897,2805.1
581.397,2768.7
581.896,2786.7
582.395,2776.6
582.894,2816.3
583.393,2795.2
583.892,2778.9
584.391,2799.4
584.889,2839.9
585.388,2757.8
585.887,2773.1
586.385,2894.3
586.884,3189.3
587.382,3303.1
587.881,3049.5
588.379,2811.6
588.877,2792.6
589.375,2791.1
589.874,2769.9
590.372,2783.0
590.87,2761.2
591.367,2781.9
591.865,2780.0
592.363,2790.4
592.861,2749.8
593.358,2761.6
593.856,2795.4
594.353,2775.1
594.851,2746.6
595.348,2783.5
595.845,2765.1
596.342,2786.9
596.84,2777.1
597.337,2771.6
597.833,2790.1
598.33,2782.5
598.827,2778.8
599.324,2773.9
599.821,2762.5
600.317,2768.0
600.814,2778.0
601.31,2767.9
601.807,2790.2
602.303,2802.8
602.799,2812.1
603.295,2762.2
603.791,2758.7
604.287,2769.5
604.783,2784.3
605.279,2757.1
605.775,2770.0
606.271,2785.2
606.766,2752.3
607.262,2769.4
607.757,2801.7
608.253,2758.9
608.748,2751.3
609.243,2721.6
609.738,2769.6
610.233,2745.1
610.729,2752.8
611.223,2744.1
611.718,2768.6
612.213,2746.7
612.708,2721.2
613.202,2746.7
613.697,2730.1
614.192,2734.0
614.686,2752.8
615.18,2710.5
615.675,2763.4
616.169,2729.4
616.663,2741.6
617.157,2731.3
617.651,2738.4
618.145,2713.8
618.638,2715.8
619.132,2735.0
619.626,2714.6
620.119,2706.0
620.613,2713.9
621.106,2701.4
621.599,2686.7
622.093,2750.5
622.586,2781.8
623.079,2825.1
623.572,2767.6
624.065,2717.8
624.558,2707.2
625.05,2708.7
625.543,2690.7
626.036,2645.4
626.528,2692.7
627.02,2676.2
627.513,2735.3
628.005,2916.1
628.497,3243.3
628.989,3147.3
629.481,3209.0
629.973,3160.6
630.465,3682.6
630.957,5947.1
631.449,4756.4
631.94,3681.1
632.432,3489.0
632.923,3932.1
633.414,4086.2
633.906,3464.1
634.397,2963.3
634.888,2729.2
635.379,2648.7
635.87,2621.7
636.361,2619.0
636.852,2576.3
637.342,2590.5
637.833,2562.8
638.323,2569.9
638.814,2577.1
639.304,2552.0
639.794,2550.4
640.285,2559.8
640.775,2556.7
641.265,2571.7
641.755,2540.8
642.244,2568.0
642.734,2542.5
643.224,2524.0
643.713,2518.5
644.203,2518.3
644.692,2505.7
645.181,2509.2
645.671,2494.5
646.16,2456.3
646.649,2495.6
647.138,2483.5
647.627,2462.7
648.115,2460.4
648.604,2478.8
649.093,2449.3
649.581,2478.5
650.07,2426.6
650.558,2439.9
651.046,2436.6
651.534,2411.4
652.023,2405.3
652.511,2406.4
652.998,2410.1
653.486,2389.1
653.974,2374.5
654.462,2345.9
654.949,2340.5
655.437,2325.4
655.924,2337.7
656.411,2320.7
656.898,2315.8
657.385,2293.2
657.872,2300.4
658.359,2299.2
658.846,2282.9
659.333,2264.3
659.82,2269.8
660.306,2237.3
660.793,2261.1
661.036,2240.5