File: spectra/VLFR_01-LDPE_bio_Raman_4e23bfeb.csv
nm,Intensity
526.547,831.55
527.095,832.55
527.642,831.85
528.189,832.65
528.736,832.55
529.283,832.75
529.829,832.2
530.376,832.65
530.922,832.05
531.468,832.85
532.014,843.25
532.56,832.5
533.106,833.1
533.651,833.45
534.196,879.45
534.742,870.95
535.287,862.65
535.832,855.3
536.376,853.3
536.921,850.45
537.465,850.2
538.01,850.25
538.554,848.2
539.098,846.45
539.642,843.85
540.186,843.7
540.729,845.6
541.273,843.6
541.816,843.45
542.36,843.2
542.903,842.45
543.446,843.4
543.988,841.7
544.531,841.05
545.074,841.6
545.616,841.4
546.158,841.0
546.701,841.45
547.243,840.1
547.785,841.35
548.326,839.9
548.868,841.0
549.41,840.25
549.951,839.95
550.492,839.65
551.034,840.7
551.575,839.7
552.116,839.75
552.656,840.85
553.197,841.45
553.738,843.2
554.278,842.0
554.819,842.85
555.359,845.0
555.899,843.7
556.439,845.15
556.979,845.05
557.519,846.5
558.058,849.7
558.598,848.3
559.137,846.3
559.677,846.3
560.216,845.55
560.755,844.3
561.294,847.05
561.833,846.25
562.371,848.0
562.91,849.25
563.449,852.65
563.987,896.35
564.525,865.0
565.064,859.8
565.602,857.35
566.14,916.65
566.678,855.5
567.216,851.8
567.753,850.45
568.291,848.7
568.828,849.2
569.366,849.5
569.903,849.5
570.44,853.75
570.977,857.0
571.514,939.15
572.051,873.7
572.588,859.65
573.125,855.45
573.661,854.9
574.198,858.0
574.734,854.1
575.271,858.4
575.807,890.95
576.343,937.7
576.879,908.9
577.415,885.65
577.951,867.9
578.486,866.3
579.022,868.25
579.557,868.05
580.093,871.1
580.628,871.05
581.164,876.05
581.699,878.3
582.234,882.55
582.769,884.35
583.304,891.65
583.838,893.45
584.373,896.65
584.908,901.5
585.442,906.85
585.977,910.85
586.511,916.2
587.045,922.1
587.58,926.0
588.114,932.5
588.648,938.75
589.182,945.25
589.715,950.75
590.249,958.1
590.783,966.5
591.316,970.55
591.85,977.45
592.383,977.55
592.917,978.9
593.45,986.8
593.983,990.4
594.516,994.65
595.049,999.6
595.582,1008.0
596.115,1017.7
596.648,1022.2
597.18,1027.8
597.713,1032.95
598.245,1042.4
598.778,1054.8
599.31,1061.1
599.842,1064.95
600.375,1068.55
600.907,1069.3
601.439,1062.0
601.971,1066.6
602.503,1062.65
603.034,1056.5
603.566,1053.85
604.098,1047.75
604.629,1036.2
605.161,1024.65
605.692,1019.85
606.224,1011.25
606.755,999.45
607.286,994.55
607.817,990.75
608.348,985.1
608.879,981.6
609.41,978.7
609.941,970.6
610.472,972.3
611.002,967.5
611.533,961.35
612.063,959.5
612.594,961.8
613.124,956.55
613.655,954.1
614.185,949.7
614.715,950.0
615.245,947.0
615.775,941.6
616.305,938.4
616.835,940.25
617.365,938.55
617.895,939.0
618.425,937.1
618.954,934.95
619.484,940.6
620.013,935.75
620.543,933.85
621.072,932.75
621.602,937.95
622.131,949.55
622.66,943.85
623.189,929.1
623.718,927.2
624.247,926.0
624.776,924.25
625.305,925.75
625.834,929.8
626.363,941.95
626.891,1097.2
627.42,1371.85
627.949,1204.1
628.477,1355.55
629.006,1253.3
629.534,1190.6
630.062,1117.7
630.591,1099.6
631.119,1002.7
631.647,951.4
632.175,934.7
632.703,924.55
633.231,918.7
633.759,915.25
634.287,915.4
634.815,912.5
635.343,911.15
635.871,912.9
636.398,917.1
636.926,915.1
637.454,913.05
637.981,915.55
638.509,915.4
639.036,919.25
639.564,919.3
640.091,917.6
640.618,922.0
641.146,922.85
641.673,923.0
642.2,924.75
642.727,925.85
643.254,926.1
643.781,926.7
644.308,929.25
644.835,929.4
645.362,927.3
645.889,929.95
646.416,930.75
646.942,934.05
647.469,934.6
647.996,935.25
648.522,937.9
649.049,933.35
649.576,935.65
650.102,936.95
650.629,936.85
651.155,935.6
651.682,940.15
652.208,935.85
652.734,942.7
653.261,941.9
653.787,938.35
654.313,942.65
654.839,943.8
655.365,941.0
655.892,938.05
656.418,939.2
656.944,938.9
657.47,936.85
657.996,934.75
658.522,934.65
659.048,929.45
659.574,929.65
660.099,927.4
660.625,923.05
661.151,918.25
661.677,915.0
662.203,913.25
662.728,910.1
663.123,907.95