File: spectra/VLFR_01-LDPE_nobio_Raman_bedcc511.csv
nm,Intensity
526.5,827.8
527.047,827.0
527.594,826.7
528.14,826.8
528.687,827.3
529.233,825.1
529.779,827.6
530.325,827.5
530.871,827.5
531.417,827.0
531.962,832.9
532.508,827.6
533.053,827.5
533.599,828.4
534.144,909.7
534.689,898.2
535.234,885.3
535.778,872.2
536.323,864.1
536.867,860.7
537.412,857.5
537.956,858.4
538.5,855.5
539.044,851.9
539.588,847.1
540.132,849.8
540.675,844.0
541.219,848.1
541.762,845.9
542.305,846.0
542.848,843.5
543.391,842.6
543.934,846.0
544.477,843.0
545.02,842.0
545.562,843.5
546.105,839.9
546.647,842.0
547.189,841.3
547.731,842.2
548.273,840.7
548.815,839.5
549.356,842.4
549.898,839.9
550.439,839.7
550.981,839.9
551.522,839.7
552.063,843.3
552.604,841.3
553.145,843.9
553.686,846.0
554.226,844.0
554.767,845.3
555.307,847.0
555.848,849.4
556.388,850.9
556.928,851.9
557.468,854.5
558.008,856.6
558.547,857.3
559.087,856.8
559.626,857.2
560.166,854.2
560.705,854.9
561.244,852.7
561.783,856.3
562.322,859.0
562.861,865.2
563.4,869.2
563.939,925.2
564.477,887.0
565.015,883.1
565.554,873.8
566.092,940.2
566.63,883.5
567.168,876.6
567.706,882.6
568.244,873.9
568.781,880.7
569.319,881.9
569.857,886.1
570.394,892.1
570.931,901.2
571.468,1001.7
572.005,940.9
572.542,924.0
573.079,920.6
573.616,926.1
574.153,940.6
574.689,947.2
575.226,957.3
575.762,1005.6
576.298,1128.0
576.834,1082.7
577.371,1064.6
577.907,1036.8
578.442,1060.0
578.978,1077.8
579.514,1111.7
580.049,1129.5
580.585,1159.1
581.12,1189.6
581.656,1218.4
582.191,1246.0
582.726,1281.2
583.261,1304.2
583.796,1343.5
584.331,1366.6
584.865,1397.2
585.4,1424.0
585.935,1463.4
586.469,1493.3
587.004,1525.7
587.538,1558.8
588.072,1603.7
588.606,1615.6
589.14,1648.6
589.674,1681.6
590.208,1722.4
590.742,1753.7
591.275,1776.9
591.809,1790.9
592.342,1802.6
592.876,1828.5
593.409,1834.0
593.942,1853.7
594.476,1871.2
595.009,1881.8
595.542,1893.9
596.075,1930.5
596.607,1931.7
597.14,1952.1
597.673,1968.8
598.205,2008.7
598.738,2017.0
599.27,2040.3
599.803,2045.6
600.335,2033.0
600.867,2042.0
601.399,2028.1
601.931,1996.3
602.463,1988.9
602.995,1968.3
603.527,1950.1
604.058,1893.8
604.59,1851.3
605.122,1798.7
605.653,1739.7
606.184,1701.0
606.716,1666.3
607.247,1642.6
607.778,1611.3
608.309,1595.7
608.84,1568.9
609.371,1540.5
609.902,1514.4
610.433,1489.5
610.964,1474.1
611.494,1459.6
612.025,1446.3
612.556,1446.4
613.086,1426.2
613.616,1413.6
614.147,1397.0
614.677,1383.2
615.207,1375.2
615.737,1356.7
616.267,1344.9
616.797,1330.5
617.327,1330.0
617.857,1316.6
618.387,1299.7
618.917,1295.0
619.446,1292.4
619.976,1284.2
620.505,1268.4
621.035,1267.5
621.564,1279.0
622.093,1314.1
622.623,1308.2
623.152,1267.7
623.681,1255.8
624.21,1250.0
624.739,1258.8
625.268,1259.9
625.797,1268.8
626.326,1293.3
626.855,1586.8
627.383,2100.9
627.912,1762.2
628.441,2044.5
628.969,1813.5
629.498,1700.4
630.026,1595.9
630.554,1556.7
631.083,1421.5
631.611,1336.2
632.139,1318.5
632.667,1306.9
633.195,1312.4
633.724,1314.5
634.252,1325.7
634.779,1321.3
635.307,1324.5
635.835,1340.6
636.363,1335.3
636.891,1362.3
637.418,1351.2
637.946,1363.1
638.474,1357.6
639.001,1365.7
639.529,1378.2
640.056,1391.1
640.583,1390.6
641.111,1397.5
641.638,1403.8
642.165,1409.2
642.692,1415.5
643.22,1406.0
643.747,1415.3
644.274,1411.9
644.801,1416.7
645.328,1409.1
645.854,1422.7
646.381,1408.0
646.908,1414.8
647.435,1412.8
647.962,1406.3
648.488,1400.1
649.015,1404.4
649.542,1408.0
650.068,1395.9
650.595,1395.3
651.121,1386.4
651.648,1386.7
652.174,1381.5
652.7,1385.6
653.227,1385.3
653.753,1391.4
654.279,1377.0
654.805,1367.4
655.331,1368.3
655.858,1348.5
656.384,1354.2
656.91,1337.5
657.436,1330.6
657.962,1307.0
658.488,1306.0
659.013,1287.8
659.539,1276.6
660.065,1260.1
660.591,1243.5
661.117,1229.6
661.642,1208.0
662.168,1198.9
662.694,1188.6
663.088,1174.2