File: spectra/VLFR_01-LDPE_nobio_Raman_1e259df0.csv
nm,Intensity
526.486,828.5
527.033,830.7
527.579,829.5
528.126,828.3
528.672,830.0
529.219,828.8
529.765,828.6
530.311,828.4
530.857,828.6
531.403,828.2
531.948,828.9
532.494,830.0
533.039,828.6
533.585,829.3
534.13,868.1
534.675,858.1
535.22,854.6
535.764,849.9
536.309,845.5
536.854,845.1
537.398,843.0
537.942,844.2
538.486,842.2
539.03,841.4
539.574,839.6
540.118,840.5
540.662,836.2
541.205,837.7
541.749,837.8
542.292,838.5
542.835,837.4
543.378,838.0
543.921,836.7
544.464,838.1
545.006,836.4
545.549,837.6
546.091,836.7
546.634,838.0
547.176,836.9
547.718,838.2
548.26,835.5
548.802,836.4
549.343,836.5
549.885,836.4
550.426,836.5
550.968,837.9
551.509,836.0
552.05,837.7
552.591,836.6
553.132,838.1
553.673,838.5
554.214,838.1
554.754,838.4
555.295,838.8
555.835,838.8
556.375,839.6
556.915,840.4
557.455,843.0
557.995,843.0
558.535,844.3
559.075,843.8
559.614,840.9
560.154,840.8
560.693,840.7
561.232,841.5
561.772,839.3
562.311,842.4
562.85,843.3
563.388,845.7
563.927,868.2
564.466,855.4
565.004,852.2
565.543,847.4
566.081,888.4
566.619,852.2
567.157,843.5
567.695,846.4
568.233,842.5
568.771,840.9
569.309,840.5
569.846,843.1
570.384,844.7
570.921,848.2
571.458,888.4
571.995,862.7
572.532,850.5
573.069,844.4
573.606,842.1
574.143,848.1
574.68,842.1
575.216,846.3
575.753,873.4
576.289,905.2
576.825,881.6
577.361,864.0
577.897,848.6
578.433,845.1
578.969,846.1
579.505,845.4
580.041,843.0
580.576,845.6
581.112,845.2
581.647,846.0
582.183,846.8
582.718,847.1
583.253,848.7
583.788,851.2
584.323,852.2
584.858,854.2
585.392,858.5
585.927,855.9
586.462,859.6
586.996,859.5
587.53,860.2
588.065,864.5
588.599,868.1
589.133,870.8
589.667,872.7
590.201,875.2
590.735,875.7
591.268,880.3
591.802,882.3
592.335,879.9
592.869,879.5
593.402,883.7
593.936,883.1
594.469,883.8
595.002,885.2
595.535,889.3
596.068,889.3
596.601,894.7
597.133,899.0
597.666,896.4
598.199,902.0
598.731,904.2
599.264,903.0
599.796,908.6
600.328,909.3
600.86,911.4
601.393,911.6
601.925,911.9
602.457,914.5
602.988,910.7
603.52,907.1
604.052,901.1
604.583,900.6
605.115,897.7
605.646,896.3
606.178,893.5
606.709,889.6
607.24,886.5
607.771,887.4
608.302,887.9
608.833,883.1
609.364,879.1
609.895,882.6
610.426,877.0
610.957,878.5
611.487,880.8
612.018,873.9
612.548,873.1
613.078,874.9
613.609,873.8
614.139,876.0
614.669,872.2
615.199,873.7
615.729,872.7
616.259,869.2
616.789,868.2
617.319,872.1
617.849,874.6
618.378,869.7
618.908,872.0
619.437,869.2
619.967,871.8
620.496,868.6
621.025,870.9
621.555,874.2
622.084,885.9
622.613,883.9
623.142,872.7
623.671,870.9
624.2,868.5
624.729,867.5
625.258,868.3
625.786,872.4
626.315,882.1
626.844,967.7
627.372,1228.2
627.901,1088.1
628.429,1143.0
628.957,1139.2
629.486,1085.0
630.014,1026.8
630.542,1020.9
631.07,946.1
631.598,892.6
632.126,880.9
632.654,870.1
633.182,866.7
633.71,863.6
634.237,862.3
634.765,863.5
635.293,859.5
635.82,861.5
636.348,862.8
636.875,859.4
637.403,861.7
637.93,861.8
638.458,865.4
638.985,862.8
639.512,863.3
640.039,864.1
640.566,864.4
641.093,864.9
641.62,868.1
642.147,868.5
642.674,866.8
643.201,867.9
643.728,873.1
644.255,869.8
644.781,869.9
645.308,869.4
645.835,871.8
646.361,871.9
646.888,870.2
647.414,871.1
647.941,871.8
648.467,869.9
648.993,868.2
649.52,870.4
650.046,869.6
650.572,871.2
651.098,870.1
651.625,871.1
652.151,870.3
652.677,872.1
653.203,872.5
653.729,872.9
654.255,871.2
654.78,873.5
655.306,872.0
655.832,872.0
656.358,871.5
656.884,874.0
657.409,873.4
657.935,871.7
658.461,866.0
658.986,871.0
659.512,868.5
660.037,869.1
660.563,865.9
661.088,867.9
661.614,865.7
662.139,860.8
662.664,860.4
663.058,859.9