File: spectra/VLFR_06-PET_bio_Raman_ec716c1a.csv
nm,Intensity
528.65,1849.35
529.155,1849.0
529.66,1849.25
530.165,1849.6
530.67,1849.85
531.175,1850.9
531.68,1895.9
532.185,3343.4
532.69,1853.75
533.194,1855.75
533.699,2754.0
534.204,4754.05
534.708,3937.45
535.213,3442.2
535.717,3016.35
536.222,2773.05
536.726,2630.15
537.231,2631.8
537.735,2618.4
538.239,2638.0
538.743,2660.95
539.247,2688.1
539.751,2741.35
540.255,2699.2
540.759,2619.75
541.263,2607.3
541.767,2608.85
542.271,2628.7
542.775,2661.7
543.279,2663.5
543.782,2698.15
544.286,2716.7
544.789,2666.45
545.293,2718.5
545.796,2697.85
546.3,2859.35
546.803,2784.4
547.306,2750.7
547.81,2733.6
548.313,2735.8
548.816,2752.0
549.319,2777.35
549.822,2785.9
550.325,2888.4
550.828,2993.8
551.331,2805.0
551.834,2823.15
552.337,2776.5
552.839,3017.0
553.342,2818.4
553.844,2780.75
554.347,2818.4
554.849,2844.9
555.352,2916.25
555.854,3019.5
556.357,3076.85
556.859,3072.3
557.361,3490.35
557.863,3213.75
558.365,3160.4
558.867,3037.7
559.369,2944.15
559.871,2917.5
560.373,2941.4
560.875,2966.2
561.377,2994.75
561.878,3126.05
562.38,3845.55
562.881,3130.95
563.383,3120.25
563.884,3080.6
564.386,3091.35
564.887,3268.8
565.388,3492.1
565.89,3615.55
566.391,3387.0
566.892,3199.85
567.393,3343.2
567.894,3398.05
568.395,3281.25
568.896,3293.85
569.396,3321.55
569.897,3432.05
570.398,3683.3
570.898,4153.95
571.399,4501.95
571.9,3969.8
572.4,3637.1
572.9,3514.25
573.401,3500.1
573.901,3604.85
574.401,3572.15
574.901,3607.15
575.401,3734.65
575.901,3639.75
576.401,3770.75
576.901,3768.25
577.401,3666.0
577.901,3659.95
578.4,3647.35
578.9,3667.9
579.399,3709.6
579.899,3675.05
580.398,3744.6
580.898,3839.35
581.397,3992.75
581.896,5932.25
582.395,5625.85
582.895,3904.95
583.394,3804.75
583.893,3899.8
584.391,3920.85
584.89,3939.15
585.389,4536.5
585.888,6070.2
586.386,5132.65
586.885,4085.75
587.384,3944.9
587.882,3900.0
588.38,3945.05
588.879,3883.75
589.377,3908.6
589.875,3875.2
590.373,3869.6
590.871,3910.8
591.369,3888.55
591.867,3872.1
592.365,3901.55
592.863,3940.7
593.361,3809.5
593.858,3879.25
594.356,3898.4
594.853,3909.3
595.351,3906.85
595.848,3890.7
596.345,3981.85
596.843,3913.85
597.34,3921.45
597.837,3920.15
598.334,3940.6
598.831,3921.55
599.328,3937.4
599.824,4017.35
600.321,3981.5
600.818,3983.5
601.314,3986.6
601.811,4018.0
602.307,3966.8
602.804,3950.45
603.3,3987.5
603.796,3923.65
604.293,3977.15
604.789,3947.3
605.285,4043.5
605.781,4015.85
606.277,4000.75
606.772,3995.1
607.268,4034.6
607.764,4052.65
608.259,4034.65
608.755,4074.3
609.25,4052.2
609.746,4080.05
610.241,4104.6
610.736,4084.0
611.231,4067.1
611.727,4062.85
612.222,4108.9
612.716,4154.45
613.211,4108.85
613.706,4085.8
614.201,4146.55
614.695,4138.55
615.19,4149.4
615.684,4129.2
616.179,4124.75
616.673,4228.95
617.168,4210.8
617.662,4207.35
618.156,4307.25
618.65,4235.95
619.144,4283.75
619.638,4192.45
620.131,4220.65
620.625,4227.1
621.119,4237.85
621.612,4228.35
622.106,4242.8
622.599,4269.0
623.093,4249.55
623.586,4313.3
624.079,4354.45
624.572,4302.0
625.065,4454.1
625.558,4367.9
626.051,4364.65
626.544,4387.8
627.037,4324.4
627.529,4358.6
628.022,4439.25
628.514,4555.3
629.007,4565.7
629.499,4612.75
629.991,4524.4
630.483,4609.4
630.976,4801.95
631.468,5288.2
631.959,5410.65
632.451,4969.2
632.943,4858.85
633.435,4831.25
633.926,4854.75
634.418,4661.1
634.909,4582.5
635.401,4744.6
635.892,5019.55
636.383,5569.95
636.874,5217.95
637.365,4759.3
637.856,4693.9
638.347,4767.55
638.838,4651.5
639.329,4603.5
639.819,4683.15
640.31,4676.7
640.8,4626.9
641.291,4580.95
641.781,4527.75
642.271,4677.65
642.761,4656.25
643.251,4541.0
643.741,4667.05
644.231,4551.7
644.721,4599.15
645.211,4693.95
645.7,4558.65
646.19,4660.1
646.679,4570.8
647.169,4622.2
647.658,4563.05
648.147,4585.5
648.636,4486.6
649.125,4556.95
649.614,4578.65
650.103,4534.25
650.592,4467.9
651.08,4593.35
651.569,4390.55
652.058,4510.8
652.546,4495.05
653.034,4476.45
653.523,4353.6
654.011,4417.25
654.499,4347.1
654.987,4258.3
655.475,4325.95
655.963,4345.7
656.45,4286.6
656.938,4275.95
657.425,4285.3
657.913,4217.45
658.4,4168.9
658.888,4155.55
659.375,4108.75
659.862,4119.3
660.349,4127.8
660.836,4045.15
661.079,4023.45