File: spectra/VLFR_07-PET_nobio_Raman_508f48b3.csv
cm-1,Intensity
109.24,8004.4
126.699,7502.1
144.108,7304.0
161.468,7099.5
178.779,6947.4
196.04,7023.8
213.253,6915.45
230.417,6991.25
247.532,6884.2
264.599,6905.6
281.618,6841.55
298.59,6810.75
315.513,6725.35
332.389,6751.4
349.218,6613.2
365.999,6632.25
382.734,6585.05
399.422,6542.0
416.064,6577.0
432.659,6419.3
449.208,6407.05
465.711,6358.65
482.168,6350.55
498.579,6290.4
514.946,6262.35
531.267,6232.9
547.542,6216.4
563.773,6135.3
579.96,6060.7
596.102,6062.55
612.199,6045.05
628.252,6186.0
644.261,5950.3
660.227,5949.35
676.149,5865.25
692.027,5872.45
707.862,5916.25
723.654,5875.55
739.403,5804.3
755.109,5777.2
770.773,5718.5
786.394,5774.8
801.973,5819.75
817.509,5747.6
833.004,5734.05
848.457,5962.7
863.868,5792.9
879.238,5731.2
894.567,5590.0
909.854,5557.85
925.1,5515.2
940.306,5507.5
955.471,5461.15
970.595,5428.85
985.679,5445.85
1000.72,5452.75
1015.73,5396.3
1030.69,5386.4
1045.61,5348.55
1060.5,5277.35
1075.34,5301.05
1090.15,5402.85
1104.92,5407.1
1119.64,5356.15
1134.33,5236.3
1148.98,5210.65
1163.6,5237.45
1178.17,5247.25
1192.7,5121.2
1207.2,5118.6
1221.66,5106.0
1236.08,5107.5
1250.46,5144.85
1264.81,5188.7
1279.12,5337.55
1293.39,5246.05
1307.62,5110.25
1321.82,5058.8
1335.98,5021.7
1350.11,4995.35
1364.19,4936.25
1378.24,4917.85
1392.26,4915.35
1406.24,4903.6
1420.18,4898.45
1434.08,4882.45
1447.96,4888.05
1461.79,4844.25
1475.59,4792.1
1489.35,4785.1
1503.08,4774.4
1516.78,4765.9
1530.44,4735.55
1544.06,4716.25
1557.65,4717.45
1571.2,4654.65
1584.72,4657.4
1598.21,4920.25
1611.66,5067.8
1625.08,4768.0
1638.46,4576.9
1651.81,4578.05
1665.13,4554.15
1678.41,4532.35
1691.66,4573.35
1704.88,4666.3
1718.06,4807.45
1731.21,4795.25
1744.32,4566.05
1757.41,4482.0
1770.46,4440.35
1783.48,4381.05
1796.46,4375.35
1809.42,4371.1
1822.34,4368.4
1835.23,4359.7
1848.08,4323.75
1860.91,4330.25
1873.7,4306.5
1886.46,4289.7
1899.19,4288.75
1911.89,4257.95
1924.56,4245.9
1937.19,4247.9
1949.8,4218.05
1962.37,4189.55
1974.91,4175.0
1987.42,4162.1
1999.9,4162.75
2012.36,4137.1
2024.78,4119.95
2037.16,4098.55
2049.52,4101.45
2061.85,4086.35
2074.15,4073.0
2086.42,4068.45
2098.66,4061.2
2110.87,4052.9
2123.05,4033.65
2135.2,4021.75
2147.32,4020.15
2159.41,4000.85
2171.47,4002.0
2183.51,3984.15
2195.51,3979.25
2207.49,3982.5
2219.43,3966.9
2231.35,3964.65
2243.24,3953.05
2255.1,3949.35
2266.93,3938.9
2278.73,3931.8
2290.51,3921.75
2302.26,3923.2
2313.97,3914.05
2325.67,3915.05
2337.33,3905.3
2348.96,3900.65
2360.57,3885.55
2372.15,3891.5
2383.7,3883.2
2395.23,3882.3
2406.73,3874.65
2418.2,3873.55
2429.64,3865.7
2441.06,3859.2
2452.45,3863.25
2463.81,3856.8
2475.15,3851.05
2486.46,3851.0
2497.74,3840.4
2509.0,3840.8
2520.23,3838.15
2531.43,3835.35
2542.61,3829.65
2553.76,3825.7
2564.88,3825.7
2575.98,3823.2
2587.06,3818.8
2598.1,3815.45
2609.13,3812.85
2620.12,3812.6
2631.09,3809.6
2642.04,3805.5
2652.96,3800.3
2663.85,3800.2
2674.72,3797.75
2685.57,3798.15
2696.39,3792.05
2707.18,3789.65
2717.95,3787.8
2728.69,3786.0
2739.41,3784.25
2750.11,3782.9
2760.78,3778.05
2771.43,3780.75
2782.05,3778.3
2792.65,3773.55
2803.22,3776.7
2813.77,3771.1
2824.3,3768.2
2834.8,3769.45
2845.27,3767.25
2855.73,3766.95
2866.16,3762.0
2876.56,3763.8
2886.95,3764.85
2897.3,3761.55
2907.64,3763.85
2917.95,3761.45
2928.24,3760.8
2938.51,3760.95
2948.75,3763.25
2958.97,3765.5
2969.17,3760.45
2979.34,3759.5
2989.49,3756.4
2999.62,3754.7
3009.72,3752.3
3019.81,3749.7
3029.87,3749.65
3039.9,3747.85
3049.92,3748.7
3059.91,3749.2
3069.88,3749.55
3079.83,3750.45
3089.76,3750.15
3099.66,3746.8
3109.54,3744.25
3119.4,3742.25
3129.24,3741.65
3139.06,3741.65
3148.85,3740.9
3158.62,3740.55
3168.38,3738.85
3178.11,3737.95
3187.81,3739.85
3197.5,3738.8
3207.17,3738.45
3216.81,3739.65
3226.44,3738.95
3236.04,3738.25
3245.62,3737.4
3255.18,3737.5
3264.72,3738.65
3274.24,3738.45
3283.73,3736.75
3293.21,3736.85
3302.67,3738.5
3312.1,3736.85
3321.52,3736.75
3330.91,3737.0
3340.29,3735.6
3349.64,3736.45
3358.97,3735.95
3368.29,3733.65
3375.26,3735.25