File: spectra/VLFR_02-HDPE_bio_Raman_d01e2104.csv
nm,Intensity
528.626,1867.0
529.132,1868.5
529.637,1868.4
530.143,1869.0
530.648,1868.0
531.153,1870.8
531.658,1901.5
532.164,5045.6
532.669,1870.6
533.174,1869.7
533.679,1947.2
534.184,2212.8
534.689,2215.1
535.194,2232.2
535.699,2150.5
536.203,2132.4
536.708,2075.9
537.213,2122.5
537.717,2075.6
538.222,2066.3
538.726,2058.4
539.231,2038.5
539.735,2039.0
540.239,2040.8
540.744,2043.4
541.248,2054.9
541.752,2041.8
542.256,2038.5
542.76,2056.5
543.264,2048.1
543.768,2070.3
544.272,2129.3
544.776,2061.0
545.28,2049.1
545.784,2084.6
546.287,2305.3
546.791,2186.0
547.294,2072.5
547.798,2060.4
548.301,2062.1
548.805,2071.2
549.308,2092.4
549.811,2085.4
550.315,2151.9
550.818,2065.5
551.321,2062.1
551.824,2069.8
552.327,2058.6
552.83,2062.3
553.333,2077.8
553.835,2076.0
554.338,2078.1
554.841,2077.9
555.343,2088.7
555.846,2077.9
556.349,2095.1
556.851,2111.8
557.353,2105.1
557.856,2124.6
558.358,2124.1
558.86,2122.1
559.362,2112.1
559.864,2119.8
560.366,2122.3
560.868,2123.7
561.37,2140.7
561.872,2286.6
562.374,3815.7
562.876,2181.8
563.377,2163.4
563.879,2558.9
564.38,2278.9
564.882,2230.1
565.383,2192.5
565.885,2386.4
566.386,2578.4
566.887,2208.4
567.388,2241.1
567.889,2170.9
568.391,2129.7
568.892,2142.3
569.392,2154.2
569.893,2144.4
570.394,2170.4
570.895,2200.7
571.395,2823.0
571.896,2350.9
572.397,2208.1
572.897,2168.2
573.397,2174.6
573.898,2226.6
574.398,2162.9
574.898,2176.8
575.398,2449.3
575.898,2478.2
576.398,2825.0
576.898,2611.6
577.398,2381.0
577.898,2245.4
578.398,2214.5
578.897,2230.8
579.397,2246.9
579.896,2241.5
580.396,2265.1
580.895,2275.2
581.395,2306.0
581.894,2324.8
582.393,2316.2
582.892,2340.8
583.391,2333.3
583.89,2343.7
584.389,2344.5
584.888,2353.1
585.387,2317.5
585.886,2338.8
586.384,2365.8
586.883,2338.1
587.381,2354.2
587.88,2337.1
588.378,2321.8
588.876,2317.6
589.375,2315.5
589.873,2304.6
590.371,2321.3
590.869,2303.5
591.367,2318.6
591.865,2295.8
592.363,2311.6
592.86,2310.4
593.358,2300.2
593.856,2308.2
594.353,2306.7
594.851,2303.9
595.348,2333.4
595.845,2308.4
596.342,2330.9
596.84,2326.6
597.337,2331.5
597.834,2343.0
598.331,2327.8
598.828,2331.6
599.324,2348.7
599.821,2354.8
600.318,2351.9
600.814,2349.6
601.311,2365.6
601.807,2348.3
602.304,2357.8
602.8,2341.9
603.296,2339.7
603.792,2340.3
604.288,2303.5
604.784,2316.8
605.28,2306.7
605.776,2299.1
606.272,2295.6
606.767,2307.5
607.263,2288.7
607.759,2285.8
608.254,2268.7
608.749,2266.6
609.245,2250.4
609.74,2272.0
610.235,2261.3
610.73,2252.9
611.225,2263.3
611.72,2244.6
612.215,2248.3
612.71,2240.7
613.204,2230.4
613.699,2226.5
614.194,2242.6
614.688,2233.5
615.182,2227.7
615.677,2216.2
616.171,2235.8
616.665,2242.5
617.159,2275.3
617.653,2277.1
618.147,2297.2
618.641,2279.0
619.135,2291.0
619.628,2313.8
620.122,2306.5
620.615,2325.0
621.109,2362.6
621.602,2422.0
622.095,2576.4
622.589,2523.8
623.082,2366.1
623.575,2319.9
624.068,2330.6
624.561,2309.4
625.053,2319.5
625.546,2364.7
626.039,2463.6
626.531,3004.9
627.024,6017.1
627.516,5789.3
628.008,4811.8
628.501,6665.8
628.993,4554.6
629.485,3995.3
629.977,3518.3
630.469,3385.9
630.96,2874.5
631.452,2482.6
631.944,2378.4
632.435,2366.2
632.927,2351.2
633.418,2326.6
633.91,2305.3
634.401,2287.2
634.892,2283.1
635.383,2269.5
635.874,2248.2
636.365,2251.9
636.856,2257.2
637.346,2218.1
637.837,2207.2
638.327,2219.0
638.818,2213.2
639.308,2200.4
639.799,2190.6
640.289,2200.5
640.779,2182.9
641.269,2180.1
641.759,2171.3
642.249,2191.8
642.738,2187.5
643.228,2173.4
643.718,2175.2
644.207,2164.7
644.697,2158.5
645.186,2158.8
645.675,2143.3
646.164,2129.2
646.653,2153.1
647.142,2149.9
647.631,2154.8
648.12,2147.6
648.609,2151.2
649.098,2161.2
649.586,2180.6
650.075,2204.8
650.563,2171.0
651.051,2129.3
651.539,2135.4
652.027,2114.6
652.515,2105.2
653.003,2110.2
653.491,2113.1
653.979,2108.1
654.467,2100.4
654.954,2089.4
655.442,2082.7
655.929,2077.3
656.416,2061.7
656.904,2084.5
657.391,2075.3
657.878,2061.5
658.365,2058.7
658.851,2047.8
659.338,2061.3
659.825,2051.4
660.311,2055.3
660.798,2053.1
661.041,2039.3