File: spectra/VLFR_07-PET_bio_Raman_73bd336c.csv
nm,Intensity
791.588,11347.9
792.685,10761.7
793.781,10505.5
794.878,10417.9
795.975,10397.4
797.071,10346.3
798.168,10353.3
799.264,10318.1
800.36,10429.2
801.456,10406.5
802.552,10394.8
803.648,10147.9
804.744,10123.2
805.84,9971.6
806.936,9941.2
808.031,9850.8
809.127,9865.3
810.222,9643.3
811.317,9469.6
812.412,9591.9
813.507,9329.6
814.602,9146.1
815.697,9256.1
816.792,9074.0
817.887,9088.7
818.981,9031.7
820.076,9011.0
821.17,8904.5
822.265,8818.8
823.359,8687.9
824.453,8737.5
825.547,8677.9
826.641,8580.8
827.735,8492.0
828.828,8407.9
829.922,8336.4
831.016,8294.9
832.109,8208.2
833.202,8104.0
834.295,8140.9
835.388,8006.2
836.481,7975.1
837.574,7948.4
838.667,7950.3
839.76,7821.8
840.852,7840.5
841.945,7912.2
843.037,7620.0
844.129,7666.1
845.221,7424.6
846.314,7409.4
847.405,7333.5
848.497,7211.8
849.589,7113.2
850.68,7152.7
851.772,7112.8
852.863,7144.2
853.955,7012.8
855.046,6982.7
856.137,6964.1
857.228,6894.6
858.318,7026.4
859.409,6939.5
860.5,6987.8
861.59,6859.0
862.681,6760.3
863.771,6749.5
864.861,6730.0
865.951,6651.6
867.041,6586.7
868.131,6633.3
869.22,6562.8
870.31,6593.1
871.399,6623.7
872.488,6746.2
873.578,6668.1
874.667,6561.3
875.756,6362.9
876.845,6407.5
877.933,6362.2
879.022,6276.8
880.11,6268.4
881.199,6253.6
882.287,6218.1
883.375,6215.1
884.463,6166.0
885.551,6119.3
886.639,6067.9
887.726,6014.4
888.814,5980.8
889.901,5919.1
890.988,5898.0
892.075,5907.4
893.162,5827.5
894.249,5779.0
895.336,5723.1
896.423,5679.7
897.509,5840.5
898.595,6065.6
899.682,5752.4
900.768,5521.9
901.854,5471.0
902.94,5436.2
904.025,5443.2
905.111,5441.4
906.196,5420.4
907.282,5576.3
908.367,5523.6
909.452,5375.1
910.537,5223.4
911.622,5153.9
912.706,5095.9
913.791,5051.9
914.875,5013.2
915.959,4990.2
917.044,4945.1
918.128,4922.6
919.211,4926.0
920.295,4889.4
921.379,4843.2
922.462,4795.4
923.546,4788.7
924.629,4770.9
925.712,4753.6
926.795,4673.1
927.877,4634.1
928.96,4601.3
930.043,4583.8
931.125,4559.3
932.207,4513.3
933.289,4450.9
934.371,4475.3
935.453,4449.3
936.535,4423.8
937.616,4390.1
938.697,4372.7
939.779,4357.5
940.86,4333.6
941.941,4314.7
943.022,4308.0
944.102,4277.5
945.183,4247.9
946.263,4253.8
947.343,4224.8
948.423,4216.1
949.503,4204.3
950.583,4196.1
951.663,4167.9
952.742,4156.9
953.822,4137.5
954.901,4131.9
955.98,4124.6
957.059,4102.7
958.137,4100.5
959.216,4080.4
960.294,4068.1
961.373,4055.5
962.451,4048.6
963.529,4046.4
964.607,4031.5
965.684,4019.9
966.762,4010.9
967.839,4016.6
968.917,4005.5
969.994,4001.8
971.071,3987.3
972.147,3978.7
973.224,3972.3
974.3,3955.4
975.377,3957.0
976.453,3942.6
977.529,3942.7
978.605,3933.9
979.68,3926.8
980.756,3920.1
981.831,3912.8
982.907,3915.4
983.982,3914.8
985.057,3898.4
986.131,3898.0
987.206,3892.9
988.28,3888.2
989.355,3878.9
990.429,3868.8
991.503,3867.5
992.576,3857.2
993.65,3866.6
994.723,3852.7
995.797,3856.8
996.87,3841.8
997.943,3836.2
999.016,3838.5
1000.09,3826.9
1001.16,3831.2
1002.23,3823.6
1003.31,3823.3
1004.38,3820.5
1005.45,3814.4
1006.52,3808.3
1007.59,3807.4
1008.66,3804.1
1009.73,3800.7
1010.81,3796.4
1011.88,3797.0
1012.95,3791.8
1014.02,3791.8
1015.09,3788.5
1016.16,3785.8
1017.23,3785.6
1018.3,3781.4
1019.37,3781.0
1020.44,3780.6
1021.51,3778.3
1022.58,3778.3
1023.64,3777.6
1024.71,3775.9
1025.78,3770.6
1026.85,3767.5
1027.92,3764.4
1028.99,3758.9
1030.05,3761.0
1031.12,3757.7
1032.19,3755.3
1033.26,3754.9
1034.32,3756.7
1035.39,3755.7
1036.46,3755.9
1037.52,3750.6
1038.59,3751.2
1039.66,3750.3
1040.72,3747.3
1041.79,3744.9
1042.86,3746.0
1043.92,3746.2
1044.99,3744.3
1046.05,3741.9
1047.12,3743.8
1048.18,3741.4
1049.25,3740.9
1050.31,3739.0
1051.37,3739.6
1052.44,3740.5
1053.5,3739.4
1054.57,3738.3
1055.63,3741.2
1056.69,3737.5
1057.76,3738.1
1058.82,3736.5
1059.88,3738.5
1060.95,3736.3
1062.01,3736.8
1063.07,3737.6
1064.13,3738.6
1065.19,3737.5
1066.26,3734.0
1067.32,3734.4
1068.11,3736.4