File: spectra/VLFR_08-PLA_bio_Raman_7b8cc3c5.csv
nm,Intensity
526.495,828.3
527.042,828.3
527.589,828.3
528.136,830.1
528.682,827.1
529.229,828.4
529.775,828.6
530.321,830.4
530.867,829.5
531.413,828.7
531.959,832.6
532.505,830.4
533.051,829.5
533.596,830.1
534.141,1060.0
534.687,1010.2
535.232,970.5
535.777,950.1
536.321,938.7
536.866,947.8
537.41,932.8
537.955,933.1
538.499,923.1
539.043,916.2
539.587,913.8
540.131,911.1
540.675,929.4
541.219,929.8
541.762,922.4
542.305,914.7
542.849,919.0
543.392,942.7
543.935,951.8
544.478,930.2
545.02,916.9
545.563,916.0
546.106,913.1
546.648,913.6
547.19,919.9
547.732,917.7
548.274,912.9
548.816,919.7
549.358,921.6
549.9,918.7
550.441,920.8
550.983,923.1
551.524,927.4
552.065,932.7
552.606,932.3
553.147,931.5
553.688,924.3
554.229,943.3
554.769,933.3
555.31,924.3
555.85,921.1
556.391,922.7
556.931,927.9
557.471,945.7
558.011,1061.0
558.551,963.0
559.09,944.9
559.63,942.5
560.169,932.1
560.709,931.9
561.248,930.3
561.787,929.4
562.326,927.9
562.865,943.2
563.404,976.1
563.943,956.7
564.481,950.5
565.02,974.4
565.558,962.7
566.096,995.5
566.634,960.2
567.172,940.5
567.71,944.7
568.248,944.7
568.786,946.1
569.324,950.2
569.861,944.1
570.399,945.6
570.936,947.7
571.473,962.3
572.01,966.9
572.547,958.8
573.084,966.6
573.621,966.2
574.158,965.8
574.694,972.6
575.231,947.9
575.767,952.8
576.303,968.3
576.84,1034.2
577.376,976.3
577.912,958.2
578.448,951.6
578.984,954.4
579.519,954.2
580.055,952.8
580.59,954.8
581.126,950.9
581.661,949.9
582.196,955.8
582.731,953.9
583.267,956.7
583.801,956.3
584.336,963.0
584.871,959.1
585.406,957.2
585.94,962.3
586.475,970.7
587.009,1017.0
587.543,1035.7
588.078,984.2
588.612,960.4
589.146,956.3
589.68,955.2
590.214,958.4
590.747,953.6
591.281,958.1
591.815,955.4
592.348,956.9
592.881,958.1
593.415,957.7
593.948,954.7
594.481,955.9
595.014,959.3
595.547,956.4
596.08,957.3
596.613,960.2
597.146,959.8
597.678,953.3
598.211,964.4
598.743,962.8
599.276,954.7
599.808,958.3
600.34,957.3
600.872,957.7
601.404,953.6
601.936,955.9
602.468,955.7
603.0,954.9
603.532,957.2
604.064,955.1
604.595,957.4
605.127,953.4
605.658,952.0
606.189,954.3
606.721,951.9
607.252,948.5
607.783,949.1
608.314,950.1
608.845,949.1
609.376,955.7
609.907,949.1
610.438,954.0
610.968,951.1
611.499,948.5
612.029,954.3
612.56,953.7
613.09,956.1
613.621,958.9
614.151,953.9
614.681,951.5
615.211,953.4
615.741,956.1
616.271,951.4
616.801,952.2
617.331,953.5
617.861,955.5
618.39,951.5
618.92,957.7
619.45,953.9
619.979,956.2
620.509,952.2
621.038,950.4
621.567,952.3
622.096,951.8
622.626,962.2
623.155,966.7
623.684,963.8
624.213,957.3
624.742,954.5
625.271,951.6
625.799,956.0
626.328,948.5
626.857,950.5
627.386,952.3
627.914,960.3
628.443,1031.7
628.971,1025.2
629.5,1022.4
630.028,1028.2
630.556,1086.7
631.084,1505.9
631.613,1243.2
632.141,1099.2
632.669,1070.6
633.197,1169.7
633.725,1126.9
634.253,1027.7
634.781,970.7
635.308,955.7
635.836,953.8
636.364,947.3
636.891,945.6
637.419,943.4
637.947,940.6
638.474,938.1
639.002,939.1
639.529,943.5
640.056,937.1
640.584,941.6
641.111,939.6
641.638,941.3
642.165,938.8
642.692,942.4
643.219,934.4
643.746,934.4
644.273,932.8
644.8,932.1
645.327,929.4
645.854,931.9
646.381,928.6
646.908,928.2
647.434,926.8
647.961,925.7
648.488,926.0
649.014,927.1
649.541,925.3
650.067,925.7
650.594,927.8
651.12,922.0
651.646,924.0
652.173,919.4
652.699,922.5
653.225,918.7
653.752,921.9
654.278,918.5
654.804,921.0
655.33,918.2
655.856,919.9
656.382,917.6
656.908,921.2
657.434,917.3
657.96,919.3
658.486,917.0
659.012,918.1
659.538,919.4
660.064,917.1
660.589,915.7
661.115,915.4
661.641,913.9
662.166,912.8
662.692,913.9
663.086,912.7