File: spectra/VLFR_08-PLA_nobio_Raman_82647865.csv
nm,Intensity
526.5,830.6
527.047,830.9
527.594,830.7
528.14,830.4
528.687,829.3
529.233,829.4
529.779,829.6
530.325,830.6
530.871,828.5
531.417,831.0
531.962,830.9
532.508,828.4
533.053,830.1
533.599,841.7
534.144,2527.1
534.689,2665.7
535.234,2642.3
535.778,2730.2
536.323,2757.4
536.867,2766.4
537.412,2801.1
537.956,2850.8
538.5,2850.3
539.044,2875.6
539.588,2913.1
540.132,2930.9
540.675,2943.4
541.219,2978.5
541.762,3000.4
542.305,3029.2
542.848,3075.7
543.391,3106.3
543.934,3128.3
544.477,3158.7
545.02,3206.0
545.562,3218.5
546.105,3265.9
546.647,3295.7
547.189,3304.1
547.731,3323.6
548.273,3359.9
548.815,3386.1
549.356,3427.9
549.898,3471.1
550.439,3482.3
550.981,3506.1
551.522,3543.1
552.063,3560.5
552.604,3592.2
553.145,3624.5
553.686,3655.1
554.226,3707.9
554.767,3723.4
555.307,3721.0
555.848,3747.0
556.388,3782.6
556.928,3820.8
557.468,3855.3
558.008,3866.9
558.547,3881.5
559.087,3926.4
559.626,4013.9
560.166,4043.0
560.705,4067.6
561.244,4076.7
561.783,4082.6
562.322,4138.8
562.861,4188.5
563.4,4257.6
563.939,4316.4
564.477,4360.1
565.015,4424.7
565.554,4459.3
566.092,4505.6
566.63,4510.5
567.168,4549.4
567.706,4608.5
568.244,4601.2
568.781,4693.5
569.319,4768.7
569.857,4799.9
570.394,4816.6
570.931,4845.5
571.468,4889.1
572.005,4888.5
572.542,4980.0
573.079,5075.0
573.616,5098.6
574.153,5137.7
574.689,5170.1
575.226,5224.0
575.762,5224.5
576.298,5234.2
576.834,5290.9
577.371,5324.6
577.907,5358.3
578.442,5397.4
578.978,5435.6
579.514,5460.1
580.049,5517.6
580.585,5569.8
581.12,5649.2
581.656,5613.4
582.191,5638.7
582.726,5648.5
583.261,5701.0
583.796,5731.9
584.331,5731.6
584.865,5749.5
585.4,5817.9
585.935,5855.1
586.469,5898.8
587.004,5950.3
587.538,5980.6
588.072,6007.1
588.606,5989.8
589.14,5972.2
589.674,5979.9
590.208,6030.7
590.742,6082.8
591.275,6128.3
591.809,6155.4
592.342,6155.7
592.876,6162.1
593.409,6106.4
593.942,6126.0
594.476,6212.5
595.009,6246.9
595.542,6315.8
596.075,6317.6
596.607,6338.0
597.14,6370.0
597.673,6427.7
598.205,6460.0
598.738,6529.5
599.27,6519.1
599.803,6505.8
600.335,6541.9
600.867,6510.5
601.399,6514.2
601.931,6532.9
602.463,6567.0
602.995,6609.9
603.527,6629.9
604.058,6679.6
604.59,6632.6
605.122,6593.9
605.653,6560.0
606.184,6555.4
606.716,6554.6
607.247,6612.2
607.778,6653.3
608.309,6697.4
608.84,6725.4
609.371,6751.4
609.902,6753.8
610.433,6741.1
610.964,6738.5
611.494,6773.2
612.025,6860.4
612.556,6917.4
613.086,7036.9
613.616,7090.1
614.147,7125.4
614.677,7124.5
615.207,7126.9
615.737,7090.3
616.267,7101.3
616.797,7136.5
617.327,7198.5
617.857,7227.2
618.387,7293.2
618.917,7253.9
619.446,7285.7
619.976,7276.6
620.505,7271.4
621.035,7317.4
621.564,7334.2
622.093,7363.7
622.623,7422.5
623.152,7461.9
623.681,7482.9
624.21,7551.2
624.739,7578.9
625.268,7576.2
625.797,7613.1
626.326,7576.7
626.855,7589.9
627.383,7626.8
627.912,7623.7
628.441,7643.0
628.969,7679.2
629.498,7702.4
630.026,7728.7
630.554,7745.2
631.083,7798.3
631.611,7812.5
632.139,7784.1
632.667,7807.4
633.195,7848.1
633.724,7823.0
634.252,7805.5
634.779,7821.7
635.307,7846.0
635.835,7922.6
636.363,7926.0
636.891,7944.4
637.418,7931.0
637.946,7992.7
638.474,7988.7
639.001,8027.4
639.529,8050.0
640.056,8076.7
640.583,8076.5
641.111,8130.3
641.638,8144.2
642.165,8127.7
642.692,8103.7
643.22,8120.7
643.747,8065.3
644.274,8059.0
644.801,8001.2
645.328,8026.8
645.854,8041.8
646.381,8059.1
646.908,8145.1
647.435,8145.6
647.962,8211.0
648.488,8179.0
649.015,8156.9
649.542,8176.5
650.068,8188.8
650.595,8153.7
651.121,8208.2
651.648,8213.5
652.174,8246.7
652.7,8291.7
653.227,8323.7
653.753,8346.5
654.279,8428.7
654.805,8397.2
655.331,8420.0
655.858,8436.4
656.384,8454.8
656.91,8556.7
657.436,8543.6
657.962,8559.1
658.488,8658.2
659.013,8659.0
659.539,8723.6
660.065,8770.5
660.591,8763.9
661.117,8714.8
661.642,8694.9
662.168,8688.1
662.694,8833.9
663.088,8802.2