File: spectra/VLFR_02-HDPE_nobio_Raman_3f3df12c.csv
nm,Intensity
526.508,831.6
527.055,831.1
527.602,830.7
528.149,829.5
528.695,828.9
529.241,830.7
529.787,829.7
530.334,831.9
530.879,830.6
531.425,829.3
531.971,834.3
532.516,831.4
533.062,829.4
533.607,830.9
534.152,889.8
534.697,890.5
535.242,891.1
535.786,864.9
536.331,854.9
536.876,850.3
537.42,849.8
537.964,850.5
538.508,848.5
539.052,844.0
539.596,842.2
540.14,845.6
540.683,842.1
541.227,841.2
541.77,841.5
542.313,841.7
542.856,840.8
543.399,842.4
543.942,840.1
544.485,841.3
545.027,839.6
545.57,841.2
546.112,840.7
546.654,840.6
547.196,841.0
547.738,839.4
548.28,840.8
548.822,842.1
549.363,839.3
549.905,840.5
550.446,841.3
550.988,839.1
551.529,841.6
552.07,841.7
552.611,840.7
553.152,843.7
553.692,844.3
554.233,844.7
554.773,842.7
555.314,844.0
555.854,846.5
556.394,844.7
556.934,845.9
557.474,850.4
558.014,850.2
558.553,849.8
559.093,847.9
559.632,846.7
560.172,844.3
560.711,845.8
561.25,847.3
561.789,846.9
562.328,849.3
562.867,848.2
563.406,853.3
563.944,924.4
564.483,867.8
565.021,860.6
565.559,854.7
566.098,901.3
566.636,858.3
567.174,854.4
567.711,860.5
568.249,849.5
568.787,850.1
569.324,850.3
569.862,851.9
570.399,854.0
570.936,859.3
571.474,963.5
572.011,871.9
572.548,856.8
573.084,852.0
573.621,852.4
574.158,861.4
574.694,848.4
575.231,853.3
575.767,887.9
576.303,1005.7
576.84,932.3
577.376,913.9
577.912,862.6
578.447,853.0
578.983,852.7
579.519,853.5
580.054,852.4
580.59,850.3
581.125,849.5
581.661,847.9
582.196,848.4
582.731,851.4
583.266,850.6
583.801,848.3
584.336,850.6
584.87,849.4
585.405,849.8
585.94,849.2
586.474,848.9
587.008,850.8
587.543,853.8
588.077,851.0
588.611,850.8
589.145,850.0
589.679,852.2
590.213,852.3
590.747,852.0
591.28,851.8
591.814,853.2
592.347,853.0
592.881,855.7
593.414,852.9
593.947,855.3
594.48,853.1
595.014,856.5
595.547,855.5
596.079,859.0
596.612,858.4
597.145,859.5
597.678,859.9
598.21,860.4
598.743,862.9
599.275,864.7
599.807,862.4
600.34,862.4
600.872,864.0
601.404,866.6
601.936,869.0
602.468,867.8
603.0,863.7
603.532,865.2
604.063,864.6
604.595,865.3
605.126,859.9
605.658,860.4
606.189,858.4
606.721,859.9
607.252,858.4
607.783,859.0
608.314,858.3
608.845,857.7
609.376,857.9
609.907,857.9
610.438,856.7
610.968,856.7
611.499,858.0
612.03,858.1
612.56,856.8
613.091,858.0
613.621,856.6
614.151,857.4
614.681,859.7
615.212,857.6
615.742,861.0
616.272,863.4
616.802,866.3
617.332,871.3
617.861,874.2
618.391,871.9
618.921,870.2
619.45,873.4
619.98,877.2
620.509,876.4
621.039,884.4
621.568,902.4
622.097,947.1
622.627,945.0
623.156,890.6
623.685,880.2
624.214,878.4
624.743,878.6
625.272,883.4
625.801,893.5
626.33,936.7
626.858,1348.9
627.387,2004.7
627.916,1526.9
628.444,1924.0
628.973,1467.3
629.501,1327.6
630.029,1175.1
630.558,1149.0
631.086,993.0
631.614,901.5
632.142,885.5
632.67,877.3
633.198,873.5
633.726,871.0
634.254,865.2
634.782,863.9
635.31,862.4
635.838,861.0
636.365,861.8
636.893,858.9
637.421,852.6
637.948,855.4
638.476,851.6
639.003,851.6
639.531,851.3
640.058,852.7
640.585,852.3
641.113,851.7
641.64,848.6
642.167,851.3
642.694,848.8
643.221,851.6
643.748,848.6
644.275,849.6
644.802,848.9
645.329,848.4
645.856,850.9
646.382,853.2
646.909,849.6
647.436,849.4
647.962,849.9
648.489,851.5
649.016,852.0
649.542,851.7
650.069,851.0
650.595,850.6
651.121,852.1
651.648,850.3
652.174,851.7
652.7,850.3
653.227,850.1
653.753,849.6
654.279,852.6
654.805,848.4
655.331,850.4
655.857,850.1
656.383,852.5
656.909,851.5
657.435,851.8
657.961,851.6
658.487,849.8
659.013,851.8
659.538,848.9
660.064,854.0
660.59,851.0
661.116,849.3
661.641,849.1
662.167,849.5
662.692,847.8
663.087,847.1