File: spectra/VLFR_02-HDPE_bio_Raman_a2b40f76.csv
nm,Intensity
526.549,831.75
527.096,831.85
527.643,830.7
528.19,831.95
528.737,832.5
529.283,832.15
529.83,831.85
530.376,831.2
530.922,831.95
531.468,832.2
532.014,845.0
532.559,832.65
533.105,832.0
533.65,832.8
534.196,896.45
534.741,887.3
535.286,881.75
535.83,866.45
536.375,862.35
536.92,857.8
537.464,858.55
538.008,859.2
538.553,857.65
539.097,854.15
539.641,852.4
540.184,851.8
540.728,850.65
541.271,851.5
541.815,850.25
542.358,849.95
542.901,849.75
543.444,850.2
543.987,849.55
544.53,848.5
545.072,849.8
545.615,848.25
546.157,848.75
546.699,849.25
547.242,848.55
547.784,850.85
548.325,848.9
548.867,849.5
549.409,849.55
549.95,852.25
550.492,848.95
551.033,849.65
551.574,850.0
552.115,851.1
552.656,851.3
553.197,851.25
553.737,853.6
554.278,854.0
554.818,852.8
555.358,854.75
555.899,854.4
556.439,854.95
556.979,855.5
557.518,859.05
558.058,860.9
558.598,862.25
559.137,860.4
559.677,859.65
560.216,858.2
560.755,856.3
561.294,858.1
561.833,858.95
562.372,861.3
562.91,861.4
563.449,866.35
563.987,966.05
564.526,880.55
565.064,878.6
565.602,875.6
566.14,1016.3
566.678,875.0
567.216,867.8
567.754,868.25
568.291,863.6
568.829,866.35
569.366,867.0
569.904,865.8
570.441,872.0
570.978,876.25
571.515,1039.65
572.052,887.0
572.589,873.55
573.125,870.0
573.662,871.5
574.199,877.25
574.735,870.85
575.271,880.0
575.807,924.2
576.344,982.25
576.88,936.3
577.415,908.95
577.951,883.2
578.487,880.4
579.023,881.5
579.558,883.25
580.094,884.1
580.629,884.55
581.164,887.9
581.699,889.0
582.234,893.7
582.769,892.5
583.304,896.1
583.839,898.8
584.374,902.75
584.908,904.8
585.443,911.05
585.977,914.2
586.511,916.9
587.046,921.8
587.58,929.9
588.114,930.5
588.648,933.4
589.182,941.95
589.716,947.5
590.249,950.2
590.783,956.05
591.316,960.45
591.85,965.2
592.383,969.2
592.917,970.1
593.45,974.85
593.983,969.3
594.516,973.15
595.049,971.65
595.582,973.6
596.115,975.85
596.647,972.3
597.18,974.65
597.712,977.0
598.245,979.25
598.777,977.45
599.31,979.9
599.842,979.7
600.374,978.3
600.906,975.2
601.438,975.2
601.97,973.8
602.502,974.3
603.034,976.05
603.565,972.9
604.097,973.9
604.628,967.5
605.16,965.25
605.691,959.05
606.223,959.55
606.754,957.4
607.285,953.85
607.816,955.9
608.347,954.8
608.878,954.45
609.409,950.45
609.94,951.6
610.47,949.2
611.001,951.95
611.532,949.85
612.062,945.75
612.593,944.2
613.123,943.55
613.653,944.8
614.184,943.5
614.714,937.65
615.244,939.85
615.774,938.85
616.304,939.5
616.834,939.05
617.364,940.25
617.894,940.65
618.423,940.15
618.953,940.05
619.482,939.4
620.012,936.2
620.541,940.45
621.071,940.65
621.6,954.7
622.13,972.05
622.659,967.35
623.188,939.85
623.717,938.15
624.246,938.55
624.775,934.65
625.304,939.85
625.833,947.15
626.362,976.65
626.89,1263.6
627.419,1628.25
627.948,1343.9
628.476,1611.35
629.005,1334.7
629.533,1246.35
630.061,1152.95
630.59,1128.35
631.118,1012.6
631.646,957.6
632.175,942.75
632.703,936.2
633.231,935.6
633.759,933.5
634.287,931.2
634.815,928.4
635.342,928.7
635.87,930.65
636.398,930.1
636.926,936.0
637.453,930.75
637.981,932.05
638.509,931.4
639.036,934.55
639.563,933.7
640.091,937.05
640.618,937.6
641.146,938.85
641.673,939.95
642.2,937.55
642.727,941.6
643.254,940.75
643.781,940.05
644.309,942.3
644.836,945.1
645.362,941.8
645.889,939.9
646.416,945.95
646.943,943.3
647.47,945.45
647.997,943.05
648.523,946.3
649.05,944.5
649.577,940.4
650.103,940.55
650.63,941.2
651.156,940.3
651.683,935.85
652.209,939.3
652.735,940.85
653.262,939.0
653.788,940.45
654.314,937.85
654.841,936.6
655.367,937.25
655.893,936.2
656.419,931.5
656.945,933.65
657.471,934.5
657.997,933.65
658.523,934.7
659.049,933.55
659.575,929.6
660.101,930.9
660.627,927.3
661.153,924.3
661.679,923.75
662.205,920.55
662.731,919.85
663.125,917.7