File: spectra/VLFR_02-HDPE_bio_Raman_685428b8.csv
nm,Intensity
526.494,833.9
527.041,835.2
527.588,835.1
528.135,835.0
528.682,834.1
529.229,834.6
529.775,835.0
530.321,835.1
530.868,834.2
531.414,834.6
531.96,846.4
532.506,836.4
533.051,833.3
533.597,834.1
534.142,868.2
534.687,868.4
535.232,863.8
535.777,856.3
536.322,852.8
536.867,853.9
537.411,851.5
537.956,850.5
538.5,850.2
539.044,848.1
539.588,848.6
540.132,849.2
540.676,848.2
541.22,851.4
541.763,847.0
542.306,848.8
542.85,847.3
543.393,845.5
543.936,849.6
544.479,849.1
545.021,845.7
545.564,846.0
546.106,847.1
546.649,847.1
547.191,846.5
547.733,846.9
548.275,848.5
548.817,847.7
549.359,848.2
549.9,848.2
550.442,847.0
550.983,848.9
551.524,849.3
552.066,849.0
552.607,848.1
553.148,848.7
553.688,849.8
554.229,848.5
554.77,851.1
555.31,850.3
555.85,851.4
556.39,852.2
556.931,850.9
557.471,852.8
558.01,854.3
558.55,853.0
559.09,851.6
559.629,851.4
560.169,850.6
560.708,852.7
561.247,851.0
561.786,853.5
562.325,853.1
562.864,853.8
563.403,856.1
563.941,891.0
564.48,864.5
565.018,858.9
565.557,859.9
566.095,887.3
566.633,859.1
567.171,857.1
567.709,860.4
568.247,854.6
568.784,858.2
569.322,856.7
569.859,856.6
570.397,859.0
570.934,861.9
571.471,925.3
572.008,870.4
572.545,861.5
573.082,858.2
573.619,860.5
574.155,864.4
574.692,859.8
575.228,862.3
575.765,881.4
576.301,933.6
576.837,904.6
577.373,890.7
577.909,875.8
578.445,872.7
578.981,871.4
579.516,875.2
580.052,873.1
580.587,877.5
581.123,875.4
581.658,883.4
582.193,879.1
582.728,881.8
583.263,882.0
583.798,884.3
584.333,884.9
584.868,884.7
585.402,886.6
585.937,891.3
586.471,893.3
587.005,893.5
587.54,895.5
588.074,898.9
588.608,899.1
589.142,902.0
589.676,902.6
590.21,903.0
590.743,905.1
591.277,908.5
591.81,908.9
592.344,908.6
592.877,907.4
593.411,910.1
593.944,908.4
594.477,910.1
595.01,912.8
595.543,911.7
596.076,915.8
596.608,917.3
597.141,912.6
597.674,917.4
598.206,916.8
598.739,922.7
599.271,923.5
599.803,920.9
600.335,922.4
600.868,922.2
601.4,924.2
601.931,926.7
602.463,929.3
602.995,927.7
603.527,926.7
604.058,927.0
604.59,922.2
605.121,922.9
605.653,922.3
606.184,919.0
606.715,917.6
607.246,918.1
607.778,917.4
608.309,923.3
608.839,918.7
609.37,919.4
609.901,910.3
610.432,913.7
610.962,911.9
611.493,911.8
612.023,913.9
612.554,911.9
613.084,914.8
613.614,908.2
614.145,914.2
614.675,910.4
615.205,910.4
615.735,909.5
616.265,905.1
616.795,910.4
617.324,911.8
617.854,914.3
618.384,909.1
618.913,908.7
619.443,907.7
619.972,910.3
620.502,910.1
621.031,913.6
621.56,917.9
622.089,929.2
622.618,925.4
623.147,909.7
623.676,908.1
624.205,906.7
624.734,906.4
625.263,907.2
625.792,912.9
626.32,925.3
626.849,1061.8
627.377,1261.9
627.906,1112.8
628.434,1224.3
628.963,1107.0
629.491,1063.7
630.019,1009.1
630.547,995.5
631.076,942.2
631.604,910.4
632.132,906.5
632.66,900.3
633.188,904.4
633.715,899.0
634.243,896.0
634.771,899.2
635.299,899.4
635.826,893.0
636.354,898.6
636.881,896.5
637.409,892.7
637.936,891.4
638.464,892.9
638.991,895.9
639.518,895.1
640.045,891.8
640.573,892.0
641.1,893.0
641.627,895.6
642.154,891.5
642.681,892.8
643.208,891.8
643.735,893.1
644.261,890.9
644.788,892.8
645.315,890.4
645.842,891.2
646.368,890.7
646.895,894.1
647.421,889.8
647.948,892.7
648.474,893.8
649.001,891.1
649.527,889.2
650.054,891.5
650.58,890.1
651.106,890.0
651.633,888.9
652.159,890.5
652.685,893.3
653.211,890.4
653.737,891.8
654.263,892.5
654.789,890.1
655.315,890.8
655.841,890.8
656.367,892.6
656.893,891.1
657.419,890.3
657.945,891.4
658.47,890.9
658.996,888.2
659.522,890.3
660.047,887.9
660.573,889.7
661.099,889.4
661.624,886.9
662.15,889.2
662.675,886.7
663.07,883.6