File: spectra/VLFR_02-HDPE_bio_Raman_e970700e.csv
nm,Intensity
526.508,830.4
527.055,831.0
527.602,830.4
528.149,830.8
528.695,829.4
529.241,831.1
529.787,831.4
530.334,830.0
530.879,831.8
531.425,829.8
531.971,835.2
532.516,831.7
533.062,831.1
533.607,831.1
534.152,927.2
534.697,911.7
535.242,892.1
535.786,881.7
536.331,877.1
536.876,872.7
537.42,869.9
537.964,872.0
538.508,871.0
539.052,862.2
539.596,862.4
540.14,861.3
540.683,858.2
541.227,858.4
541.77,858.9
542.313,858.8
542.856,857.7
543.399,860.3
543.942,859.8
544.485,862.2
545.027,863.8
545.57,862.3
546.112,862.8
546.654,863.0
547.196,864.8
547.738,862.1
548.28,863.0
548.822,863.8
549.363,865.8
549.905,863.2
550.446,864.6
550.988,862.5
551.529,868.8
552.07,864.9
552.611,865.1
553.152,864.0
553.692,869.1
554.233,866.1
554.773,867.4
555.314,865.1
555.854,865.8
556.394,868.7
556.934,871.8
557.474,871.1
558.014,874.8
558.553,877.1
559.093,872.9
559.632,872.9
560.172,866.8
560.711,869.4
561.25,869.5
561.789,874.9
562.328,873.8
562.867,874.7
563.406,878.9
563.944,985.6
564.483,902.8
565.021,896.8
565.559,898.0
566.098,1115.8
566.636,903.9
567.174,881.1
567.711,878.8
568.249,875.3
568.787,876.8
569.324,879.8
569.862,880.4
570.399,884.3
570.936,889.6
571.474,1057.8
572.011,911.4
572.548,894.4
573.084,879.4
573.621,884.1
574.158,897.2
574.694,887.7
575.231,904.1
575.767,1025.0
576.303,1012.8
576.84,979.4
577.376,944.6
577.912,922.9
578.447,915.8
578.983,924.5
579.519,930.6
580.054,932.4
580.59,943.4
581.125,944.4
581.661,956.5
582.196,957.5
582.731,964.0
583.266,965.3
583.801,969.0
584.336,971.1
584.87,970.6
585.405,962.4
585.94,968.9
586.474,973.4
587.008,971.7
587.543,969.7
588.077,975.1
588.611,977.5
589.145,978.0
589.679,980.8
590.213,985.6
590.747,993.5
591.28,994.9
591.814,1000.2
592.347,1003.2
592.881,999.4
593.414,1003.5
593.947,1008.3
594.48,1001.5
595.014,1007.6
595.547,1007.6
596.079,1007.9
596.612,1009.8
597.145,1008.0
597.678,1010.9
598.21,1014.3
598.743,1019.7
599.275,1021.6
599.807,1021.6
600.34,1019.0
600.872,1016.0
601.404,1013.4
601.936,1019.9
602.468,1012.6
603.0,1007.7
603.532,1002.7
604.063,1004.7
604.595,991.2
605.126,988.6
605.658,978.2
606.189,974.6
606.721,970.8
607.252,963.3
607.783,961.7
608.314,958.7
608.845,957.1
609.376,953.2
609.907,954.6
610.438,951.7
610.968,951.9
611.499,948.0
612.03,946.1
612.56,945.8
613.091,942.9
613.621,940.7
614.151,934.2
614.681,934.1
615.212,933.8
615.742,933.8
616.272,932.8
616.802,934.5
617.332,942.2
617.861,937.9
618.391,933.1
618.921,934.4
619.45,936.3
619.98,934.6
620.509,936.6
621.039,943.0
621.568,943.5
622.097,962.6
622.627,958.2
623.156,943.3
623.685,940.7
624.214,941.9
624.743,937.8
625.272,943.6
625.801,953.7
626.33,972.3
626.858,1158.4
627.387,1580.9
627.916,1296.9
628.444,1415.8
628.973,1409.4
629.501,1316.4
630.029,1204.9
630.558,1183.3
631.086,1070.8
631.614,1001.5
632.142,981.4
632.67,972.6
633.198,973.9
633.726,964.5
634.254,968.9
634.782,957.9
635.31,964.9
635.838,963.2
636.365,958.6
636.893,957.5
637.421,958.3
637.948,960.2
638.476,954.0
639.003,956.4
639.531,953.1
640.058,951.7
640.585,950.4
641.113,951.0
641.64,950.8
642.167,951.1
642.694,953.9
643.221,951.3
643.748,947.0
644.275,953.4
644.802,953.6
645.329,950.8
645.856,949.5
646.382,951.0
646.909,951.3
647.436,946.6
647.962,952.0
648.489,949.6
649.016,953.7
649.542,949.6
650.069,949.8
650.595,947.1
651.121,946.8
651.648,944.8
652.174,947.4
652.7,942.5
653.227,940.5
653.753,944.1
654.279,938.2
654.805,939.3
655.331,935.8
655.857,933.6
656.383,930.3
656.909,931.4
657.435,928.6
657.961,925.5
658.487,923.7
659.013,922.0
659.538,920.1
660.064,920.1
660.59,915.7
661.116,912.0
661.641,907.3
662.167,904.4
662.692,901.1
663.087,903.8