File: spectra/VLFR_07-PET_bio_Raman_068b0bcb.csv
nm,Intensity
791.377,14858.7
792.477,13399.2
793.576,12633.3
794.676,12129.4
795.775,11934.5
796.874,11731.3
797.973,11690.3
799.072,11762.6
800.171,11678.9
801.27,11692.5
802.368,11661.1
803.467,11375.1
804.565,11147.4
805.664,11115.3
806.762,11033.2
807.86,10949.3
808.958,10746.3
810.056,10664.9
811.153,10817.3
812.251,10581.6
813.349,10579.2
814.446,10320.7
815.543,10362.8
816.64,10130.2
817.737,10032.5
818.834,9994.2
819.931,10007.9
821.028,9743.06
822.125,9749.32
823.221,9544.28
824.317,9506.04
825.414,9610.68
826.51,9575.04
827.606,9260.96
828.702,9120.02
829.797,9100.8
830.893,9237.2
831.988,8998.68
833.084,8933.74
834.179,8796.44
835.274,8702.94
836.369,8871.02
837.464,8828.16
838.559,8823.28
839.654,8840.08
840.748,8842.72
841.843,8980.12
842.937,8497.16
844.031,8496.28
845.125,8154.5
846.219,8055.2
847.313,8156.7
848.407,7934.96
849.5,7930.18
850.593,7841.36
851.687,7877.0
852.78,7814.5
853.873,7681.98
854.966,7705.68
856.059,7546.64
857.151,7614.1
858.244,7696.9
859.336,7850.76
860.428,7795.5
861.52,7530.0
862.612,7361.0
863.704,7430.54
864.796,7420.22
865.888,7239.3
866.979,7077.14
868.07,7219.14
869.162,7139.56
870.253,7075.22
871.344,7368.88
872.434,7558.02
873.525,7497.38
874.615,7215.82
875.706,6961.94
876.796,6993.46
877.886,6835.14
878.976,6796.52
880.066,6735.26
881.156,6727.36
882.245,6704.24
883.335,6622.26
884.424,6634.88
885.513,6570.6
886.602,6501.96
887.691,6502.44
888.78,6369.38
889.868,6366.16
890.957,6323.12
892.045,6349.7
893.133,6278.64
894.221,6189.48
895.309,6041.46
896.397,6158.66
897.484,6383.76
898.571,7081.52
899.659,6497.92
900.746,5970.42
901.833,5909.14
902.92,5781.56
904.006,5836.62
905.093,5809.98
906.179,5915.92
907.266,6336.3
908.352,6426.08
909.438,5898.24
910.523,5673.4
911.609,5531.98
912.695,5440.68
913.78,5397.54
914.865,5390.92
915.95,5316.82
917.035,5293.8
918.12,5258.88
919.204,5236.32
920.289,5195.46
921.373,5142.44
922.457,5107.98
923.541,5091.88
924.625,5003.82
925.709,5027.86
926.792,4965.18
927.876,4981.04
928.959,4899.7
930.042,4818.16
931.125,4810.08
932.208,4800.96
933.29,4757.42
934.373,4724.56
935.455,4738.2
936.537,4699.68
937.619,4627.1
938.701,4597.42
939.782,4588.24
940.864,4572.58
941.945,4577.2
943.026,4515.82
944.107,4481.76
945.188,4476.38
946.269,4466.72
947.349,4426.12
948.43,4431.84
949.51,4380.36
950.59,4390.32
951.67,4341.84
952.75,4337.88
953.829,4356.48
954.909,4294.06
955.988,4279.5
957.067,4274.32
958.146,4266.42
959.224,4236.48
960.303,4227.04
961.381,4196.88
962.459,4198.08
963.537,4176.1
964.615,4170.08
965.693,4156.34
966.771,4144.64
967.848,4133.26
968.925,4129.56
970.002,4111.04
971.079,4100.96
972.156,4103.14
973.232,4075.36
974.309,4082.54
975.385,4053.64
976.461,4053.66
977.537,4051.08
978.612,4039.66
979.688,4023.18
980.763,4018.96
981.838,4000.3
982.913,4013.06
983.988,3993.2
985.063,3986.46
986.137,3986.46
987.211,3974.8
988.285,3971.9
989.359,3961.42
990.433,3955.82
991.506,3944.32
992.58,3941.34
993.653,3936.24
994.726,3928.4
995.799,3922.26
996.872,3919.04
997.944,3908.58
999.016,3912.7
1000.09,3907.98
1001.16,3892.4
1002.23,3894.1
1003.3,3888.12
1004.38,3884.42
1005.45,3883.62
1006.52,3874.4
1007.59,3868.1
1008.66,3865.28
1009.73,3864.38
1010.8,3859.0
1011.87,3853.6
1012.94,3853.66
1014.01,3851.74
1015.08,3850.36
1016.15,3847.52
1017.22,3842.8
1018.29,3840.36
1019.36,3841.68
1020.42,3836.9
1021.49,3841.78
1022.56,3846.58
1023.63,3846.22
1024.7,3840.94
1025.76,3830.44
1026.83,3824.58
1027.9,3819.7
1028.97,3817.04
1030.03,3813.0
1031.1,3809.86
1032.17,3809.48
1033.23,3809.14
1034.3,3815.6
1035.36,3816.16
1036.43,3813.08
1037.5,3807.04
1038.56,3802.38
1039.63,3799.26
1040.69,3796.62
1041.76,3796.58
1042.82,3794.58
1043.89,3793.94
1044.95,3793.06
1046.01,3790.94
1047.08,3791.3
1048.14,3789.62
1049.2,3789.22
1050.27,3788.28
1051.33,3789.08
1052.39,3787.56
1053.46,3786.82
1054.52,3787.16
1055.58,3786.18
1056.64,3784.88
1057.7,3786.0
1058.77,3785.08
1059.83,3784.64
1060.89,3785.22
1061.95,3784.52
1063.01,3782.86
1064.07,3784.12
1065.13,3782.7
1066.19,3784.76
1067.25,3782.98
1068.05,3782.3