File: spectra/VLFR_02-HDPE_bio_Raman_c13566de.csv
nm,Intensity
528.635,1837.3
529.14,1838.8
529.645,1839.7
530.151,1837.8
530.656,1838.0
531.161,1839.7
531.666,1892.2
532.171,4898.3
532.676,1839.4
533.181,1839.4
533.686,1974.0
534.191,2292.1
534.696,2294.9
535.201,2242.7
535.705,2110.5
536.21,2055.1
536.715,2040.5
537.219,2027.8
537.724,2033.7
538.228,2024.6
538.733,2009.0
539.237,2004.6
539.741,1983.7
540.246,1977.6
540.75,1981.1
541.254,1975.3
541.758,1976.8
542.262,1986.2
542.766,1958.9
543.27,1980.0
543.774,1966.3
544.278,1972.5
544.781,1977.2
545.285,1971.7
545.789,1969.3
546.292,1971.9
546.796,1979.7
547.299,1978.7
547.803,1979.9
548.306,1982.3
548.809,1976.4
549.313,1980.7
549.816,1979.5
550.319,1981.6
550.822,1987.7
551.325,1994.8
551.828,1997.1
552.331,1991.6
552.834,1995.1
553.337,2016.4
553.839,2002.9
554.342,2014.8
554.845,2018.9
555.347,2018.3
555.85,2033.7
556.352,2037.9
556.854,2041.3
557.357,2078.0
557.859,2079.2
558.361,2096.9
558.863,2073.9
559.365,2067.3
559.867,2066.1
560.369,2057.9
560.871,2066.5
561.373,2070.8
561.875,2082.1
562.377,2106.2
562.878,2102.5
563.38,2139.4
563.881,2922.9
564.383,2318.4
564.884,2229.7
565.386,2198.3
565.887,2653.2
566.388,2691.6
566.889,2179.7
567.391,2280.7
567.892,2131.4
568.393,2102.4
568.893,2100.0
569.394,2106.7
569.895,2112.0
570.396,2157.2
570.897,2218.1
571.397,3393.5
571.898,2433.2
572.398,2191.4
572.899,2130.5
573.399,2126.7
573.899,2229.3
574.399,2107.0
574.9,2127.1
575.4,2815.8
575.9,2654.6
576.4,3210.8
576.899,2823.9
577.399,2480.7
577.899,2195.4
578.399,2173.4
578.898,2165.1
579.398,2140.5
579.897,2135.1
580.397,2134.4
580.896,2127.9
581.396,2123.9
581.895,2139.3
582.394,2120.3
582.893,2122.7
583.392,2122.5
583.891,2120.0
584.39,2130.8
584.889,2136.5
585.387,2136.9
585.886,2148.8
586.385,2162.3
586.883,2194.5
587.382,2196.2
587.88,2203.0
588.379,2240.0
588.877,2251.9
589.375,2262.8
589.873,2249.6
590.371,2288.8
590.869,2328.3
591.367,2315.8
591.865,2330.6
592.363,2337.7
592.86,2346.2
593.358,2359.0
593.856,2320.4
594.353,2321.7
594.851,2359.4
595.348,2322.9
595.845,2360.6
596.342,2357.7
596.84,2330.3
597.337,2355.7
597.834,2343.1
598.331,2358.8
598.827,2369.2
599.324,2387.0
599.821,2394.3
600.318,2397.0
600.814,2405.8
601.311,2426.7
601.807,2416.9
602.303,2451.8
602.8,2418.0
603.296,2432.7
603.792,2440.8
604.288,2440.8
604.784,2419.7
605.28,2428.8
605.776,2408.8
606.272,2390.0
606.767,2390.6
607.263,2361.2
607.758,2364.5
608.254,2368.9
608.749,2361.0
609.244,2372.8
609.74,2353.7
610.235,2360.6
610.73,2372.8
611.225,2377.2
611.72,2368.3
612.215,2338.4
612.709,2320.8
613.204,2341.6
613.699,2346.5
614.193,2342.5
614.688,2333.3
615.182,2333.8
615.676,2345.4
616.171,2361.3
616.665,2378.3
617.159,2399.1
617.653,2428.3
618.147,2388.5
618.641,2401.4
619.134,2397.7
619.628,2457.2
620.122,2408.9
620.615,2425.4
621.109,2466.0
621.602,2640.1
622.095,2885.7
622.588,2732.1
623.082,2482.3
623.575,2408.8
624.068,2379.5
624.56,2397.9
625.053,2402.2
625.546,2443.9
626.039,2608.2
626.531,3721.0
627.024,8902.2
627.516,7993.5
628.008,6614.2
628.501,9919.7
628.993,6075.7
629.485,5300.2
629.977,4490.2
630.469,4174.4
630.961,3190.1
631.452,2544.8
631.944,2397.1
632.436,2331.2
632.927,2302.5
633.418,2269.1
633.91,2243.1
634.401,2215.1
634.892,2207.4
635.383,2191.5
635.874,2185.1
636.365,2191.9
636.856,2139.7
637.347,2145.6
637.837,2128.9
638.328,2134.6
638.818,2119.2
639.309,2107.4
639.799,2103.0
640.289,2122.2
640.78,2110.0
641.27,2115.1
641.76,2110.0
642.249,2109.0
642.739,2109.2
643.229,2106.6
643.719,2110.7
644.208,2112.6
644.698,2103.2
645.187,2102.3
645.676,2097.2
646.165,2108.6
646.655,2093.5
647.144,2094.8
647.633,2101.6
648.121,2079.4
648.61,2079.2
649.099,2073.3
649.587,2069.1
650.076,2079.1
650.564,2080.3
651.053,2066.0
651.541,2058.0
652.029,2051.8
652.517,2072.2
653.005,2056.6
653.493,2057.5
653.981,2056.6
654.468,2056.8
654.956,2059.0
655.444,2045.5
655.931,2051.7
656.418,2049.2
656.906,2046.4
657.393,2049.1
657.88,2045.7
658.367,2029.8
658.854,2035.8
659.341,2032.9
659.827,2039.5
660.314,2022.7
660.8,2024.5
661.044,2025.6