File: spectra/VLFR_09-PET_bio_Raman_227feac7.csv
nm,Intensity
528.65,1845.35
529.155,1846.85
529.66,1848.15
530.165,1845.25
530.67,1847.8
531.175,1849.95
531.68,1888.4
532.185,3981.15
532.69,1852.8
533.194,1860.65
533.699,3084.8
534.204,6872.35
534.708,6776.95
535.213,6712.75
535.717,6667.55
536.222,6509.75
536.726,6499.0
537.231,6813.9
537.735,6970.25
538.239,6971.1
538.743,6890.9
539.247,7216.15
539.751,7482.8
540.255,7545.75
540.759,7511.05
541.263,7782.5
541.767,7895.65
542.271,8060.2
542.775,8163.1
543.279,8453.0
543.782,8444.1
544.286,8564.15
544.789,8730.3
545.293,8705.3
545.796,8921.15
546.3,8981.5
546.803,8952.95
547.306,9102.05
547.81,9234.45
548.313,9245.25
548.816,9568.5
549.319,9340.8
549.822,9410.65
550.325,9701.55
550.828,9836.6
551.331,9916.95
551.834,9914.6
552.337,10075.0
552.839,10224.0
553.342,10222.2
553.844,10304.0
554.347,10401.3
554.849,10476.3
555.352,10882.9
555.854,10987.0
556.357,11298.0
556.859,11090.7
557.361,11826.5
557.863,11762.7
558.365,11752.0
558.867,11650.0
559.369,11543.2
559.871,11851.0
560.373,11963.2
560.875,11921.7
561.377,12316.3
561.878,12763.8
562.38,12763.3
562.881,12566.7
563.383,12830.7
563.884,12693.4
564.386,13133.4
564.887,13247.5
565.388,13379.5
565.89,13731.8
566.391,13453.5
566.892,13318.0
567.393,13424.8
567.894,13782.7
568.395,13835.3
568.896,13722.0
569.396,13966.8
569.897,13938.4
570.398,14298.4
570.898,14549.0
571.399,15658.2
571.9,14937.7
572.4,14793.8
572.9,14427.4
573.401,14623.0
573.901,14630.0
574.401,14866.7
574.901,14635.2
575.401,15399.3
575.901,15310.8
576.401,15113.0
576.901,15196.3
577.401,15306.0
577.901,15761.5
578.4,15644.4
578.9,15380.2
579.399,15576.6
579.899,15878.6
580.398,15788.2
580.898,16140.5
581.397,16231.8
581.896,18100.6
582.395,17603.3
582.895,16435.7
583.394,16450.0
583.893,16358.2
584.391,16416.2
584.89,16679.2
585.389,17066.8
585.888,18713.4
586.386,18248.8
586.885,16913.3
587.384,17105.7
587.882,16989.4
588.38,17120.2
588.879,16588.6
589.377,16782.3
589.875,17050.1
590.373,16972.8
590.871,17086.6
591.369,17363.8
591.867,17287.1
592.365,17372.4
592.863,17234.7
593.361,17290.6
593.858,17304.4
594.356,17519.9
594.853,17532.6
595.351,17523.1
595.848,17886.0
596.345,18053.2
596.843,18127.1
597.34,18395.8
597.837,17670.6
598.334,17976.7
598.831,18050.6
599.328,18106.7
599.824,18147.8
600.321,18426.6
600.818,18420.0
601.314,18184.3
601.811,18901.0
602.307,18205.6
602.804,18969.3
603.3,18408.2
603.796,18196.1
604.293,18452.2
604.789,18477.6
605.285,19119.4
605.781,18845.6
606.277,18853.5
606.772,19261.8
607.268,19055.8
607.764,19198.8
608.259,19055.3
608.755,19528.2
609.25,19517.2
609.746,19621.1
610.241,19387.7
610.736,19681.4
611.231,20123.4
611.727,19720.4
612.222,19875.1
612.716,20164.2
613.211,20116.3
613.706,20416.5
614.201,19970.3
614.695,20800.3
615.19,20890.2
615.684,20951.5
616.179,21334.3
616.673,21122.6
617.168,21207.4
617.662,21569.1
618.156,21315.7
618.65,21688.6
619.144,21697.2
619.638,22408.8
620.131,22703.9
620.625,22713.0
621.119,22444.4
621.612,21779.5
622.106,22616.3
622.599,22935.8
623.093,23153.4
623.586,23059.3
624.079,23043.3
624.572,23424.0
625.065,23607.2
625.558,22969.2
626.051,23859.4
626.544,23606.5
627.037,24333.8
627.529,24679.3
628.022,24727.8
628.514,24978.9
629.007,25350.5
629.499,24853.9
629.991,25471.8
630.483,25194.6
630.976,24906.3
631.468,26104.3
631.959,26153.3
632.451,26047.1
632.943,26992.1
633.435,25847.5
633.926,26724.4
634.418,25947.1
634.909,26761.2
635.401,25589.1
635.892,26682.3
636.383,27250.1
636.874,27238.7
637.365,27231.6
637.856,26256.9
638.347,26954.8
638.838,26241.1
639.329,27602.1
639.819,26323.4
640.31,27385.2
640.8,26330.8
641.291,26746.6
641.781,27051.5
642.271,27110.8
642.761,28161.2
643.251,26388.4
643.741,27095.1
644.231,26961.4
644.721,26992.6
645.211,26972.5
645.7,26530.9
646.19,27079.2
646.679,26386.9
647.169,26476.9
647.658,27184.6
648.147,26368.2
648.636,26647.3
649.125,26207.8
649.614,25957.5
650.103,25739.7
650.592,25433.8
651.08,26459.8
651.569,26025.9
652.058,26200.6
652.546,25610.3
653.034,24929.3
653.523,24684.7
654.011,24513.6
654.499,25422.3
654.987,24505.9
655.475,24556.8
655.963,24775.6
656.45,24412.2
656.938,24270.2
657.425,24205.8
657.913,23136.3
658.4,23159.8
658.888,23197.8
659.375,22445.0
659.862,23369.0
660.349,22623.4
660.836,22712.3
661.079,21909.4