File: spectra/VLFR_08-PLA_bio_Raman_dee71bc2.csv
nm,Intensity
528.626,1863.73
529.132,1864.8
529.637,1864.5
530.143,1864.03
530.648,1864.93
531.153,1867.6
531.658,1911.23
532.164,4493.37
532.669,1866.7
533.174,1864.27
533.679,1997.9
534.184,2441.13
534.689,2445.23
535.194,2464.7
535.699,2466.2
536.203,2461.8
536.708,2440.67
537.213,2467.47
537.717,2476.97
538.222,2453.07
538.726,2460.1
539.231,2471.97
539.735,2454.83
540.239,2466.73
540.744,2495.23
541.248,2510.27
541.752,2503.5
542.256,2503.13
542.76,2533.93
543.264,2559.03
543.768,2581.67
544.272,2603.93
544.776,2583.97
545.28,2572.67
545.784,2588.3
546.287,2554.7
546.791,2587.17
547.294,2597.17
547.798,2583.3
548.301,2618.27
548.805,2604.7
549.308,2643.43
549.811,2631.8
550.315,2658.77
550.818,2676.37
551.321,2701.47
551.824,2709.33
552.327,2700.5
552.83,2668.8
553.333,2694.47
553.835,2713.93
554.338,2700.53
554.841,2731.83
555.343,2718.7
555.846,2731.87
556.349,2716.67
556.851,2726.67
557.353,2731.87
557.856,2828.27
558.358,2807.67
558.86,2747.37
559.362,2753.4
559.864,2747.07
560.366,2771.37
560.868,2816.77
561.37,2837.27
561.872,2922.1
562.374,3193.73
562.876,2886.8
563.377,2862.23
563.879,2823.93
564.38,2854.7
564.882,2882.1
565.383,2879.07
565.885,2864.83
566.386,2912.77
566.887,2907.7
567.388,2923.7
567.889,2902.4
568.391,2901.57
568.892,2892.47
569.392,2901.17
569.893,2876.6
570.394,2884.63
570.895,2878.4
571.395,2941.43
571.896,2956.23
572.397,2943.23
572.897,2941.17
573.397,2964.27
573.898,2952.7
574.398,2940.47
574.898,2952.53
575.398,2931.53
575.898,2941.7
576.398,2994.87
576.898,3040.37
577.398,2972.73
577.898,2962.0
578.398,2918.03
578.897,2953.93
579.397,2964.63
579.896,2958.03
580.396,2988.33
580.895,2986.63
581.395,2984.93
581.894,3016.17
582.393,2985.43
582.892,2994.9
583.391,2990.03
583.89,2977.43
584.389,3013.97
584.888,2970.83
585.387,2972.97
585.886,2961.8
586.384,2994.63
586.883,3031.4
587.381,3071.7
587.88,3058.23
588.378,2984.07
588.876,2912.17
589.375,2952.0
589.873,2961.5
590.371,2972.83
590.869,2997.17
591.367,2986.9
591.865,2986.13
592.363,2974.93
592.86,3012.13
593.358,3002.1
593.856,2999.73
594.353,2982.87
594.851,2976.97
595.348,3027.6
595.845,3016.7
596.342,3034.7
596.84,3015.17
597.337,3048.2
597.834,2999.93
598.331,3021.4
598.828,3019.27
599.324,3036.53
599.821,3026.1
600.318,3048.43
600.814,3028.83
601.311,3045.27
601.807,3054.03
602.304,3026.83
602.8,3076.9
603.296,3076.37
603.792,3054.47
604.288,3070.13
604.784,3047.87
605.28,3048.33
605.776,3095.2
606.272,3070.33
606.767,3065.57
607.263,3075.4
607.759,3075.17
608.254,3064.57
608.749,3071.27
609.245,3059.23
609.74,3088.6
610.235,3066.67
610.73,3080.23
611.225,3075.5
611.72,3098.77
612.215,3073.37
612.71,3089.6
613.204,3088.63
613.699,3055.13
614.194,3088.0
614.688,3115.07
615.182,3093.47
615.677,3115.63
616.171,3062.53
616.665,3069.43
617.159,3108.6
617.653,3087.37
618.147,3085.5
618.641,3093.9
619.135,3105.03
619.628,3085.6
620.122,3126.57
620.615,3082.63
621.109,3107.53
621.602,3071.43
622.095,3079.03
622.589,3102.83
623.082,3095.2
623.575,3089.43
624.068,3072.73
624.561,3074.0
625.053,3060.87
625.546,3073.53
626.039,3059.13
626.531,3046.83
627.024,3052.67
627.516,3049.73
628.008,3050.33
628.501,3149.87
628.993,3089.7
629.485,3077.87
629.977,3085.03
630.469,3121.8
630.96,3439.9
631.452,3309.2
631.944,3134.1
632.435,3104.33
632.927,3162.0
633.418,3163.3
633.91,3098.37
634.401,3017.27
634.892,3008.27
635.383,2978.97
635.874,2961.1
636.365,2958.03
636.856,2968.73
637.346,2958.1
637.837,2945.57
638.327,2947.37
638.818,2937.4
639.308,2938.7
639.799,2918.93
640.289,2917.8
640.779,2895.8
641.269,2884.5
641.759,2882.37
642.249,2863.47
642.738,2899.37
643.228,2852.47
643.718,2859.33
644.207,2889.3
644.697,2839.4
645.186,2839.8
645.675,2832.57
646.164,2846.87
646.653,2831.17
647.142,2823.17
647.631,2817.13
648.12,2803.57
648.609,2782.37
649.098,2766.17
649.586,2755.13
650.075,2745.4
650.563,2775.37
651.051,2768.83
651.539,2741.6
652.027,2739.3
652.515,2720.07
653.003,2739.7
653.491,2708.33
653.979,2703.83
654.467,2683.73
654.954,2656.6
655.442,2678.3
655.929,2647.1
656.416,2599.67
656.904,2653.3
657.391,2651.23
657.878,2615.13
658.365,2626.07
658.851,2620.27
659.338,2598.0
659.825,2579.73
660.311,2574.07
660.798,2588.33
661.041,2574.37