File: spectra/VLFR_08-PLA_nobio_Raman_1e3362dd.csv
nm,Intensity
526.508,829.9
527.055,829.5
527.602,829.5
528.149,829.3
528.695,830.6
529.241,829.9
529.787,829.5
530.334,829.3
530.879,830.1
531.425,829.6
531.971,833.0
532.516,829.8
533.062,828.8
533.607,831.3
534.152,1033.2
534.697,1008.1
535.242,972.3
535.786,970.1
536.331,956.5
536.876,961.1
537.42,959.5
537.964,950.6
538.508,947.8
539.052,945.3
539.596,943.0
540.14,935.1
540.683,950.7
541.227,955.9
541.77,953.1
542.313,948.6
542.856,953.7
543.399,971.1
543.942,978.4
544.485,958.0
545.027,956.6
545.57,954.8
546.112,946.8
546.654,954.1
547.196,955.9
547.738,953.5
548.28,960.8
548.822,957.8
549.363,963.2
549.905,957.4
550.446,963.4
550.988,959.8
551.529,969.8
552.07,972.7
552.611,980.7
553.152,975.1
553.692,977.2
554.233,981.7
554.773,976.8
555.314,970.8
555.854,974.8
556.394,972.2
556.934,970.9
557.474,986.2
558.014,1086.3
558.553,1003.6
559.093,992.2
559.632,978.8
560.172,985.2
560.711,982.5
561.25,980.4
561.789,981.2
562.328,984.7
562.867,998.4
563.406,1023.2
563.944,1008.9
564.483,995.8
565.021,1016.0
565.559,1008.3
566.098,1034.8
566.636,1004.6
567.174,995.1
567.711,999.5
568.249,998.5
568.787,1004.5
569.324,1007.3
569.862,1005.8
570.399,1000.1
570.936,1008.2
571.474,1020.3
572.011,1022.9
572.548,1013.0
573.084,1021.8
573.621,1023.6
574.158,1018.6
574.694,1031.6
575.231,1009.7
575.767,1011.0
576.303,1025.3
576.84,1074.2
577.376,1035.5
577.912,1020.8
578.447,1016.6
578.983,1016.7
579.519,1010.9
580.054,1015.9
580.59,1009.5
581.125,1021.6
581.661,1011.1
582.196,1017.2
582.731,1014.4
583.266,1019.4
583.801,1019.7
584.336,1025.5
584.87,1017.9
585.405,1023.9
585.94,1022.8
586.474,1036.5
587.008,1071.1
587.543,1090.2
588.077,1040.2
588.611,1022.9
589.145,1023.1
589.679,1020.1
590.213,1022.8
590.747,1024.0
591.28,1023.8
591.814,1020.1
592.347,1014.9
592.881,1020.9
593.414,1020.2
593.947,1018.4
594.48,1017.3
595.014,1019.9
595.547,1017.9
596.079,1018.0
596.612,1018.4
597.145,1017.5
597.678,1022.6
598.21,1023.5
598.743,1027.3
599.275,1019.5
599.807,1020.1
600.34,1023.2
600.872,1013.4
601.404,1021.4
601.936,1016.0
602.468,1019.6
603.0,1019.7
603.532,1019.3
604.063,1022.9
604.595,1019.5
605.126,1014.0
605.658,1010.7
606.189,1008.8
606.721,1012.5
607.252,1010.0
607.783,1010.5
608.314,1012.4
608.845,1011.0
609.376,1005.8
609.907,1011.7
610.438,1006.8
610.968,1012.1
611.499,1008.5
612.03,1007.6
612.56,1009.3
613.091,1008.0
613.621,1015.3
614.151,1012.6
614.681,1014.2
615.212,1012.5
615.742,1007.6
616.272,1015.3
616.802,1006.5
617.332,1013.3
617.861,1006.2
618.391,1013.2
618.921,1005.1
619.45,1009.0
619.98,1005.4
620.509,1012.1
621.039,1008.1
621.568,1004.8
622.097,1008.2
622.627,1008.6
623.156,1023.5
623.685,1022.3
624.214,1015.4
624.743,1012.8
625.272,1008.2
625.801,1010.7
626.33,1008.0
626.858,1011.3
627.387,1009.1
627.916,1011.4
628.444,1077.9
628.973,1063.7
629.501,1066.3
630.029,1071.6
630.558,1128.1
631.086,1486.8
631.614,1251.3
632.142,1125.2
632.67,1105.8
633.198,1196.5
633.726,1163.3
634.254,1073.0
634.782,1026.2
635.31,1003.7
635.838,1005.6
636.365,1000.9
636.893,997.4
637.421,998.0
637.948,992.8
638.476,996.3
639.003,992.6
639.531,996.2
640.058,994.5
640.585,989.6
641.113,991.7
641.64,986.3
642.167,987.9
642.694,990.1
643.221,978.8
643.748,982.0
644.275,985.0
644.802,975.8
645.329,977.2
645.856,974.9
646.382,981.4
646.909,975.0
647.436,976.6
647.962,977.3
648.489,975.6
649.016,974.1
649.542,971.9
650.069,966.7
650.595,971.1
651.121,970.5
651.648,968.7
652.174,971.7
652.7,963.8
653.227,965.1
653.753,970.3
654.279,961.3
654.805,967.4
655.331,962.4
655.857,966.2
656.383,965.6
656.909,962.4
657.435,962.1
657.961,965.5
658.487,962.9
659.013,960.4
659.538,965.7
660.064,960.1
660.59,959.6
661.116,958.4
661.641,956.7
662.167,959.8
662.692,953.8
663.087,956.5