File: spectra/VLFR_07-PET_nobio_Raman_239de90a.csv
nm,Intensity
782.722,3750.44
783.822,3758.72
784.922,5568.36
786.022,3958.78
787.122,3769.46
788.222,8022.78
789.321,17148.6
790.421,15126.3
791.52,13008.9
792.619,11432.1
793.718,10761.3
794.817,10308.2
795.916,10140.2
797.015,9950.92
798.114,9988.12
799.212,9911.06
800.311,9882.58
801.409,9888.64
802.507,9809.52
803.605,9378.56
804.703,9299.0
805.801,9073.26
806.899,9114.12
807.997,9046.28
809.094,8921.3
810.191,8843.32
811.289,8798.54
812.386,8637.94
813.483,8590.78
814.58,8557.36
815.677,8470.6
816.774,8437.96
817.87,8312.54
818.967,8365.58
820.063,8236.96
821.159,8232.94
822.255,8046.14
823.351,8038.46
824.447,7974.68
825.543,8191.4
826.639,8168.9
827.734,7726.6
828.83,7744.34
829.925,7748.78
831.02,7942.76
832.115,7591.9
833.21,7579.86
834.305,7445.18
835.4,7422.3
836.494,7412.32
837.589,7516.4
838.683,7477.92
839.777,7459.92
840.871,7656.16
841.965,7789.94
843.059,7366.4
844.152,7221.08
845.246,7061.5
846.339,6904.46
847.433,6833.82
848.526,6815.18
849.619,6783.38
850.712,6696.08
851.804,6849.98
852.897,6761.52
853.989,6678.84
855.082,6621.52
856.174,6604.58
857.266,6517.04
858.358,6703.2
859.45,6794.4
860.542,6837.68
861.633,6605.7
862.725,6487.06
863.816,6392.02
864.907,6428.4
865.998,6334.0
867.089,6203.56
868.18,6236.1
869.27,6249.88
870.361,6304.1
871.451,6395.18
872.541,6775.54
873.631,6707.2
874.721,6457.7
875.811,6145.52
876.901,6105.88
877.99,5978.4
879.08,5956.48
880.169,5919.78
881.258,5899.04
882.347,5904.44
883.436,5840.74
884.524,5848.0
885.613,5858.74
886.701,5795.76
887.79,5677.76
888.878,5665.74
889.966,5589.38
891.053,5583.52
892.141,5604.5
893.229,5552.62
894.316,5485.48
895.403,5433.1
896.49,5446.38
897.577,5719.28
898.664,6475.64
899.751,5886.32
900.837,5327.1
901.923,5208.56
903.01,5233.42
904.096,5199.6
905.181,5181.54
906.267,5337.78
907.353,5721.36
908.438,5817.86
909.523,5455.8
910.609,5088.66
911.694,5005.54
912.778,4937.6
913.863,4887.32
914.948,4856.3
916.032,4791.8
917.116,4818.46
918.2,4771.7
919.284,4762.82
920.368,4734.02
921.452,4712.72
922.535,4663.44
923.618,4672.66
924.701,4629.58
925.784,4602.12
926.867,4591.6
927.95,4541.12
929.032,4529.94
930.115,4495.04
931.197,4452.62
932.279,4457.24
933.361,4412.5
934.442,4421.5
935.524,4384.46
936.605,4351.04
937.687,4352.66
938.768,4331.02
939.849,4333.0
940.929,4302.76
942.01,4288.34
943.09,4261.2
944.171,4252.8
945.251,4234.82
946.331,4232.94
947.41,4191.36
948.49,4191.04
949.569,4195.44
950.649,4167.96
951.728,4165.52
952.807,4140.68
953.885,4143.46
954.964,4112.74
956.042,4106.98
957.121,4094.98
958.199,4096.26
959.277,4089.92
960.354,4074.38
961.432,4059.42
962.509,4045.78
963.587,4045.52
964.664,4028.5
965.741,4025.44
966.817,4009.18
967.894,4012.5
968.97,4005.56
970.047,3995.36
971.123,3990.76
972.198,3983.9
973.274,3972.68
974.35,3966.5
975.425,3953.68
976.5,3947.34
977.575,3952.32
978.65,3937.86
979.725,3937.0
980.799,3926.28
981.873,3921.26
982.947,3923.64
984.021,3914.92
985.095,3903.54
986.169,3899.74
987.242,3898.48
988.315,3898.28
989.388,3890.36
990.461,3878.18
991.534,3876.76
992.607,3872.66
993.679,3864.48
994.751,3860.34
995.823,3857.5
996.895,3852.66
997.966,3849.78
999.038,3845.74
1000.11,3837.96
1001.18,3839.52
1002.25,3839.42
1003.32,3834.22
1004.39,3825.76
1005.46,3828.38
1006.53,3822.18
1007.6,3819.58
1008.67,3814.68
1009.74,3813.66
1010.81,3811.56
1011.88,3806.5
1012.95,3805.48
1014.02,3806.48
1015.09,3804.68
1016.16,3803.46
1017.22,3799.78
1018.29,3798.2
1019.36,3795.26
1020.43,3798.92
1021.49,3803.06
1022.56,3807.14
1023.63,3807.08
1024.7,3799.0
1025.76,3793.54
1026.83,3790.16
1027.9,3783.4
1028.96,3780.62
1030.03,3777.22
1031.09,3776.16
1032.16,3776.02
1033.22,3778.74
1034.29,3780.4
1035.35,3784.96
1036.42,3779.34
1037.48,3774.58
1038.55,3769.08
1039.61,3766.96
1040.68,3765.62
1041.74,3763.18
1042.8,3763.84
1043.87,3762.24
1044.93,3760.68
1045.99,3759.96
1047.06,3760.44
1048.12,3758.78
1049.18,3758.38
1050.24,3758.68
1051.31,3758.36
1052.37,3758.08
1053.43,3757.62
1054.49,3756.4
1055.55,3756.34
1056.61,3756.38
1057.67,3755.44
1058.73,3754.48
1059.53,3754.88