File: spectra/VLFR_06-PET_bio_Raman_711b8232.csv
nm,Intensity
528.626,1867.0
529.132,1867.6
529.637,1868.1
530.143,1866.6
530.648,1867.4
531.153,1867.6
531.658,1907.2
532.164,4477.2
532.669,1871.2
533.174,1875.6
533.679,2554.0
534.184,4815.5
534.689,3990.1
535.194,3386.4
535.699,2850.2
536.203,2535.2
536.708,2441.4
537.213,2410.1
537.717,2369.4
538.222,2378.1
538.726,2384.6
539.231,2410.8
539.735,2449.3
540.239,2410.9
540.744,2320.0
541.248,2318.3
541.752,2297.8
542.256,2313.8
542.76,2329.7
543.264,2312.3
543.768,2367.8
544.272,2342.9
544.776,2348.0
545.28,2368.4
545.784,2357.7
546.287,2348.8
546.791,2388.0
547.294,2407.7
547.798,2392.4
548.301,2392.5
548.805,2428.6
549.308,2437.6
549.811,2418.1
550.315,2474.6
550.818,2733.5
551.321,2472.7
551.824,2482.6
552.327,2482.3
552.83,2661.5
553.333,2527.4
553.835,2541.6
554.338,2528.7
554.841,2552.2
555.343,2614.4
555.846,2810.3
556.349,2836.3
556.851,2891.1
557.353,3193.4
557.856,3034.1
558.358,2905.1
558.86,2810.5
559.362,2720.3
559.864,2688.9
560.366,2670.6
560.868,2715.8
561.37,2770.2
561.872,2758.8
562.374,2790.5
562.876,2862.7
563.377,2865.1
563.879,2806.4
564.38,2804.7
564.882,2978.3
565.383,3149.6
565.885,3291.6
566.386,2989.9
566.887,2946.2
567.388,3053.6
567.889,3067.5
568.391,2932.5
568.892,2937.0
569.392,2971.9
569.893,3053.8
570.394,3252.7
570.895,3672.7
571.395,4021.4
571.896,3580.4
572.397,3267.6
572.897,3143.6
573.397,3095.6
573.898,3159.9
574.398,3094.8
574.898,3148.4
575.398,3293.0
575.898,3184.8
576.398,3354.5
576.898,3423.3
577.398,3225.4
577.898,3169.3
578.398,3174.5
578.897,3168.6
579.397,3187.1
579.896,3224.8
580.396,3222.0
580.895,3305.8
581.395,3414.8
581.894,5083.3
582.393,5235.2
582.892,3331.2
583.391,3307.9
583.89,3319.6
584.389,3331.4
584.888,3409.0
585.387,3826.4
585.886,5225.6
586.384,4587.5
586.883,3565.3
587.381,3380.2
587.88,3369.9
588.378,3363.4
588.876,3324.0
589.375,3313.1
589.873,3295.9
590.371,3328.6
590.869,3322.9
591.367,3325.9
591.865,3344.1
592.363,3347.0
592.86,3331.3
593.358,3332.9
593.856,3315.2
594.353,3335.9
594.851,3329.2
595.348,3372.2
595.845,3392.4
596.342,3365.2
596.84,3359.1
597.337,3355.9
597.834,3382.8
598.331,3371.5
598.828,3361.7
599.324,3405.9
599.821,3338.5
600.318,3401.8
600.814,3383.0
601.311,3367.0
601.807,3405.8
602.304,3398.7
602.8,3438.1
603.296,3382.9
603.792,3415.5
604.288,3382.8
604.784,3428.8
605.28,3402.7
605.776,3387.4
606.272,3442.9
606.767,3411.1
607.263,3382.5
607.759,3394.7
608.254,3421.8
608.749,3430.2
609.245,3427.3
609.74,3445.7
610.235,3416.1
610.73,3439.1
611.225,3442.5
611.72,3396.6
612.215,3439.7
612.71,3450.0
613.204,3399.7
613.699,3464.9
614.194,3465.7
614.688,3422.6
615.182,3480.2
615.677,3489.1
616.171,3445.6
616.665,3519.6
617.159,3492.2
617.653,3539.1
618.147,3541.3
618.641,3509.7
619.135,3545.7
619.628,3529.4
620.122,3534.9
620.615,3539.0
621.109,3538.5
621.602,3509.0
622.095,3564.1
622.589,3573.5
623.082,3579.7
623.575,3550.0
624.068,3623.5
624.561,3595.8
625.053,3623.8
625.546,3630.6
626.039,3630.7
626.531,3700.9
627.024,3814.4
627.516,3719.0
628.008,3996.9
628.501,4197.0
628.993,4068.2
629.485,4116.1
629.977,3988.7
630.469,3919.3
630.96,4046.0
631.452,4573.8
631.944,4507.2
632.435,4100.9
632.927,4065.9
633.418,3999.3
633.91,3921.1
634.401,3872.9
634.892,3759.4
635.383,3844.7
635.874,4048.2
636.365,4465.8
636.856,4298.4
637.346,4032.6
637.837,3849.5
638.327,3850.6
638.818,3791.1
639.308,3840.0
639.799,3811.2
640.289,3801.5
640.779,3816.8
641.269,3692.4
641.759,3814.5
642.249,3873.9
642.738,3827.1
643.228,3715.0
643.718,3828.4
644.207,3821.0
644.697,3750.2
645.186,3753.3
645.675,3749.7
646.164,3748.5
646.653,3784.9
647.142,3718.9
647.631,3703.0
648.12,3733.4
648.609,3686.7
649.098,3658.8
649.586,3622.9
650.075,3677.9
650.563,3687.5
651.051,3652.6
651.539,3692.6
652.027,3591.8
652.515,3646.5
653.003,3570.2
653.491,3602.2
653.979,3508.4
654.467,3517.5
654.954,3565.0
655.442,3499.3
655.929,3511.2
656.416,3537.1
656.904,3471.1
657.391,3411.2
657.878,3378.7
658.365,3369.7
658.851,3365.0
659.338,3334.4
659.825,3292.9
660.311,3282.8
660.798,3290.4
661.041,3324.0