File: spectra/VLFR_06-PET_nobio_Raman_dc9246af.csv
nm,Intensity
526.5,830.0
527.047,828.4
527.594,828.9
528.14,828.8
528.687,829.2
529.233,828.8
529.779,830.3
530.325,828.0
530.871,828.1
531.417,828.3
531.962,836.1
532.508,831.1
533.053,828.8
533.599,830.0
534.144,946.8
534.689,925.7
535.234,906.4
535.778,896.2
536.323,886.1
536.867,883.5
537.412,881.6
537.956,882.6
538.5,883.1
539.044,883.2
539.588,882.9
540.132,885.3
540.675,882.7
541.219,881.9
541.762,882.2
542.305,886.7
542.848,887.7
543.391,886.4
543.934,885.1
544.477,888.0
545.02,892.9
545.562,893.0
546.105,889.2
546.647,891.8
547.189,894.0
547.731,895.4
548.273,895.2
548.815,901.0
549.356,899.0
549.898,896.5
550.439,897.8
550.981,901.1
551.522,902.6
552.063,903.6
552.604,903.7
553.145,903.6
553.686,908.0
554.226,906.3
554.767,907.5
555.307,907.3
555.848,913.0
556.388,912.3
556.928,912.9
557.468,924.0
558.008,915.9
558.547,918.5
559.087,915.5
559.626,914.3
560.166,915.0
560.705,918.4
561.244,918.4
561.783,915.8
562.322,922.8
562.861,924.1
563.4,920.5
563.939,927.2
564.477,927.3
565.015,926.9
565.554,934.0
566.092,933.3
566.63,930.4
567.168,932.5
567.706,932.0
568.244,933.5
568.781,932.1
569.319,934.9
569.857,937.8
570.394,941.4
570.931,947.7
571.468,954.1
572.005,947.5
572.542,945.7
573.079,942.8
573.616,942.0
574.153,946.8
574.689,943.4
575.226,952.4
575.762,944.1
576.298,948.8
576.834,950.6
577.371,948.1
577.907,947.2
578.442,952.6
578.978,951.0
579.514,951.9
580.049,950.0
580.585,955.1
581.12,957.4
581.656,960.6
582.191,1026.2
582.726,964.8
583.261,960.6
583.796,958.8
584.331,962.8
584.865,962.8
585.4,971.3
585.935,995.2
586.469,982.0
587.004,969.7
587.538,967.8
588.072,960.6
588.606,961.9
589.14,966.7
589.674,968.8
590.208,966.9
590.742,967.0
591.275,973.0
591.809,971.8
592.342,973.2
592.876,972.7
593.409,979.6
593.942,976.0
594.476,975.4
595.009,973.0
595.542,982.5
596.075,983.2
596.607,978.4
597.14,988.1
597.673,983.9
598.205,988.6
598.738,991.2
599.27,992.1
599.803,992.9
600.335,989.2
600.867,997.2
601.399,994.4
601.931,995.4
602.463,1000.2
602.995,1002.9
603.527,1007.1
604.058,1005.9
604.59,1000.9
605.122,1004.8
605.653,1001.9
606.184,1005.5
606.716,1008.7
607.247,1010.2
607.778,1014.0
608.309,1016.7
608.84,1013.1
609.371,1021.3
609.902,1016.0
610.433,1011.7
610.964,1015.3
611.494,1020.0
612.025,1020.7
612.556,1024.4
613.086,1029.7
613.616,1025.3
614.147,1025.0
614.677,1027.1
615.207,1022.5
615.737,1023.4
616.267,1021.0
616.797,1026.6
617.327,1028.3
617.857,1023.9
618.387,1023.9
618.917,1025.6
619.446,1021.4
619.976,1021.1
620.505,1020.8
621.035,1023.1
621.564,1021.2
622.093,1021.5
622.623,1018.2
623.152,1022.6
623.681,1020.9
624.21,1019.2
624.739,1021.7
625.268,1020.1
625.797,1016.1
626.326,1014.7
626.855,1020.6
627.383,1016.0
627.912,1018.2
628.441,1023.4
628.969,1026.8
629.498,1025.4
630.026,1029.1
630.554,1026.4
631.083,1030.4
631.611,1030.8
632.139,1023.6
632.667,1025.0
633.195,1024.0
633.724,1020.0
634.252,1022.8
634.779,1019.1
635.307,1022.8
635.835,1024.8
636.363,1029.8
636.891,1026.0
637.418,1022.5
637.946,1026.3
638.474,1023.1
639.001,1021.1
639.529,1020.7
640.056,1018.6
640.583,1022.4
641.111,1023.1
641.638,1021.5
642.165,1022.5
642.692,1026.3
643.22,1023.4
643.747,1016.5
644.274,1020.6
644.801,1016.8
645.328,1022.3
645.854,1017.2
646.381,1016.4
646.908,1021.5
647.435,1018.7
647.962,1017.8
648.488,1020.9
649.015,1022.5
649.542,1016.5
650.068,1017.1
650.595,1018.7
651.121,1016.5
651.648,1019.9
652.174,1014.8
652.7,1020.7
653.227,1017.1
653.753,1017.0
654.279,1022.5
654.805,1017.9
655.331,1015.7
655.858,1017.2
656.384,1017.4
656.91,1016.7
657.436,1020.3
657.962,1016.2
658.488,1019.7
659.013,1022.5
659.539,1022.5
660.065,1025.1
660.591,1014.8
661.117,1014.0
661.642,1019.6
662.168,1013.0
662.694,1010.7
663.088,1019.8