File: spectra/VLFR_07-PET_nobio_Raman_04147625.csv
nm,Intensity
791.75,4921.2
792.846,4835.95
793.942,4835.9
795.037,4820.35
796.133,4809.95
797.228,4819.4
798.324,4804.4
799.419,4773.6
800.514,4800.7
801.61,4751.05
802.705,4762.55
803.8,4721.65
804.894,4720.6
805.989,4715.05
807.084,4675.7
808.178,4681.95
809.273,4671.65
810.367,4640.65
811.461,4645.8
812.556,4613.4
813.65,4621.45
814.744,4600.85
815.837,4566.15
816.931,4543.1
818.025,4564.95
819.118,4540.9
820.212,4517.45
821.305,4517.9
822.398,4496.0
823.491,4457.55
824.585,4451.15
825.677,4468.9
826.77,4435.45
827.863,4420.8
828.956,4404.85
830.048,4399.5
831.14,4377.85
832.233,4349.55
833.325,4362.9
834.417,4349.75
835.509,4326.0
836.601,4326.7
837.692,4320.6
838.784,4313.95
839.876,4300.45
840.967,4305.3
842.058,4294.1
843.149,4271.75
844.24,4267.45
845.331,4243.55
846.422,4238.4
847.513,4221.5
848.604,4227.2
849.694,4229.8
850.784,4216.1
851.875,4222.75
852.965,4203.2
854.055,4195.25
855.145,4198.1
856.235,4174.85
857.324,4188.5
858.414,4182.3
859.503,4176.75
860.593,4187.55
861.682,4148.4
862.771,4152.0
863.86,4156.2
864.949,4156.25
866.038,4131.45
867.126,4131.7
868.215,4121.35
869.303,4133.05
870.391,4128.45
871.479,4120.1
872.567,4158.0
873.655,4127.6
874.743,4105.85
875.831,4098.3
876.918,4092.5
878.006,4082.55
879.093,4074.5
880.18,4083.55
881.267,4078.35
882.354,4061.75
883.441,4061.75
884.527,4053.45
885.614,4050.3
886.7,4040.85
887.786,4046.5
888.872,4028.95
889.958,4026.25
891.044,4024.95
892.13,4001.55
893.216,4018.05
894.301,3997.1
895.386,3993.25
896.472,3989.4
897.557,4035.95
898.642,4026.0
899.726,3977.4
900.811,3968.1
901.896,3957.5
902.98,3966.5
904.064,3953.15
905.148,3948.75
906.232,3958.8
907.316,3984.25
908.4,3955.0
909.484,3930.4
910.567,3919.9
911.65,3909.0
912.734,3899.9
913.817,3900.25
914.9,3888.2
915.982,3893.65
917.065,3881.95
918.147,3879.7
919.23,3884.6
920.312,3873.75
921.394,3867.7
922.476,3864.25
923.558,3860.2
924.639,3853.95
925.721,3852.25
926.802,3840.5
927.884,3844.45
928.965,3832.95
930.046,3834.15
931.126,3819.15
932.207,3827.15
933.288,3813.9
934.368,3812.6
935.448,3810.85
936.528,3801.15
937.608,3803.2
938.688,3798.85
939.767,3797.65
940.847,3792.65
941.926,3791.7
943.005,3788.6
944.084,3787.05
945.163,3781.8
946.242,3776.2
947.321,3777.65
948.399,3775.65
949.477,3770.1
950.556,3766.35
951.634,3767.85
952.711,3764.85
953.789,3760.15
954.867,3757.45
955.944,3760.35
957.021,3757.0
958.098,3752.5
959.175,3757.0
960.252,3750.75
961.328,3748.2
962.405,3746.2
963.481,3745.3
964.557,3744.9
965.633,3742.45
966.709,3740.3
967.785,3743.7
968.86,3737.85
969.936,3736.4
971.011,3735.25
972.086,3735.6
973.161,3731.5
974.235,3730.25
975.31,3728.5
976.384,3729.05
977.459,3726.15
978.533,3728.1
979.607,3724.3
980.68,3724.95
981.754,3722.75
982.827,3722.3
983.901,3722.25
984.974,3719.25
986.047,3720.05
987.119,3719.3
988.192,3719.0
989.264,3717.3
990.337,3714.35
991.409,3715.9
992.481,3714.65
993.553,3713.85
994.624,3710.8
995.696,3712.6
996.767,3711.9
997.838,3712.25
998.909,3711.05
999.98,3710.1
1001.05,3709.0
1002.12,3709.7
1003.19,3709.8
1004.26,3708.45
1005.33,3708.15
1006.4,3706.15
1007.47,3706.6
1008.54,3705.5
1009.61,3705.1
1010.68,3707.15
1011.75,3705.4
1012.82,3703.1
1013.88,3703.75
1014.95,3703.75
1016.02,3704.95
1017.09,3703.6
1018.16,3703.0
1019.22,3701.15
1020.29,3704.6
1021.36,3703.45
1022.43,3701.0
1023.49,3701.05
1024.56,3701.0
1025.63,3702.1
1026.69,3700.85
1027.76,3699.9
1028.83,3700.85
1029.89,3700.05
1030.96,3699.35
1032.02,3699.3
1033.09,3701.4
1034.15,3701.35
1035.22,3699.35
1036.28,3700.5
1037.35,3697.6
1038.41,3697.7
1039.48,3698.4
1040.54,3698.9
1041.6,3698.15
1042.67,3697.3
1043.73,3697.5
1044.79,3696.6
1045.86,3695.4
1046.92,3697.7
1047.98,3696.4
1049.05,3697.5
1050.11,3697.0
1051.17,3696.95
1052.23,3695.75
1053.29,3695.8
1054.36,3696.5
1055.42,3697.4
1056.48,3695.85
1057.54,3696.55
1058.6,3696.2
1059.66,3696.2
1060.72,3696.8
1061.78,3695.75
1062.84,3695.35
1063.9,3696.9
1064.96,3696.4
1066.02,3696.6
1067.08,3695.6
1067.88,3694.45