File: spectra/VLFR_08-PLA_bio_Raman_9a408c6c.csv
nm,Intensity
526.508,829.6
527.055,829.8
527.602,829.3
528.149,828.4
528.695,827.6
529.241,827.2
529.787,827.5
530.334,828.1
530.879,830.1
531.425,828.9
531.971,834.4
532.516,829.6
533.062,828.4
533.607,831.5
534.152,1061.7
534.697,1010.2
535.242,976.1
535.786,958.4
536.331,945.9
536.876,950.6
537.42,940.6
537.964,936.2
538.508,928.1
539.052,924.0
539.596,919.5
540.14,914.1
540.683,935.4
541.227,933.0
541.77,931.1
542.313,923.5
542.856,926.2
543.399,946.7
543.942,957.1
544.485,938.7
545.027,919.5
545.57,923.2
546.112,920.6
546.654,920.5
547.196,921.5
547.738,925.7
548.28,931.2
548.822,927.4
549.363,929.5
549.905,928.4
550.446,926.9
550.988,931.3
551.529,935.6
552.07,939.9
552.611,940.3
553.152,946.4
553.692,938.6
554.233,949.6
554.773,942.4
555.314,935.4
555.854,930.2
556.394,933.8
556.934,938.0
557.474,950.0
558.014,1080.6
558.553,974.7
559.093,952.5
559.632,949.2
560.172,943.1
560.711,940.9
561.25,939.8
561.789,938.3
562.328,942.2
562.867,951.2
563.406,982.2
563.944,965.7
564.483,953.6
565.021,977.4
565.559,970.9
566.098,1008.2
566.636,969.6
567.174,948.9
567.711,958.9
568.249,956.5
568.787,958.0
569.324,960.5
569.862,952.3
570.399,955.4
570.936,955.2
571.474,973.8
572.011,978.6
572.548,971.2
573.084,969.8
573.621,977.8
574.158,973.5
574.694,981.6
575.231,962.4
575.767,967.6
576.303,978.4
576.84,1049.4
577.376,980.8
577.912,965.3
578.447,963.5
578.983,961.9
579.519,963.6
580.054,959.8
580.59,962.2
581.125,961.0
581.661,960.2
582.196,962.7
582.731,963.3
583.266,964.5
583.801,966.8
584.336,966.5
584.87,965.6
585.405,969.1
585.94,972.9
586.474,980.7
587.008,1018.7
587.543,1038.0
588.077,993.6
588.611,971.9
589.145,968.2
589.679,964.9
590.213,965.1
590.747,959.9
591.28,963.5
591.814,962.6
592.347,962.3
592.881,963.5
593.414,957.5
593.947,963.7
594.48,960.8
595.014,971.6
595.547,960.1
596.079,966.3
596.612,962.4
597.145,964.2
597.678,961.2
598.21,962.1
598.743,967.3
599.275,965.0
599.807,960.6
600.34,963.8
600.872,960.0
601.404,960.5
601.936,961.6
602.468,962.4
603.0,962.9
603.532,962.1
604.063,956.8
604.595,956.8
605.126,955.9
605.658,957.2
606.189,954.3
606.721,956.5
607.252,957.4
607.783,958.4
608.314,957.3
608.845,954.5
609.376,955.8
609.907,955.2
610.438,956.3
610.968,954.3
611.499,956.5
612.03,953.4
612.56,960.2
613.091,956.7
613.621,958.5
614.151,958.2
614.681,953.6
615.212,957.6
615.742,957.4
616.272,951.8
616.802,952.8
617.332,961.0
617.861,955.9
618.391,956.2
618.921,959.2
619.45,952.0
619.98,953.8
620.509,950.8
621.039,951.1
621.568,956.8
622.097,952.9
622.627,962.0
623.156,973.1
623.685,967.3
624.214,957.6
624.743,958.3
625.272,955.9
625.801,957.9
626.33,952.0
626.858,952.8
627.387,960.6
627.916,968.6
628.444,1043.8
628.973,1024.0
629.501,1028.7
630.029,1034.2
630.558,1098.3
631.086,1533.7
631.614,1253.3
632.142,1101.3
632.67,1073.2
633.198,1175.0
633.726,1134.7
634.254,1033.5
634.782,971.6
635.31,957.9
635.838,953.4
636.365,945.3
636.893,946.6
637.421,943.7
637.948,942.2
638.476,942.2
639.003,937.3
639.531,936.6
640.058,944.3
640.585,938.8
641.113,940.7
641.64,943.0
642.167,941.1
642.694,937.8
643.221,931.2
643.748,933.7
644.275,928.2
644.802,931.0
645.329,930.7
645.856,930.4
646.382,932.5
646.909,930.4
647.436,922.5
647.962,927.1
648.489,923.6
649.016,926.6
649.542,929.4
650.069,926.2
650.595,925.9
651.121,922.0
651.648,924.7
652.174,922.4
652.7,919.2
653.227,921.0
653.753,922.3
654.279,920.8
654.805,921.7
655.331,920.2
655.857,922.4
656.383,921.2
656.909,924.1
657.435,920.3
657.961,922.9
658.487,919.4
659.013,919.4
659.538,919.0
660.064,917.1
660.59,917.0
661.116,916.7
661.641,914.5
662.167,914.9
662.692,911.7
663.087,910.8