File: spectra/VLFR_01-LDPE_bio_Raman_34228462.csv
nm,Intensity
526.547,832.9
527.095,832.35
527.642,832.2
528.189,831.3
528.736,832.3
529.283,832.65
529.829,832.15
530.376,831.9
530.922,831.45
531.468,832.8
532.014,841.25
532.56,832.7
533.106,832.25
533.651,834.4
534.196,941.35
534.742,922.8
535.287,907.25
535.832,892.15
536.376,883.7
536.921,877.15
537.465,875.2
538.01,874.7
538.554,871.3
539.098,866.6
539.642,863.05
540.186,858.9
540.729,858.6
541.273,857.8
541.816,857.9
542.36,858.15
542.903,858.35
543.446,855.9
543.988,857.25
544.531,855.25
545.074,857.7
545.616,855.7
546.158,854.35
546.701,854.75
547.243,854.35
547.785,853.9
548.326,853.75
548.868,853.0
549.41,853.5
549.951,854.65
550.492,852.3
551.034,854.8
551.575,852.8
552.116,854.45
552.656,854.15
553.197,854.65
553.738,857.15
554.278,857.8
554.819,859.1
555.359,859.2
555.899,860.15
556.439,859.7
556.979,862.9
557.519,865.0
558.058,867.35
558.598,866.95
559.137,866.05
559.677,864.9
560.216,862.85
560.755,862.4
561.294,866.6
561.833,870.3
562.371,869.75
562.91,870.55
563.449,873.8
563.987,943.4
564.525,893.75
565.064,890.35
565.602,885.6
566.14,972.7
566.678,887.6
567.216,880.9
567.753,879.8
568.291,877.1
568.828,877.6
569.366,881.1
569.903,881.95
570.44,889.9
570.977,898.0
571.514,1023.65
572.051,931.75
572.588,908.75
573.125,906.25
573.661,913.4
574.198,921.7
574.734,919.0
575.271,930.8
575.807,983.05
576.343,1072.45
576.879,1031.3
577.415,1002.6
577.951,976.4
578.486,979.45
579.022,984.9
579.557,989.7
580.093,995.55
580.628,1001.95
581.164,1003.7
581.699,1011.05
582.234,1010.05
582.769,1020.65
583.304,1019.6
583.838,1025.6
584.373,1027.25
584.908,1029.15
585.442,1030.95
585.977,1038.3
586.511,1040.5
587.045,1052.15
587.58,1055.95
588.114,1061.85
588.648,1068.75
589.182,1074.6
589.715,1085.0
590.249,1087.6
590.783,1095.8
591.316,1102.0
591.85,1107.65
592.383,1112.6
592.917,1114.25
593.45,1121.45
593.983,1128.75
594.516,1131.75
595.049,1143.2
595.582,1146.95
596.115,1161.4
596.648,1170.4
597.18,1181.15
597.713,1193.35
598.245,1207.55
598.778,1223.65
599.31,1229.15
599.842,1234.75
600.375,1234.6
600.907,1235.0
601.439,1237.9
601.971,1236.6
602.503,1232.4
603.034,1221.7
603.566,1208.5
604.098,1198.45
604.629,1185.65
605.161,1167.0
605.692,1146.55
606.224,1133.1
606.755,1122.9
607.286,1111.8
607.817,1101.25
608.348,1096.2
608.879,1086.15
609.41,1079.45
609.941,1072.4
610.472,1066.85
611.002,1057.35
611.533,1056.2
612.063,1046.05
612.594,1051.45
613.124,1044.75
613.655,1043.75
614.185,1032.55
614.715,1034.55
615.245,1027.05
615.775,1022.3
616.305,1022.8
616.835,1021.05
617.365,1017.75
617.895,1018.15
618.425,1020.05
618.954,1016.0
619.484,1015.25
620.013,1016.4
620.543,1010.75
621.072,1014.3
621.602,1025.8
622.131,1040.7
622.66,1040.1
623.189,1020.75
623.718,1004.85
624.247,1006.85
624.776,1010.1
625.305,1008.35
625.834,1016.3
626.363,1039.3
626.891,1273.7
627.42,1647.45
627.949,1397.6
628.477,1652.7
629.006,1482.15
629.534,1376.8
630.062,1280.25
630.591,1251.55
631.119,1120.25
631.647,1048.25
632.175,1021.15
632.703,1008.85
633.231,1002.65
633.759,1002.25
634.287,998.05
634.815,992.75
635.343,996.1
635.871,992.9
636.398,996.7
636.926,994.55
637.454,995.9
637.981,997.65
638.509,998.15
639.036,1000.2
639.564,1004.75
640.091,1006.55
640.618,1009.9
641.146,1013.8
641.673,1017.2
642.2,1013.95
642.727,1015.55
643.254,1022.9
643.781,1023.7
644.308,1025.9
644.835,1021.8
645.362,1022.15
645.889,1026.7
646.416,1034.15
646.942,1035.15
647.469,1036.25
647.996,1034.85
648.522,1043.2
649.049,1040.85
649.576,1040.85
650.102,1043.7
650.629,1041.45
651.155,1042.15
651.682,1045.2
652.208,1044.1
652.734,1047.6
653.261,1050.8
653.787,1047.15
654.313,1049.8
654.839,1044.6
655.365,1040.7
655.892,1038.6
656.418,1034.8
656.944,1031.8
657.47,1025.65
657.996,1022.6
658.522,1018.65
659.048,1013.6
659.574,1005.9
660.099,1001.95
660.625,995.6
661.151,986.8
661.677,983.1
662.203,975.65
662.728,970.25
663.123,966.9