File: spectra/VLFR_02-HDPE_bio_Raman_aaa86eb5.csv
nm,Intensity
528.65,1834.35
529.155,1835.0
529.66,1834.3
530.165,1835.0
530.67,1835.75
531.175,1836.9
531.68,1867.4
532.185,3722.75
532.69,1835.55
533.194,1836.15
533.699,1872.7
534.204,2024.8
534.708,2018.9
535.213,2025.95
535.717,2022.2
536.222,2021.4
536.726,2030.5
537.231,2031.3
537.735,2041.3
538.239,2037.25
538.743,2036.35
539.247,2041.3
539.751,2048.6
540.255,2044.05
540.759,2054.45
541.263,2052.45
541.767,2056.0
542.271,2066.25
542.775,2071.9
543.279,2064.9
543.782,2060.55
544.286,2074.4
544.789,2075.25
545.293,2081.0
545.796,2085.35
546.3,2096.45
546.803,2093.2
547.306,2099.95
547.81,2099.8
548.313,2101.35
548.816,2119.3
549.319,2114.15
549.822,2112.8
550.325,2113.1
550.828,2125.4
551.331,2131.95
551.834,2135.3
552.337,2133.05
552.839,2144.85
553.342,2131.35
553.844,2144.45
554.347,2152.05
554.849,2149.6
555.352,2157.5
555.854,2165.9
556.357,2164.7
556.859,2161.95
557.361,2166.2
557.863,2170.15
558.365,2165.1
558.867,2169.7
559.369,2175.25
559.871,2187.35
560.373,2191.75
560.875,2195.9
561.377,2186.6
561.878,2202.1
562.38,2207.4
562.881,2203.8
563.383,2207.75
563.884,2239.25
564.386,2210.05
564.887,2224.75
565.388,2221.5
565.89,2244.6
566.391,2251.9
566.892,2232.25
567.393,2239.35
567.894,2231.6
568.395,2241.75
568.896,2243.55
569.396,2244.05
569.897,2240.5
570.398,2250.1
570.898,2252.3
571.399,2281.15
571.9,2276.45
572.4,2265.5
572.9,2250.1
573.401,2263.95
573.901,2272.2
574.401,2265.55
574.901,2268.7
575.401,2297.6
575.901,2296.9
576.401,2315.7
576.901,2296.2
577.401,2294.85
577.901,2295.25
578.4,2272.15
578.9,2282.25
579.399,2276.8
579.899,2295.25
580.398,2290.95
580.898,2301.0
581.397,2291.55
581.896,2293.5
582.395,2296.65
582.895,2292.65
583.394,2289.85
583.893,2302.95
584.391,2305.15
584.89,2304.05
585.389,2291.0
585.888,2286.85
586.386,2300.25
586.885,2305.35
587.384,2301.35
587.882,2309.1
588.38,2312.9
588.879,2311.9
589.377,2307.55
589.875,2297.0
590.373,2309.35
590.871,2298.85
591.369,2312.1
591.867,2313.6
592.365,2312.3
592.863,2322.0
593.361,2305.65
593.858,2304.3
594.356,2307.75
594.853,2306.2
595.351,2321.15
595.848,2303.3
596.345,2318.25
596.843,2323.8
597.34,2317.8
597.837,2325.3
598.334,2310.8
598.831,2333.65
599.328,2325.7
599.824,2335.2
600.321,2326.85
600.818,2341.0
601.314,2348.15
601.811,2347.65
602.307,2336.05
602.804,2343.55
603.3,2334.95
603.796,2341.4
604.293,2323.25
604.789,2329.3
605.285,2340.35
605.781,2333.25
606.277,2331.3
606.772,2326.55
607.268,2338.15
607.764,2335.95
608.259,2337.7
608.755,2325.3
609.25,2320.6
609.746,2332.55
610.241,2337.1
610.736,2337.8
611.231,2341.95
611.727,2338.75
612.222,2324.2
612.716,2344.55
613.211,2325.45
613.706,2333.15
614.201,2329.6
614.695,2326.95
615.19,2327.75
615.684,2339.95
616.179,2327.65
616.673,2305.55
617.168,2314.8
617.662,2325.7
618.156,2344.95
618.65,2338.3
619.144,2316.5
619.638,2326.75
620.131,2341.75
620.625,2327.9
621.119,2335.65
621.612,2334.0
622.106,2339.8
622.599,2344.55
623.093,2332.9
623.586,2336.15
624.079,2325.05
624.572,2332.2
625.065,2337.5
625.558,2311.7
626.051,2334.1
626.544,2362.6
627.037,2516.8
627.529,2501.2
628.022,2473.4
628.514,2578.55
629.007,2460.5
629.499,2408.55
629.991,2368.35
630.483,2380.7
630.976,2338.2
631.468,2321.2
631.959,2299.75
632.451,2306.35
632.943,2302.0
633.435,2298.5
633.926,2299.35
634.418,2287.65
634.909,2287.0
635.401,2275.4
635.892,2266.65
636.383,2282.2
636.874,2265.85
637.365,2277.5
637.856,2276.55
638.347,2268.85
638.838,2271.9
639.329,2260.8
639.819,2255.85
640.31,2271.4
640.8,2262.4
641.291,2261.6
641.781,2247.8
642.271,2250.35
642.761,2263.35
643.251,2253.65
643.741,2261.65
644.231,2255.75
644.721,2246.9
645.211,2247.6
645.7,2255.05
646.19,2245.75
646.679,2253.6
647.169,2257.7
647.658,2239.9
648.147,2238.3
648.636,2241.65
649.125,2236.7
649.614,2217.65
650.103,2230.4
650.592,2259.05
651.08,2237.0
651.569,2230.3
652.058,2222.7
652.546,2211.0
653.034,2218.2
653.523,2197.4
654.011,2187.95
654.499,2179.45
654.987,2182.55
655.475,2173.9
655.963,2165.85
656.45,2154.85
656.938,2157.0
657.425,2148.55
657.913,2140.45
658.4,2142.0
658.888,2131.55
659.375,2110.35
659.862,2111.8
660.349,2108.6
660.836,2108.15
661.079,2105.9