File: spectra/VLFR_07-PET_nobio_Raman_9ba1d6f5.csv
nm,Intensity
791.377,12004.4
792.477,10922.4
793.576,10315.6
794.676,10092.0
795.775,9879.24
796.874,9810.74
797.973,9730.56
799.072,9835.52
800.171,9651.84
801.27,9724.24
802.368,9532.66
803.467,9386.1
804.565,9286.36
805.664,9105.72
806.762,9168.78
807.86,9126.04
808.958,9100.52
810.056,8946.88
811.153,8838.44
812.251,8833.34
813.349,8766.56
814.446,8614.16
815.543,8628.88
816.64,8418.6
817.737,8479.04
818.834,8324.64
819.931,8447.46
821.028,8289.68
822.125,8125.02
823.221,8045.62
824.317,8073.3
825.414,8270.2
826.51,7997.68
827.606,7910.46
828.702,7853.02
829.797,7868.04
830.893,7862.34
831.988,7641.28
833.084,7484.14
834.179,7529.26
835.274,7509.04
836.369,7483.86
837.464,7626.04
838.559,7500.16
839.654,7449.46
840.748,7620.66
841.843,7696.8
842.937,7401.38
844.031,7301.9
845.125,7131.02
846.219,7010.92
847.313,7023.82
848.407,6968.54
849.5,6858.88
850.593,6916.0
851.687,6897.06
852.78,6837.92
853.873,6815.94
854.966,6768.58
856.059,6703.94
857.151,6621.2
858.244,6762.54
859.336,6826.08
860.428,6763.82
861.52,6611.78
862.612,6455.54
863.704,6445.62
864.796,6592.6
865.888,6334.34
866.979,6371.26
868.07,6261.18
869.162,6279.8
870.253,6291.52
871.344,6479.06
872.434,6622.0
873.525,6538.12
874.615,6328.96
875.706,6158.92
876.796,6074.96
877.886,5989.4
878.976,6009.52
880.066,5967.4
881.156,5878.06
882.245,5962.4
883.335,5879.84
884.424,5868.52
885.513,5876.7
886.602,5763.7
887.691,5685.72
888.78,5629.2
889.868,5659.88
890.957,5601.56
892.045,5653.16
893.133,5490.08
894.221,5507.0
895.309,5473.16
896.397,5474.72
897.484,5715.14
898.571,6159.94
899.659,5655.0
900.746,5366.4
901.833,5279.0
902.92,5189.9
904.006,5231.8
905.093,5146.18
906.179,5344.6
907.266,5654.86
908.352,5639.12
909.438,5318.0
910.523,5058.88
911.609,5008.7
912.695,4954.58
913.78,4940.68
914.865,4916.4
915.95,4863.16
917.035,4836.1
918.12,4812.74
919.204,4776.98
920.289,4748.88
921.373,4703.82
922.457,4726.64
923.541,4668.04
924.625,4626.38
925.709,4632.9
926.792,4573.1
927.876,4559.0
928.959,4547.5
930.042,4531.4
931.125,4503.82
932.208,4445.76
933.29,4447.18
934.373,4408.24
935.455,4400.76
936.537,4384.78
937.619,4363.62
938.701,4360.62
939.782,4321.4
940.864,4318.8
941.945,4309.82
943.026,4281.2
944.107,4239.14
945.188,4244.98
946.269,4220.98
947.349,4216.8
948.43,4209.24
949.51,4190.64
950.59,4160.84
951.67,4149.86
952.75,4154.18
953.829,4138.08
954.909,4104.7
955.988,4107.58
957.067,4094.08
958.146,4082.88
959.224,4083.6
960.303,4063.42
961.381,4050.46
962.459,4036.42
963.537,4036.78
964.615,4014.58
965.693,4022.72
966.771,4005.4
967.848,3997.34
968.925,3982.72
970.002,3977.06
971.079,3976.18
972.156,3972.22
973.232,3961.46
974.309,3946.74
975.385,3933.96
976.461,3934.04
977.537,3930.2
978.612,3916.78
979.688,3916.28
980.763,3910.9
981.838,3906.32
982.913,3896.36
983.988,3894.5
985.063,3887.12
986.137,3881.48
987.211,3878.6
988.285,3876.84
989.359,3866.36
990.433,3860.0
991.506,3854.78
992.58,3847.68
993.653,3846.48
994.726,3838.9
995.799,3840.18
996.872,3832.66
997.944,3828.04
999.016,3830.7
1000.09,3824.16
1001.16,3820.08
1002.23,3814.76
1003.3,3812.74
1004.38,3808.74
1005.45,3806.7
1006.52,3799.88
1007.59,3798.3
1008.66,3798.12
1009.73,3792.82
1010.8,3792.92
1011.87,3788.44
1012.94,3787.24
1014.01,3787.22
1015.08,3782.04
1016.15,3782.88
1017.22,3782.24
1018.29,3778.62
1019.36,3777.86
1020.42,3776.64
1021.49,3781.46
1022.56,3785.82
1023.63,3782.94
1024.7,3775.7
1025.76,3770.16
1026.83,3768.06
1027.9,3763.76
1028.97,3759.22
1030.03,3756.42
1031.1,3755.66
1032.17,3756.3
1033.23,3756.96
1034.3,3760.02
1035.36,3762.26
1036.43,3757.4
1037.5,3752.98
1038.56,3748.66
1039.63,3748.78
1040.69,3746.96
1041.76,3745.06
1042.82,3744.32
1043.89,3742.16
1044.95,3741.64
1046.01,3740.28
1047.08,3741.8
1048.14,3740.98
1049.2,3740.36
1050.27,3738.94
1051.33,3739.78
1052.39,3739.02
1053.46,3738.38
1054.52,3738.84
1055.58,3739.32
1056.64,3737.12
1057.7,3737.56
1058.77,3736.76
1059.83,3737.86
1060.89,3737.54
1061.95,3737.22
1063.01,3737.2
1064.07,3735.92
1065.13,3736.62
1066.19,3735.46
1067.25,3734.42
1068.05,3733.74