File: spectra/VLFR_02-HDPE_nobio_Raman_95b07d0e.csv
nm,Intensity
526.532,830.233
527.079,830.533
527.625,829.867
528.172,829.733
528.718,830.433
529.265,829.067
529.811,830.367
530.357,830.0
530.903,829.667
531.449,829.5
531.994,840.567
532.54,831.0
533.085,829.967
533.63,830.833
534.176,899.567
534.721,885.7
535.266,875.033
535.81,862.533
536.355,855.733
536.9,853.967
537.444,854.4
537.988,852.533
538.533,851.5
539.077,849.633
539.621,845.033
540.165,845.667
540.708,845.967
541.252,843.7
541.795,843.7
542.339,843.833
542.882,843.1
543.425,842.7
543.968,843.467
544.511,841.933
545.054,843.433
545.597,842.5
546.139,842.333
546.682,843.267
547.224,842.667
547.766,843.433
548.308,843.5
548.85,841.067
549.392,841.967
549.934,841.233
550.475,841.333
551.017,842.067
551.558,842.633
552.1,841.667
552.641,842.767
553.182,843.867
553.723,845.4
554.264,845.767
554.804,845.5
555.345,843.833
555.885,846.733
556.426,848.3
556.966,850.267
557.506,851.5
558.046,853.167
558.586,856.1
559.126,852.033
559.665,851.067
560.205,849.9
560.745,849.5
561.284,849.733
561.823,849.7
562.362,851.633
562.901,855.567
563.44,860.133
563.979,984.767
564.518,878.933
565.056,871.967
565.595,871.5
566.133,1113.0
566.671,870.233
567.21,859.1
567.748,857.967
568.285,854.067
568.823,853.567
569.361,855.7
569.899,856.6
570.436,859.733
570.974,866.9
571.511,1089.7
572.048,882.333
572.585,863.933
573.122,856.867
573.659,859.267
574.196,868.567
574.733,858.4
575.269,876.433
575.806,947.733
576.342,983.9
576.878,938.833
577.414,899.7
577.951,871.967
578.486,867.2
579.022,868.2
579.558,869.067
580.094,871.067
580.629,873.033
581.165,874.833
581.7,875.767
582.236,880.433
582.771,881.9
583.306,884.233
583.841,885.7
584.376,887.367
584.911,891.867
585.445,893.167
585.98,893.433
586.514,896.867
587.049,897.967
587.583,900.767
588.117,901.9
588.651,902.8
589.186,907.967
589.72,907.967
590.253,908.733
590.787,910.633
591.321,913.133
591.854,916.2
592.388,918.667
592.921,923.033
593.455,921.967
593.988,923.667
594.521,926.267
595.054,926.3
595.587,928.2
596.12,928.733
596.653,932.267
597.186,932.367
597.718,932.867
598.251,932.367
598.783,934.5
599.316,933.633
599.848,936.8
600.38,932.333
600.912,929.0
601.444,932.633
601.976,930.133
602.508,930.233
603.04,929.9
603.572,930.933
604.103,930.867
604.635,926.933
605.167,925.6
605.698,923.0
606.229,918.267
606.761,921.667
607.292,920.3
607.823,922.433
608.354,921.1
608.885,917.5
609.416,918.933
609.947,918.567
610.477,918.167
611.008,919.1
611.539,916.933
612.069,914.0
612.6,913.333
613.13,913.8
613.66,912.267
614.19,911.767
614.721,911.467
615.251,908.5
615.781,907.733
616.311,907.7
616.841,907.667
617.37,909.367
617.9,908.867
618.43,907.967
618.96,906.333
619.489,907.833
620.019,905.1
620.548,904.933
621.077,910.167
621.607,916.867
622.136,934.367
622.665,927.4
623.194,909.7
623.723,900.8
624.252,900.0
624.781,899.467
625.31,902.567
625.839,908.0
626.368,935.5
626.896,1169.77
627.425,1536.93
627.953,1262.4
628.482,1469.17
629.01,1348.7
629.539,1240.13
630.067,1144.1
630.596,1117.83
631.124,985.333
631.652,923.3
632.18,906.333
632.708,898.833
633.236,893.433
633.764,892.4
634.292,888.767
634.82,888.433
635.348,887.5
635.876,885.467
636.403,884.8
636.931,884.633
637.459,882.667
637.986,881.3
638.514,881.9
639.041,880.2
639.568,879.5
640.096,879.9
640.623,880.0
641.15,878.767
641.678,880.233
642.205,880.333
642.732,878.433
643.259,878.933
643.786,878.233
644.313,879.333
644.84,877.667
645.367,877.933
645.894,877.067
646.421,878.467
646.948,878.4
647.474,877.633
648.001,877.1
648.528,875.3
649.054,877.633
649.581,876.567
650.108,876.1
650.634,874.533
651.161,876.4
651.687,873.633
652.214,874.033
652.74,873.267
653.266,873.133
653.793,873.133
654.319,872.533
654.845,871.2
655.371,872.367
655.897,871.6
656.424,869.867
656.95,869.9
657.476,870.5
658.002,868.6
658.528,868.733
659.054,867.7
659.58,868.3
660.106,868.133
660.631,866.567
661.157,865.9
661.683,863.2
662.209,863.767
662.735,863.6
663.129,862.367