File: spectra/VLFR_07-PET_bio_Raman_ef6b01fb.csv
nm,Intensity
791.496,11086.4
792.594,10385.6
793.692,9925.2
794.79,9765.8
795.888,9664.4
796.986,9727.0
798.083,9574.7
799.181,9657.4
800.278,9566.5
801.375,9663.1
802.473,9476.9
803.57,9366.0
804.667,9333.0
805.764,9296.6
806.86,9267.6
807.957,9115.7
809.054,9132.3
810.15,9003.8
811.246,8998.2
812.343,8933.5
813.439,8857.5
814.535,8785.2
815.631,8744.4
816.727,8669.1
817.822,8549.4
818.918,8518.3
820.013,8306.5
821.109,8293.4
822.204,8222.2
823.299,8126.0
824.394,8068.9
825.489,8303.8
826.584,7958.4
827.679,7865.2
828.774,7853.1
829.868,7749.1
830.963,7737.1
832.057,7537.0
833.151,7549.7
834.245,7471.3
835.339,7522.7
836.433,7489.9
837.527,7523.5
838.621,7414.2
839.714,7393.0
840.808,7579.5
841.901,7347.7
842.994,7244.2
844.087,7103.7
845.18,6960.6
846.273,6971.1
847.366,6934.2
848.458,6837.1
849.551,6829.3
850.643,6786.4
851.735,6795.3
852.828,6667.0
853.92,6686.5
855.012,6621.1
856.103,6613.9
857.195,6527.4
858.287,6587.2
859.378,6692.3
860.469,6562.1
861.56,6461.4
862.651,6343.7
863.742,6405.2
864.833,6365.7
865.924,6279.2
867.014,6215.6
868.105,6176.6
869.195,6141.7
870.285,6236.0
871.376,6327.6
872.465,6394.5
873.555,6330.9
874.645,6118.4
875.735,6062.3
876.824,5989.7
877.913,5898.6
879.002,5912.5
880.092,5826.6
881.18,5877.1
882.269,5837.7
883.358,5791.0
884.446,5758.1
885.535,5719.8
886.623,5638.0
887.711,5642.7
888.799,5572.0
889.887,5545.1
890.975,5586.2
892.062,5505.9
893.15,5485.3
894.237,5456.1
895.325,5391.9
896.412,5433.9
897.499,5756.6
898.585,5800.3
899.672,5459.4
900.759,5244.0
901.845,5233.2
902.931,5179.2
904.017,5174.7
905.103,5179.3
906.189,5320.8
907.275,5544.6
908.361,5351.1
909.446,5143.2
910.531,5020.3
911.616,4967.9
912.701,4916.2
913.786,4886.4
914.871,4849.5
915.956,4835.4
917.04,4772.1
918.124,4787.2
919.209,4770.2
920.293,4712.1
921.376,4676.4
922.46,4679.8
923.544,4629.1
924.627,4601.2
925.711,4570.0
926.794,4556.0
927.877,4546.2
928.96,4519.4
930.042,4468.3
931.125,4479.2
932.207,4441.5
933.29,4403.1
934.372,4410.5
935.454,4360.5
936.536,4343.7
937.617,4336.8
938.699,4317.0
939.78,4299.7
940.861,4269.1
941.943,4254.7
943.023,4233.2
944.104,4221.6
945.185,4190.9
946.265,4182.8
947.346,4169.2
948.426,4152.0
949.506,4129.9
950.586,4125.4
951.665,4109.0
952.745,4104.9
953.824,4074.6
954.904,4066.9
955.983,4060.6
957.062,4042.1
958.141,4029.1
959.219,4015.5
960.298,4013.0
961.376,4004.3
962.454,3989.2
963.532,3981.1
964.61,3978.9
965.688,3972.4
966.765,3947.0
967.842,3940.9
968.92,3936.4
969.997,3927.2
971.074,3916.9
972.15,3918.8
973.227,3908.2
974.303,3895.6
975.379,3899.3
976.455,3889.3
977.531,3880.9
978.607,3867.7
979.683,3869.3
980.758,3857.6
981.833,3849.0
982.908,3855.2
983.983,3844.2
985.058,3833.8
986.133,3838.8
987.207,3835.8
988.281,3829.5
989.355,3827.4
990.429,3816.8
991.503,3813.9
992.577,3810.5
993.65,3802.0
994.723,3799.9
995.796,3801.1
996.869,3787.1
997.942,3790.5
999.014,3788.2
1000.09,3787.9
1001.16,3779.0
1002.23,3779.8
1003.3,3775.2
1004.37,3772.8
1005.45,3771.7
1006.52,3768.1
1007.59,3764.4
1008.66,3760.9
1009.73,3759.1
1010.8,3756.2
1011.87,3756.9
1012.94,3751.5
1014.01,3752.1
1015.08,3751.9
1016.15,3747.3
1017.22,3745.8
1018.29,3747.5
1019.36,3745.4
1020.43,3746.3
1021.5,3750.6
1022.57,3747.6
1023.64,3745.4
1024.7,3740.1
1025.77,3736.4
1026.84,3734.7
1027.91,3733.3
1028.97,3730.4
1030.04,3730.3
1031.11,3726.7
1032.18,3727.8
1033.24,3728.6
1034.31,3731.9
1035.38,3730.5
1036.44,3727.4
1037.51,3723.5
1038.58,3722.8
1039.64,3719.5
1040.71,3720.7
1041.77,3717.6
1042.84,3715.5
1043.9,3718.2
1044.97,3717.5
1046.03,3714.5
1047.1,3717.7
1048.16,3717.3
1049.22,3714.0
1050.29,3712.7
1051.35,3715.0
1052.42,3714.7
1053.48,3712.5
1054.54,3714.1
1055.61,3713.5
1056.67,3714.0
1057.73,3713.2
1058.79,3711.8
1059.86,3713.3
1060.92,3711.7
1061.98,3712.6
1063.04,3713.1
1064.1,3713.0
1065.16,3713.6
1066.22,3712.0
1067.29,3711.9
1068.08,3708.6