File: spectra/VLFR_06-PET_nobio_Raman_f987e772.csv
cm-1,Intensity
-123.878,1854.85
-105.821,1856.55
-87.8007,1856.3
-69.8161,1857.5
-51.8675,1855.75
-33.9547,1858.85
-16.0776,1915.9
1.76388,3514.25
19.5698,1861.2
37.3403,1862.85
55.0755,2356.0
72.7754,3443.75
90.4402,3116.4
108.07,2781.45
125.665,2531.25
143.225,2352.95
160.75,2324.3
178.241,2289.35
195.697,2294.7
213.119,2306.4
230.506,2319.35
247.859,2348.3
265.178,2377.65
282.463,2354.35
299.713,2335.45
316.93,2331.5
334.113,2325.8
351.263,2342.55
368.379,2361.45
385.461,2359.25
402.51,2394.95
419.526,2377.4
436.508,2414.95
453.458,2417.8
470.374,2437.45
487.257,2429.2
504.107,2446.85
520.925,2458.55
537.71,2459.9
554.462,2478.9
571.182,2498.55
587.87,2494.65
604.525,2504.9
621.148,2562.15
637.739,2682.9
654.297,2557.05
670.824,2587.2
687.319,2590.55
703.782,2665.55
720.213,2605.3
736.613,2631.3
752.981,2655.35
769.317,2672.8
785.623,2760.1
801.897,2779.7
818.139,2880.5
834.351,2893.2
850.532,3118.4
866.681,3037.4
882.8,2977.6
898.888,2929.35
914.945,2859.1
930.972,2869.95
946.968,2881.05
962.934,2918.15
978.869,2958.25
994.774,2975.85
1010.65,3003.75
1026.49,3046.7
1042.31,3049.85
1058.09,3028.9
1073.85,3057.5
1089.57,3158.35
1105.27,3310.55
1120.93,3386.0
1136.57,3182.35
1152.18,3141.65
1167.75,3235.05
1183.3,3287.0
1198.82,3175.65
1214.31,3199.05
1229.77,3211.85
1245.2,3295.35
1260.6,3421.05
1275.97,3675.2
1291.32,3874.45
1306.63,3658.95
1321.92,3423.7
1337.18,3304.05
1352.41,3365.15
1367.61,3431.15
1382.78,3407.9
1397.93,3456.05
1413.05,3530.65
1428.14,3507.55
1443.2,3600.85
1458.23,3582.7
1473.23,3541.95
1488.21,3495.15
1503.16,3510.0
1518.08,3513.8
1532.97,3547.9
1547.84,3583.25
1562.68,3631.25
1577.49,3680.2
1592.27,3784.0
1607.03,4912.1
1621.76,4746.25
1636.46,3721.75
1651.14,3743.2
1665.78,3762.35
1680.41,3771.45
1695.0,3826.65
1709.57,4172.4
1724.11,5113.8
1738.62,4743.25
1753.11,3976.5
1767.57,3898.25
1782.01,3888.1
1796.41,3933.4
1810.8,3929.65
1825.15,3938.95
1839.48,3948.8
1853.79,3968.35
1868.06,3950.1
1882.31,3954.0
1896.54,3982.25
1910.74,4015.9
1924.91,4044.15
1939.06,4000.75
1953.19,4017.0
1967.28,4055.0
1981.35,4069.25
1995.4,4098.15
2009.42,4075.4
2023.42,4210.45
2037.39,4117.4
2051.33,4108.0
2065.25,4154.75
2079.15,4112.1
2093.01,4162.8
2106.86,4166.85
2120.68,4211.95
2134.47,4156.25
2148.24,4130.45
2161.99,4162.95
2175.71,4184.05
2189.41,4261.3
2203.08,4268.5
2216.73,4138.5
2230.35,4208.15
2243.95,4229.85
2257.52,4181.75
2271.07,4129.4
2284.6,4164.55
2298.1,4109.1
2311.58,4195.0
2325.03,4192.65
2338.46,4178.0
2351.87,4213.35
2365.25,4231.75
2378.61,4222.05
2391.94,4211.0
2405.26,4256.2
2418.54,4219.5
2431.81,4221.45
2445.05,4256.95
2458.27,4224.1
2471.46,4221.85
2484.63,4222.0
2497.78,4205.6
2510.9,4218.2
2524.0,4266.35
2537.08,4131.65
2550.14,4238.85
2563.17,4242.65
2576.18,4222.75
2589.17,4232.8
2602.13,4202.65
2615.07,4269.45
2627.99,4302.85
2640.89,4256.35
2653.76,4298.8
2666.61,4243.65
2679.44,4255.0
2692.25,4313.4
2705.03,4285.15
2717.79,4273.85
2730.53,4289.4
2743.25,4294.55
2755.94,4353.2
2768.61,4366.95
2781.27,4370.8
2793.89,4430.85
2806.5,4322.25
2819.09,4417.7
2831.65,4425.5
2844.19,4445.95
2856.71,4445.45
2869.21,4520.1
2881.69,4631.7
2894.14,4614.8
2906.58,4683.1
2918.99,4671.1
2931.38,4556.45
2943.75,4861.85
2956.1,5186.1
2968.42,5137.65
2980.73,5017.25
2993.01,5016.25
3005.28,5008.2
3017.52,4855.65
3029.74,4926.2
3041.94,4856.55
3054.12,4866.9
3066.28,5059.9
3078.42,5441.0
3090.54,5427.95
3102.63,5009.9
3114.71,4928.7
3126.77,4932.2
3138.8,4930.25
3150.82,4993.0
3162.81,4950.65
3174.78,5046.3
3186.74,5041.7
3198.67,5037.35
3210.58,4987.0
3222.47,5067.05
3234.35,5086.9
3246.2,5079.9
3258.03,5121.55
3269.84,5123.75
3281.64,5127.85
3293.41,5225.75
3305.16,5117.9
3316.89,5057.85
3328.61,5188.55
3340.3,5027.1
3351.97,5076.2
3363.63,5110.15
3375.26,5117.95
3386.88,5091.15
3398.47,5042.45
3410.05,5102.25
3421.6,5139.8
3433.14,5151.5
3444.66,5125.65
3456.15,5158.75
3467.63,5120.65
3479.09,5167.35
3490.53,5126.15
3501.96,4966.95
3513.36,4983.25
3524.74,5059.55
3536.11,4952.1
3547.45,4924.45
3558.78,4919.4
3570.09,4831.85
3581.37,4842.55
3592.64,4862.45
3603.9,4846.5
3615.13,4854.65
3626.34,4717.65
3637.54,4687.65
3648.72,4707.45
3659.87,4808.5
3665.45,4794.7