File: spectra/VLFR_01-LDPE_nobio_Raman_a86eebbe.csv
nm,Intensity
526.486,829.9
527.033,828.0
527.579,828.9
528.126,829.1
528.672,827.8
529.219,828.9
529.765,828.7
530.311,829.5
530.857,829.4
531.403,828.4
531.948,833.3
532.494,830.0
533.039,828.2
533.585,828.9
534.13,913.6
534.675,908.9
535.22,896.2
535.764,884.8
536.309,879.6
536.854,876.5
537.398,876.4
537.942,872.5
538.486,875.0
539.03,868.2
539.574,868.5
540.118,866.7
540.662,865.0
541.205,862.2
541.749,861.2
542.292,863.8
542.835,862.2
543.378,861.3
543.921,860.8
544.464,863.6
545.006,860.5
545.549,860.8
546.091,862.4
546.634,860.2
547.176,860.3
547.718,863.0
548.26,858.9
548.802,857.7
549.343,858.3
549.885,857.7
550.426,858.1
550.968,859.6
551.509,857.0
552.05,860.6
552.591,858.2
553.132,859.9
553.673,862.9
554.214,862.8
554.754,860.4
555.295,863.5
555.835,863.5
556.375,864.2
556.915,869.6
557.455,871.6
557.995,872.8
558.535,875.7
559.075,871.3
559.614,870.1
560.154,871.3
560.693,870.3
561.232,869.9
561.772,873.2
562.311,874.5
562.85,878.0
563.388,888.6
563.927,925.4
564.466,900.7
565.004,899.5
565.543,892.3
566.081,959.1
566.619,903.8
567.157,894.1
567.695,900.5
568.233,894.4
568.771,898.9
569.309,899.3
569.846,906.9
570.384,912.5
570.921,923.3
571.458,995.3
571.995,956.4
572.532,935.4
573.069,934.4
573.606,944.6
574.143,958.8
574.68,957.5
575.216,966.3
575.753,1029.6
576.289,1115.1
576.825,1077.8
577.361,1070.8
577.897,1058.2
578.433,1066.7
578.969,1086.7
579.505,1107.3
580.041,1128.9
580.576,1155.3
581.112,1167.4
581.647,1195.3
582.183,1218.4
582.718,1239.4
583.253,1265.4
583.788,1294.0
584.323,1311.0
584.858,1330.9
585.392,1369.0
585.927,1403.4
586.462,1438.6
586.996,1498.2
587.53,1531.6
588.065,1585.1
588.599,1624.0
589.133,1674.5
589.667,1713.7
590.201,1766.9
590.735,1815.5
591.268,1850.1
591.802,1885.6
592.335,1906.4
592.869,1918.8
593.402,1949.4
593.936,1976.8
594.469,2001.9
595.002,2042.8
595.535,2070.1
596.068,2119.6
596.601,2159.5
597.133,2205.4
597.666,2257.0
598.199,2308.7
598.731,2373.7
599.264,2408.1
599.796,2429.4
600.328,2448.0
600.86,2446.0
601.393,2440.5
601.925,2417.5
602.457,2393.4
602.988,2361.9
603.52,2310.0
604.052,2257.4
604.583,2187.8
605.115,2111.9
605.646,2032.3
606.178,1972.0
606.709,1914.1
607.24,1865.0
607.771,1834.2
608.302,1789.2
608.833,1762.4
609.364,1727.7
609.895,1698.0
610.426,1668.4
610.957,1652.7
611.487,1614.5
612.018,1615.5
612.548,1598.6
613.078,1577.9
613.609,1570.5
614.139,1538.5
614.669,1527.2
615.199,1498.3
615.729,1488.7
616.259,1457.1
616.789,1442.8
617.319,1434.4
617.849,1432.9
618.378,1421.0
618.908,1402.6
619.437,1383.9
619.967,1373.3
620.496,1367.7
621.025,1364.3
621.555,1354.1
622.084,1372.7
622.613,1370.2
623.142,1350.6
623.671,1326.6
624.2,1313.1
624.729,1314.4
625.258,1319.4
625.786,1316.8
626.315,1332.8
626.844,1492.6
627.372,1932.0
627.901,1660.9
628.429,1822.7
628.957,1746.6
629.486,1624.5
630.014,1535.4
630.542,1504.7
631.07,1399.4
631.598,1325.2
632.126,1299.1
632.654,1294.3
633.182,1282.9
633.71,1279.9
634.237,1294.2
634.765,1291.4
635.293,1280.7
635.82,1306.0
636.348,1318.1
636.875,1311.6
637.403,1322.9
637.93,1331.7
638.458,1342.8
638.985,1351.2
639.512,1365.2
640.039,1374.3
640.566,1380.7
641.093,1396.0
641.62,1405.5
642.147,1408.4
642.674,1432.6
643.201,1430.3
643.728,1433.8
644.255,1438.5
644.781,1442.9
645.308,1446.7
645.835,1455.4
646.361,1461.4
646.888,1461.7
647.414,1465.6
647.941,1471.8
648.467,1477.4
648.993,1476.8
649.52,1475.4
650.046,1480.6
650.572,1483.3
651.098,1476.2
651.625,1491.0
652.151,1503.8
652.677,1494.8
653.203,1515.6
653.729,1514.6
654.255,1509.3
654.78,1512.8
655.306,1505.9
655.832,1499.6
656.358,1477.8
656.884,1476.3
657.409,1460.6
657.935,1446.2
658.461,1436.7
658.986,1410.9
659.512,1397.4
660.037,1374.5
660.563,1346.6
661.088,1327.1
661.614,1313.2
662.139,1283.2
662.664,1263.9
663.058,1251.1