File: spectra/VLFR_01-LDPE_nobio_Raman_8ba3fdb7.csv
nm,Intensity
526.5,828.9
527.047,829.6
527.594,828.9
528.14,830.1
528.687,829.3
529.233,829.9
529.779,829.3
530.325,828.6
530.871,830.3
531.417,830.1
531.962,838.0
532.508,830.5
533.053,830.2
533.599,832.3
534.144,981.0
534.689,988.3
535.234,981.7
535.778,993.4
536.323,998.0
536.867,996.1
537.412,995.9
537.956,1004.9
538.5,1004.3
539.044,1003.2
539.588,1010.6
540.132,1011.4
540.675,1012.3
541.219,1021.2
541.762,1026.7
542.305,1030.4
542.848,1039.8
543.391,1034.4
543.934,1040.7
544.477,1048.1
545.02,1041.3
545.562,1053.4
546.105,1058.4
546.647,1052.0
547.189,1062.7
547.731,1063.7
548.273,1066.2
548.815,1065.3
549.356,1072.6
549.898,1070.1
550.439,1070.4
550.981,1075.2
551.522,1080.0
552.063,1082.6
552.604,1087.3
553.145,1086.7
553.686,1089.2
554.226,1090.8
554.767,1086.1
555.307,1089.6
555.848,1094.8
556.388,1097.4
556.928,1098.0
557.468,1104.0
558.008,1096.5
558.547,1099.9
559.087,1109.3
559.626,1114.1
560.166,1113.3
560.705,1113.8
561.244,1118.2
561.783,1117.2
562.322,1117.8
562.861,1127.9
563.4,1126.9
563.939,1141.6
564.477,1150.0
565.015,1162.7
565.554,1156.4
566.092,1159.5
566.63,1153.9
567.168,1145.7
567.706,1152.0
568.244,1151.2
568.781,1157.3
569.319,1157.3
569.857,1162.3
570.394,1163.1
570.931,1166.7
571.468,1167.5
572.005,1171.5
572.542,1182.5
573.079,1187.9
573.616,1180.6
574.153,1194.7
574.689,1187.2
575.226,1189.1
575.762,1188.8
576.298,1198.6
576.834,1195.8
577.371,1189.4
577.907,1193.2
578.442,1190.9
578.978,1193.9
579.514,1191.9
580.049,1192.7
580.585,1188.3
581.12,1191.2
581.656,1195.7
582.191,1200.6
582.726,1208.3
583.261,1205.7
583.796,1204.9
584.331,1210.3
584.865,1208.6
585.4,1213.3
585.935,1203.8
586.469,1213.0
587.004,1224.9
587.538,1221.8
588.072,1216.3
588.606,1217.2
589.14,1219.6
589.674,1226.1
590.208,1222.8
590.742,1231.7
591.275,1238.2
591.809,1238.4
592.342,1241.0
592.876,1230.1
593.409,1225.3
593.942,1234.4
594.476,1236.8
595.009,1237.9
595.542,1252.5
596.075,1242.2
596.607,1244.6
597.14,1252.6
597.673,1266.9
598.205,1258.1
598.738,1267.3
599.27,1266.1
599.803,1265.2
600.335,1265.8
600.867,1260.6
601.399,1262.5
601.931,1263.6
602.463,1257.8
602.995,1261.0
603.527,1254.6
604.058,1254.3
604.59,1250.3
605.122,1245.3
605.653,1228.9
606.184,1223.5
606.716,1218.0
607.247,1223.9
607.778,1218.5
608.309,1213.3
608.84,1220.5
609.371,1222.1
609.902,1212.4
610.433,1205.8
610.964,1207.6
611.494,1217.0
612.025,1213.5
612.556,1216.1
613.086,1209.4
613.616,1218.5
614.147,1212.5
614.677,1212.6
615.207,1202.0
615.737,1202.2
616.267,1198.4
616.797,1202.2
617.327,1202.2
617.857,1197.9
618.387,1200.1
618.917,1190.1
619.446,1196.0
619.976,1185.5
620.505,1188.6
621.035,1182.8
621.564,1186.9
622.093,1188.6
622.623,1182.4
623.152,1190.9
623.681,1190.9
624.21,1185.8
624.739,1182.0
625.268,1185.3
625.797,1193.1
626.326,1188.7
626.855,1191.2
627.383,1200.9
627.912,1194.0
628.441,1215.7
628.969,1214.5
629.498,1214.7
630.026,1203.4
630.554,1201.2
631.083,1197.5
631.611,1187.8
632.139,1175.0
632.667,1168.2
633.195,1170.8
633.724,1157.8
634.252,1161.5
634.779,1161.0
635.307,1153.8
635.835,1156.2
636.363,1153.1
636.891,1157.1
637.418,1150.8
637.946,1147.3
638.474,1145.6
639.001,1151.2
639.529,1145.6
640.056,1141.9
640.583,1137.9
641.111,1133.7
641.638,1145.7
642.165,1142.6
642.692,1134.4
643.22,1129.1
643.747,1134.1
644.274,1131.2
644.801,1132.4
645.328,1123.8
645.854,1133.8
646.381,1123.8
646.908,1125.0
647.435,1128.5
647.962,1134.3
648.488,1122.7
649.015,1127.2
649.542,1130.1
650.068,1126.3
650.595,1127.7
651.121,1113.7
651.648,1129.4
652.174,1127.4
652.7,1126.3
653.227,1126.8
653.753,1122.4
654.279,1122.0
654.805,1120.0
655.331,1121.2
655.858,1118.2
656.384,1115.0
656.91,1114.5
657.436,1112.7
657.962,1111.8
658.488,1114.5
659.013,1103.8
659.539,1109.2
660.065,1104.2
660.591,1105.0
661.117,1103.1
661.642,1095.1
662.168,1093.6
662.694,1093.8
663.088,1090.9