File: spectra/VLFR_08-PLA_bio_Raman_1b7bf392.csv
nm,Intensity
526.508,829.7
527.055,830.1
527.602,829.8
528.149,828.8
528.695,829.7
529.241,829.9
529.787,830.8
530.334,829.3
530.879,827.8
531.425,827.8
531.971,838.3
532.516,831.1
533.062,829.7
533.607,831.8
534.152,1034.8
534.697,993.5
535.242,958.9
535.786,938.6
536.331,938.5
536.876,941.3
537.42,930.4
537.964,926.6
538.508,921.2
539.052,918.8
539.596,916.1
540.14,909.1
540.683,923.7
541.227,926.7
541.77,921.6
542.313,912.0
542.856,917.3
543.399,937.3
543.942,940.5
544.485,929.9
545.027,919.7
545.57,912.2
546.112,907.6
546.654,915.7
547.196,916.9
547.738,919.4
548.28,922.9
548.822,918.0
549.363,924.2
549.905,922.6
550.446,926.7
550.988,926.5
551.529,930.5
552.07,928.7
552.611,932.7
553.152,933.8
553.692,929.1
554.233,936.4
554.773,938.4
555.314,928.9
555.854,925.7
556.394,926.0
556.934,926.8
557.474,941.0
558.014,1046.6
558.553,962.9
559.093,944.6
559.632,942.8
560.172,933.7
560.711,934.8
561.25,932.1
561.789,935.4
562.328,933.2
562.867,951.6
563.406,977.5
563.944,958.7
564.483,946.4
565.021,964.5
565.559,961.5
566.098,986.1
566.636,958.1
567.174,941.2
567.711,944.8
568.249,954.5
568.787,948.1
569.324,949.0
569.862,949.5
570.399,952.9
570.936,953.2
571.474,964.3
572.011,970.1
572.548,970.0
573.084,960.3
573.621,970.6
574.158,962.4
574.694,974.8
575.231,957.6
575.767,958.6
576.303,973.2
576.84,1024.7
577.376,977.0
577.912,958.3
578.447,954.5
578.983,956.2
579.519,955.2
580.054,958.8
580.59,957.5
581.125,953.8
581.661,954.1
582.196,957.0
582.731,959.4
583.266,965.7
583.801,959.3
584.336,965.0
584.87,957.6
585.405,960.4
585.94,964.9
586.474,974.7
587.008,1009.0
587.543,1022.7
588.077,980.9
588.611,968.7
589.145,957.5
589.679,958.3
590.213,958.6
590.747,959.1
591.28,961.0
591.814,961.9
592.347,960.2
592.881,958.7
593.414,958.0
593.947,960.2
594.48,966.3
595.014,960.9
595.547,959.4
596.079,959.1
596.612,961.9
597.145,962.0
597.678,958.0
598.21,960.3
598.743,959.7
599.275,956.4
599.807,964.9
600.34,963.2
600.872,963.7
601.404,956.7
601.936,958.0
602.468,956.8
603.0,961.7
603.532,958.6
604.063,965.9
604.595,957.8
605.126,957.8
605.658,958.2
606.189,950.5
606.721,952.0
607.252,952.0
607.783,956.4
608.314,958.9
608.845,957.0
609.376,957.0
609.907,955.4
610.438,954.8
610.968,955.0
611.499,954.5
612.03,953.5
612.56,956.0
613.091,956.7
613.621,961.5
614.151,963.1
614.681,960.5
615.212,958.8
615.742,951.6
616.272,953.9
616.802,958.2
617.332,951.4
617.861,955.9
618.391,957.4
618.921,961.7
619.45,955.5
619.98,959.3
620.509,957.6
621.039,957.0
621.568,952.9
622.097,954.4
622.627,964.8
623.156,971.5
623.685,967.7
624.214,957.7
624.743,959.6
625.272,956.4
625.801,955.9
626.33,953.6
626.858,956.7
627.387,957.2
627.916,968.2
628.444,1027.9
628.973,1012.1
629.501,1019.4
630.029,1016.1
630.558,1074.1
631.086,1444.2
631.614,1201.0
632.142,1072.9
632.67,1055.6
633.198,1145.3
633.726,1119.9
634.254,1015.0
634.782,971.2
635.31,961.4
635.838,953.7
636.365,951.3
636.893,949.7
637.421,944.1
637.948,943.0
638.476,942.9
639.003,941.5
639.531,942.9
640.058,946.5
640.585,944.1
641.113,945.6
641.64,944.5
642.167,941.8
642.694,941.5
643.221,934.7
643.748,938.2
644.275,934.7
644.802,934.5
645.329,931.9
645.856,934.6
646.382,929.1
646.909,932.4
647.436,929.7
647.962,930.0
648.489,928.8
649.016,928.2
649.542,926.7
650.069,923.6
650.595,927.4
651.121,922.8
651.648,925.3
652.174,922.4
652.7,926.2
653.227,926.6
653.753,922.4
654.279,925.9
654.805,922.1
655.331,922.8
655.857,923.6
656.383,923.1
656.909,923.1
657.435,923.3
657.961,920.9
658.487,924.2
659.013,920.6
659.538,920.6
660.064,919.7
660.59,921.4
661.116,919.3
661.641,917.5
662.167,914.7
662.692,914.9
663.087,915.9