File: spectra/VLFR_01-LDPE_nobio_Raman_34b4cc09.csv
cm-1,Intensity
-123.878,1852.45
-105.821,1853.75
-87.8007,1851.85
-69.8161,1852.1
-51.8675,1852.05
-33.9547,1854.15
-16.0776,1876.05
1.76388,3040.7
19.5698,1855.45
37.3403,1854.4
55.0755,1930.15
72.7754,2153.25
90.4402,2135.5
108.07,2122.5
125.665,2116.55
143.225,2103.95
160.75,2091.45
178.241,2091.2
195.697,2103.25
213.119,2113.25
230.506,2125.4
247.859,2138.5
265.178,2093.25
282.463,2088.55
299.713,2068.65
316.93,2083.75
334.113,2094.55
351.263,2098.55
368.379,2110.0
385.461,2094.25
402.51,2084.3
419.526,2068.55
436.508,2077.0
453.458,2065.15
470.374,2081.15
487.257,2068.25
504.107,2076.5
520.925,2072.7
537.71,2075.25
554.462,2077.9
571.182,2069.45
587.87,2072.7
604.525,2077.9
621.148,2077.9
637.739,2090.45
654.297,2097.75
670.824,2096.95
687.319,2084.4
703.782,2069.25
720.213,2077.95
736.613,2082.2
752.981,2072.8
769.317,2086.85
785.623,2083.7
801.897,2089.65
818.139,2092.1
834.351,2096.6
850.532,2098.2
866.681,2098.5
882.8,2117.7
898.888,2100.1
914.945,2100.9
930.972,2098.95
946.968,2105.95
962.934,2108.3
978.869,2114.25
994.774,2111.85
1010.65,2113.9
1026.49,2143.4
1042.31,2138.85
1058.09,2256.35
1073.85,2209.25
1089.57,2198.45
1105.27,2174.85
1120.93,2227.75
1136.57,2232.25
1152.18,2175.1
1167.75,2185.8
1183.3,2169.2
1198.82,2187.7
1214.31,2185.7
1229.77,2202.05
1245.2,2208.2
1260.6,2235.6
1275.97,2249.05
1291.32,2456.25
1306.63,2365.25
1321.92,2296.15
1337.18,2284.25
1352.41,2279.8
1367.61,2288.1
1382.78,2273.8
1397.93,2281.45
1413.05,2349.9
1428.14,2429.7
1443.2,2578.05
1458.23,2486.95
1473.23,2388.55
1488.21,2355.4
1503.16,2343.9
1518.08,2352.9
1532.97,2381.7
1547.84,2389.2
1562.68,2378.7
1577.49,2380.65
1592.27,2411.4
1607.03,2435.85
1621.76,2452.8
1636.46,2445.7
1651.14,2429.3
1665.78,2426.85
1680.41,2426.6
1695.0,2424.6
1709.57,2439.2
1724.11,2420.75
1738.62,2445.0
1753.11,2418.6
1767.57,2439.75
1782.01,2408.45
1796.41,2409.15
1810.8,2416.25
1825.15,2398.25
1839.48,2411.2
1853.79,2430.15
1868.06,2418.1
1882.31,2411.15
1896.54,2424.1
1910.74,2413.25
1924.91,2415.05
1939.06,2414.1
1953.19,2409.65
1967.28,2427.25
1981.35,2423.1
1995.4,2428.55
2009.42,2439.85
2023.42,2448.6
2037.39,2449.55
2051.33,2463.3
2065.25,2478.25
2079.15,2474.15
2093.01,2468.25
2106.86,2502.9
2120.68,2477.2
2134.47,2498.6
2148.24,2496.9
2161.99,2482.85
2175.71,2496.95
2189.41,2503.0
2203.08,2471.25
2216.73,2456.8
2230.35,2455.45
2243.95,2445.4
2257.52,2441.15
2271.07,2414.9
2284.6,2400.2
2298.1,2397.95
2311.58,2386.6
2325.03,2364.6
2338.46,2343.65
2351.87,2340.5
2365.25,2341.2
2378.61,2325.15
2391.94,2325.6
2405.26,2326.25
2418.54,2318.2
2431.81,2339.0
2445.05,2310.65
2458.27,2294.4
2471.46,2297.1
2484.63,2289.1
2497.78,2289.2
2510.9,2290.15
2524.0,2283.45
2537.08,2271.1
2550.14,2273.7
2563.17,2282.0
2576.18,2279.1
2589.17,2293.9
2602.13,2309.55
2615.07,2295.7
2627.99,2287.1
2640.89,2299.15
2653.76,2316.55
2666.61,2300.75
2679.44,2303.05
2692.25,2324.5
2705.03,2374.95
2717.79,2429.95
2730.53,2389.5
2743.25,2324.45
2755.94,2311.5
2768.61,2299.5
2781.27,2313.65
2793.89,2330.55
2806.5,2343.5
2819.09,2398.55
2831.65,2659.55
2844.19,4107.3
2856.71,4069.25
2869.21,3617.45
2881.69,4502.45
2894.14,3733.05
2906.58,3494.25
2918.99,3267.15
2931.38,3129.15
2943.75,2783.95
2956.1,2492.75
2968.42,2414.6
2980.73,2359.9
2993.01,2327.8
3005.28,2331.45
3017.52,2301.9
3029.74,2309.2
3041.94,2305.85
3054.12,2282.9
3066.28,2277.15
3078.42,2269.45
3090.54,2274.75
3102.63,2261.05
3114.71,2251.25
3126.77,2238.9
3138.8,2235.2
3150.82,2221.5
3162.81,2232.9
3174.78,2230.25
3186.74,2202.0
3198.67,2219.55
3210.58,2208.25
3222.47,2197.05
3234.35,2212.7
3246.2,2206.3
3258.03,2211.6
3269.84,2208.85
3281.64,2201.1
3293.41,2187.1
3305.16,2184.3
3316.89,2181.4
3328.61,2186.7
3340.3,2174.95
3351.97,2176.65
3363.63,2188.2
3375.26,2175.3
3386.88,2165.8
3398.47,2164.7
3410.05,2158.5
3421.6,2160.65
3433.14,2157.1
3444.66,2154.5
3456.15,2158.4
3467.63,2148.75
3479.09,2150.85
3490.53,2136.85
3501.96,2140.2
3513.36,2128.55
3524.74,2144.4
3536.11,2131.2
3547.45,2123.05
3558.78,2109.3
3570.09,2120.95
3581.37,2117.3
3592.64,2115.05
3603.9,2100.85
3615.13,2092.0
3626.34,2075.6
3637.54,2078.4
3648.72,2082.25
3659.87,2067.9
3665.45,2074.7