File: spectra/VLFR_01-LDPE_bio_Raman_f17f7a14.csv
nm,Intensity
528.65,1839.2
529.155,1838.45
529.66,1838.55
530.165,1837.2
530.67,1837.25
531.175,1840.0
531.68,1865.6
532.185,4044.65
532.69,1840.25
533.194,1839.8
533.699,1980.2
534.204,2467.45
534.708,2417.95
535.213,2391.65
535.717,2360.6
536.222,2335.45
536.726,2337.45
537.231,2338.9
537.735,2352.05
538.239,2331.1
538.743,2320.35
539.247,2312.75
539.751,2306.55
540.255,2316.1
540.759,2314.3
541.263,2310.7
541.767,2296.95
542.271,2310.3
542.775,2312.25
543.279,2313.65
543.782,2321.5
544.286,2313.65
544.789,2313.65
545.293,2315.1
545.796,2320.1
546.3,2332.6
546.803,2332.75
547.306,2327.4
547.81,2342.25
548.313,2347.25
548.816,2345.7
549.319,2344.9
549.822,2349.7
550.325,2347.7
550.828,2365.85
551.331,2360.2
551.834,2386.8
552.337,2391.45
552.839,2385.05
553.342,2406.5
553.844,2413.5
554.347,2401.8
554.849,2414.85
555.352,2419.95
555.854,2445.3
556.357,2456.65
556.859,2453.7
557.361,2476.7
557.863,2478.35
558.365,2503.45
558.867,2490.15
559.369,2498.0
559.871,2509.85
560.373,2485.45
560.875,2510.6
561.377,2522.6
561.878,2552.6
562.38,2569.95
562.881,2600.0
563.383,2632.9
563.884,2892.8
564.386,2785.65
564.887,2752.35
565.388,2704.5
565.89,2861.95
566.391,2875.4
566.892,2728.3
567.393,2734.6
567.894,2743.95
568.395,2731.95
568.896,2762.5
569.396,2798.4
569.897,2803.4
570.398,2837.25
570.898,2900.05
571.399,3336.8
571.9,3201.5
572.4,3044.0
572.9,2945.1
573.401,2936.1
573.901,2994.6
574.401,2954.45
574.901,2952.05
575.401,3104.9
575.901,3350.2
576.401,3733.6
576.901,3513.9
577.401,3224.55
577.901,3056.8
578.4,3062.7
578.9,3083.25
579.399,3109.2
579.899,3090.35
580.398,3098.25
580.898,3110.2
581.397,3154.05
581.896,3162.35
582.395,3125.35
582.895,3124.85
583.394,3076.15
583.893,3125.6
584.391,3141.55
584.89,3137.35
585.389,3159.65
585.888,3120.6
586.386,3135.65
586.885,3128.3
587.384,3159.65
587.882,3183.3
588.38,3202.45
588.879,3205.85
589.377,3171.65
589.875,3178.7
590.373,3218.55
590.871,3205.7
591.369,3227.55
591.867,3257.4
592.365,3238.3
592.863,3265.65
593.361,3253.2
593.858,3256.3
594.356,3264.2
594.853,3269.2
595.351,3284.75
595.848,3293.1
596.345,3341.15
596.843,3345.45
597.34,3331.85
597.837,3366.0
598.334,3349.95
598.831,3393.2
599.328,3413.45
599.824,3408.1
600.321,3405.9
600.818,3403.4
601.314,3409.55
601.811,3424.2
602.307,3370.4
602.804,3369.8
603.3,3343.5
603.796,3334.35
604.293,3272.3
604.789,3281.15
605.285,3234.6
605.781,3210.25
606.277,3216.15
606.772,3156.85
607.268,3188.15
607.764,3124.45
608.259,3123.35
608.755,3092.05
609.25,3107.4
609.746,3075.95
610.241,3066.95
610.736,3046.7
611.231,3074.95
611.727,3032.85
612.222,3038.35
612.716,3030.55
613.211,3031.5
613.706,3017.55
614.201,3004.8
614.695,2988.0
615.19,2995.85
615.684,2975.25
616.179,3004.45
616.673,3024.1
617.168,2999.35
617.662,2996.15
618.156,3009.35
618.65,2991.7
619.144,3036.1
619.638,3054.1
620.131,3033.5
620.625,3057.75
621.119,3044.65
621.612,3085.75
622.106,3230.7
622.599,3170.7
623.093,3066.95
623.586,3034.45
624.079,2972.8
624.572,3001.0
625.065,3000.65
625.558,3022.0
626.051,3119.95
626.544,3515.1
627.037,5987.35
627.529,6350.95
628.022,5305.25
628.514,6912.05
629.007,5751.1
629.499,5136.9
629.991,4558.7
630.483,4476.45
630.976,3792.35
631.468,3262.2
631.959,3073.0
632.451,2972.7
632.943,2932.7
633.435,2905.35
633.926,2905.95
634.418,2871.5
634.909,2863.85
635.401,2845.9
635.892,2838.95
636.383,2809.65
636.874,2807.95
637.365,2780.3
637.856,2788.9
638.347,2791.45
638.838,2772.8
639.329,2800.85
639.819,2751.35
640.31,2781.05
640.8,2745.5
641.291,2758.3
641.781,2715.85
642.271,2706.4
642.761,2742.65
643.251,2720.75
643.741,2718.6
644.231,2719.6
644.721,2673.75
645.211,2733.65
645.7,2668.7
646.19,2685.15
646.679,2683.4
647.169,2658.5
647.658,2655.15
648.147,2665.4
648.636,2636.5
649.125,2658.5
649.614,2618.3
650.103,2627.95
650.592,2620.95
651.08,2620.75
651.569,2617.2
652.058,2589.7
652.546,2588.8
653.034,2576.15
653.523,2576.15
654.011,2560.75
654.499,2540.1
654.987,2542.75
655.475,2528.7
655.963,2519.15
656.45,2488.55
656.938,2507.35
657.425,2483.2
657.913,2468.9
658.4,2443.2
658.888,2442.15
659.375,2426.6
659.862,2387.35
660.349,2388.4
660.836,2369.2
661.079,2371.6