File: spectra/VLFR_01-LDPE_nobio_Raman_c8e30f79.csv
nm,Intensity
526.532,832.9
527.079,833.65
527.625,833.4
528.172,833.2
528.718,833.05
529.265,834.05
529.811,833.3
530.357,832.9
530.903,833.35
531.449,833.95
531.994,839.95
532.54,834.15
533.085,832.75
533.63,834.65
534.176,925.75
534.721,913.8
535.266,896.45
535.81,882.1
536.355,874.7
536.9,872.9
537.444,869.65
537.988,870.4
538.533,866.5
539.077,863.3
539.621,861.55
540.165,859.3
540.708,855.7
541.252,858.25
541.795,856.05
542.339,855.85
542.882,855.1
543.425,854.35
543.968,855.25
544.511,853.6
545.054,853.7
545.597,852.7
546.139,853.35
546.682,851.6
547.224,852.0
547.766,851.3
548.308,851.55
548.85,851.2
549.392,851.35
549.934,851.35
550.475,850.3
551.017,849.9
551.558,853.45
552.1,851.3
552.641,852.15
553.182,854.75
553.723,855.5
554.264,857.0
554.804,858.3
555.345,859.75
555.885,860.15
556.426,862.7
556.966,863.65
557.506,869.65
558.046,873.05
558.586,873.85
559.126,870.9
559.665,870.15
560.205,869.1
560.745,871.05
561.284,872.75
561.823,873.0
562.362,880.0
562.901,883.5
563.44,887.45
563.979,966.55
564.518,910.45
565.056,905.65
565.595,902.25
566.133,987.85
566.671,908.1
567.21,900.35
567.748,907.25
568.285,903.2
568.823,909.5
569.361,912.1
569.899,915.9
570.436,924.55
570.974,937.15
571.511,1087.45
572.048,981.55
572.585,956.1
573.122,959.9
573.659,971.65
574.196,984.85
574.733,987.2
575.269,1008.95
575.806,1073.55
576.342,1195.85
576.878,1153.2
577.414,1132.75
577.951,1115.1
578.486,1141.25
579.022,1165.95
579.558,1195.85
580.094,1219.0
580.629,1245.25
581.165,1269.5
581.7,1289.85
582.236,1305.25
582.771,1321.3
583.306,1345.4
583.841,1353.5
584.376,1360.6
584.911,1370.55
585.445,1380.0
585.98,1395.4
586.514,1412.15
587.049,1422.5
587.583,1435.35
588.117,1446.9
588.651,1465.35
589.186,1479.6
589.72,1501.25
590.253,1521.3
590.787,1534.5
591.321,1550.7
591.854,1568.0
592.388,1576.45
592.921,1574.25
593.455,1578.0
593.988,1576.55
594.521,1589.5
595.054,1608.75
595.587,1625.95
596.12,1625.15
596.653,1641.8
597.186,1654.9
597.718,1663.35
598.251,1685.8
598.783,1699.2
599.316,1713.6
599.848,1720.1
600.38,1723.75
600.912,1720.95
601.444,1706.1
601.976,1694.45
602.508,1688.05
603.04,1667.6
603.572,1644.3
604.103,1615.45
604.635,1575.25
605.167,1547.6
605.698,1507.3
606.229,1471.85
606.761,1447.95
607.292,1426.9
607.823,1405.15
608.354,1383.9
608.885,1369.3
609.416,1354.9
609.947,1337.45
610.477,1322.25
611.008,1312.25
611.539,1298.55
612.069,1288.15
612.6,1280.95
613.13,1277.25
613.66,1268.25
614.19,1254.55
614.721,1247.8
615.251,1237.85
615.781,1227.15
616.311,1219.65
616.841,1218.15
617.37,1217.55
617.9,1209.7
618.43,1203.65
618.96,1194.6
619.489,1199.25
620.019,1196.3
620.548,1190.85
621.077,1191.55
621.607,1202.25
622.136,1226.4
622.665,1212.75
623.194,1191.25
623.723,1184.0
624.252,1176.7
624.781,1182.05
625.31,1184.45
625.839,1190.7
626.368,1225.0
626.896,1543.6
627.425,1978.2
627.953,1686.3
628.482,2024.35
629.01,1751.55
629.539,1628.0
630.067,1522.5
630.596,1483.1
631.124,1328.3
631.652,1257.4
632.18,1230.1
632.708,1216.1
633.236,1212.8
633.764,1214.2
634.292,1206.35
634.82,1208.85
635.348,1211.15
635.876,1217.3
636.403,1217.6
636.931,1222.8
637.459,1218.5
637.986,1227.85
638.514,1225.0
639.041,1229.85
639.568,1236.2
640.096,1240.6
640.623,1241.1
641.15,1241.6
641.678,1250.55
642.205,1252.2
642.732,1258.05
643.259,1250.65
643.786,1258.3
644.313,1257.75
644.84,1256.45
645.367,1256.85
645.894,1258.75
646.421,1258.4
646.948,1262.9
647.474,1261.15
648.001,1264.25
648.528,1254.5
649.054,1253.7
649.581,1256.55
650.108,1245.65
650.634,1249.1
651.161,1256.9
651.687,1255.9
652.214,1257.5
652.74,1259.35
653.266,1254.15
653.793,1255.95
654.319,1254.05
654.845,1250.4
655.371,1251.8
655.897,1245.65
656.424,1237.4
656.95,1231.65
657.476,1224.75
658.002,1208.45
658.528,1212.55
659.054,1193.45
659.58,1186.1
660.106,1173.8
660.631,1162.3
661.157,1146.65
661.683,1134.5
662.209,1126.45
662.735,1113.5
663.129,1107.7