File: spectra/VLFR_02-HDPE_bio_Raman_9a9fe61d.csv
nm,Intensity
526.494,833.2
527.041,834.2
527.588,833.7
528.135,832.7
528.682,833.2
529.229,834.5
529.775,834.3
530.321,833.5
530.868,833.8
531.414,834.8
531.96,848.0
532.506,838.4
533.051,834.0
533.597,835.9
534.142,1036.6
534.687,1052.2
535.232,1041.9
535.777,1046.5
536.322,1060.7
536.867,1049.1
537.411,1043.8
537.956,1049.4
538.5,1054.6
539.044,1055.0
539.588,1062.3
540.132,1063.2
540.676,1063.2
541.22,1069.8
541.763,1068.5
542.306,1070.6
542.85,1077.2
543.393,1077.5
543.936,1086.1
544.479,1083.9
545.021,1092.6
545.564,1098.4
546.106,1096.4
546.649,1093.6
547.191,1099.1
547.733,1095.3
548.275,1107.1
548.817,1106.8
549.359,1106.5
549.9,1112.0
550.442,1102.4
550.983,1109.3
551.524,1112.8
552.066,1115.0
552.607,1114.4
553.148,1113.1
553.688,1110.7
554.229,1116.0
554.77,1111.8
555.31,1117.1
555.85,1114.8
556.39,1116.4
556.931,1119.8
557.471,1122.6
558.01,1124.4
558.55,1125.0
559.09,1114.2
559.629,1116.3
560.169,1125.7
560.708,1126.7
561.247,1123.1
561.786,1125.9
562.325,1129.4
562.864,1124.8
563.403,1131.6
563.941,1154.9
564.48,1136.3
565.018,1142.8
565.557,1139.8
566.095,1149.8
566.633,1137.6
567.171,1137.3
567.709,1139.8
568.247,1137.3
568.784,1143.5
569.322,1152.5
569.859,1154.2
570.397,1151.8
570.934,1154.6
571.471,1184.1
572.008,1164.6
572.545,1164.5
573.082,1158.3
573.619,1167.9
574.155,1171.8
574.692,1168.1
575.228,1171.0
575.765,1173.3
576.301,1199.8
576.837,1192.7
577.373,1178.1
577.909,1175.9
578.445,1172.6
578.981,1170.7
579.516,1169.4
580.052,1163.3
580.587,1170.4
581.123,1174.7
581.658,1168.3
582.193,1179.3
582.728,1170.8
583.263,1169.6
583.798,1157.2
584.333,1166.5
584.868,1169.0
585.402,1167.7
585.937,1162.2
586.471,1162.7
587.005,1174.2
587.54,1171.9
588.074,1165.4
588.608,1167.0
589.142,1171.3
589.676,1161.9
590.21,1163.4
590.743,1169.8
591.277,1174.0
591.81,1165.9
592.344,1165.4
592.877,1165.8
593.411,1171.1
593.944,1173.3
594.477,1165.3
595.01,1170.8
595.543,1172.4
596.076,1174.7
596.608,1172.7
597.141,1174.3
597.674,1165.8
598.206,1187.9
598.739,1190.7
599.271,1187.1
599.803,1187.8
600.335,1183.6
600.868,1191.5
601.4,1191.6
601.931,1187.8
602.463,1200.4
602.995,1194.1
603.527,1201.4
604.058,1200.1
604.59,1200.9
605.121,1195.7
605.653,1198.1
606.184,1196.4
606.715,1204.6
607.246,1201.0
607.778,1199.2
608.309,1210.0
608.839,1216.5
609.37,1207.9
609.901,1211.7
610.432,1201.0
610.962,1204.8
611.493,1210.8
612.023,1210.1
612.554,1211.9
613.084,1213.3
613.614,1222.6
614.145,1222.7
614.675,1220.9
615.205,1219.7
615.735,1214.2
616.265,1216.6
616.795,1218.8
617.324,1214.5
617.854,1228.3
618.384,1215.3
618.913,1216.2
619.443,1220.4
619.972,1219.6
620.502,1217.7
621.031,1217.0
621.56,1233.1
622.089,1229.8
622.618,1228.9
623.147,1217.2
623.676,1215.0
624.205,1217.7
624.734,1213.4
625.263,1215.3
625.792,1208.0
626.32,1224.8
626.849,1340.9
627.377,1489.0
627.906,1357.3
628.434,1483.9
628.963,1345.1
629.491,1309.6
630.019,1275.6
630.547,1255.0
631.076,1211.6
631.604,1178.8
632.132,1172.3
632.66,1159.7
633.188,1159.6
633.715,1147.3
634.243,1148.7
634.771,1138.3
635.299,1132.3
635.826,1129.9
636.354,1129.8
636.881,1121.5
637.409,1116.6
637.936,1108.8
638.464,1104.5
638.991,1103.8
639.518,1100.7
640.045,1101.2
640.573,1090.5
641.1,1088.1
641.627,1089.1
642.154,1086.5
642.681,1081.9
643.208,1069.0
643.735,1070.6
644.261,1064.8
644.788,1062.5
645.315,1061.1
645.842,1056.1
646.368,1059.6
646.895,1053.8
647.421,1057.3
647.948,1050.3
648.474,1048.9
649.001,1043.9
649.527,1043.1
650.054,1040.8
650.58,1033.1
651.106,1037.0
651.633,1038.7
652.159,1033.4
652.685,1034.0
653.211,1030.8
653.737,1029.8
654.263,1029.4
654.789,1025.8
655.315,1023.2
655.841,1020.6
656.367,1019.1
656.893,1022.5
657.419,1009.9
657.945,1016.8
658.47,1021.9
658.996,1015.9
659.522,1011.9
660.047,1009.1
660.573,1007.6
661.099,1006.8
661.624,1000.5
662.15,996.8
662.675,1003.8
663.07,995.7