File: spectra/VLFR_07-PET_bio_Raman_1147376e.csv
nm,Intensity
791.377,10964.8
792.477,10159.7
793.576,9779.2
794.676,9509.1
795.775,9579.2
796.874,9417.1
797.973,9420.2
799.072,9401.1
800.171,9434.0
801.27,9426.8
802.368,9211.7
803.467,9077.7
804.565,9166.6
805.664,8844.6
806.762,8891.1
807.86,8785.1
808.958,8754.4
810.056,8544.6
811.153,8655.3
812.251,8492.5
813.349,8444.5
814.446,8282.1
815.543,8341.7
816.64,8240.7
817.737,8134.4
818.834,8078.7
819.931,7942.9
821.028,7944.0
822.125,7878.4
823.221,7741.7
824.317,7654.4
825.414,7825.8
826.51,7659.2
827.606,7528.0
828.702,7455.9
829.797,7466.5
830.893,7472.3
831.988,7220.7
833.084,7206.7
834.179,7129.4
835.274,7058.6
836.369,7060.1
837.464,7136.8
838.559,7097.8
839.654,7033.3
840.748,7081.3
841.843,7136.2
842.937,6953.2
844.031,6748.8
845.125,6722.5
846.219,6635.6
847.313,6609.1
848.407,6494.6
849.5,6530.9
850.593,6483.5
851.687,6489.4
852.78,6450.2
853.873,6433.5
854.966,6360.0
856.059,6258.7
857.151,6291.2
858.244,6356.5
859.336,6319.7
860.428,6353.9
861.52,6256.6
862.612,6097.8
863.704,6187.3
864.796,6159.0
865.888,6044.4
866.979,5972.6
868.07,5950.5
869.162,5955.8
870.253,6015.7
871.344,6073.2
872.434,6188.9
873.525,6132.7
874.615,5984.0
875.706,5912.2
876.796,5801.6
877.886,5729.1
878.976,5735.0
880.066,5735.5
881.156,5670.1
882.245,5667.2
883.335,5696.2
884.424,5584.0
885.513,5654.4
886.602,5510.7
887.691,5537.0
888.78,5434.8
889.868,5471.2
890.957,5428.6
892.045,5413.8
893.133,5406.7
894.221,5292.5
895.309,5284.5
896.397,5277.2
897.484,5447.4
898.571,5808.8
899.659,5484.4
900.746,5172.5
901.833,5112.5
902.92,5126.7
904.006,5059.8
905.093,5076.2
906.179,5136.6
907.266,5382.4
908.352,5362.5
909.438,5136.5
910.523,4990.4
911.609,4860.7
912.695,4849.0
913.78,4845.3
914.865,4813.9
915.95,4733.2
917.035,4755.8
918.12,4705.8
919.204,4683.7
920.289,4660.2
921.373,4644.9
922.457,4608.9
923.541,4592.9
924.625,4581.3
925.709,4535.1
926.792,4541.6
927.876,4492.5
928.959,4488.5
930.042,4461.4
931.125,4437.9
932.208,4407.6
933.29,4393.9
934.373,4383.0
935.455,4357.3
936.537,4346.7
937.619,4319.0
938.701,4322.5
939.782,4288.5
940.864,4284.0
941.945,4257.1
943.026,4256.3
944.107,4223.6
945.188,4224.7
946.269,4201.7
947.349,4189.5
948.43,4186.4
949.51,4165.2
950.59,4163.2
951.67,4142.3
952.75,4124.2
953.829,4118.3
954.909,4092.6
955.988,4099.8
957.067,4095.2
958.146,4071.6
959.224,4064.5
960.303,4054.2
961.381,4046.6
962.459,4041.9
963.537,4023.9
964.615,4011.5
965.693,4010.3
966.771,4000.0
967.848,3993.6
968.925,3989.7
970.002,3979.3
971.079,3974.1
972.156,3966.1
973.232,3956.4
974.309,3954.6
975.385,3956.5
976.461,3943.2
977.537,3932.2
978.612,3933.9
979.688,3915.5
980.763,3925.5
981.838,3917.5
982.913,3908.8
983.988,3904.3
985.063,3903.2
986.137,3894.4
987.211,3898.0
988.285,3887.6
989.359,3885.9
990.433,3877.4
991.506,3873.9
992.58,3869.7
993.653,3868.2
994.726,3868.2
995.799,3865.3
996.872,3854.0
997.944,3855.6
999.016,3850.7
1000.09,3847.8
1001.16,3847.2
1002.23,3841.0
1003.3,3836.9
1004.38,3837.3
1005.45,3834.0
1006.52,3831.6
1007.59,3831.1
1008.66,3830.1
1009.73,3824.2
1010.8,3824.4
1011.87,3822.8
1012.94,3817.9
1014.01,3814.6
1015.08,3818.1
1016.15,3814.1
1017.22,3812.1
1018.29,3816.4
1019.36,3810.7
1020.42,3810.9
1021.49,3813.3
1022.56,3814.9
1023.63,3812.5
1024.7,3810.5
1025.76,3804.8
1026.83,3802.7
1027.9,3799.7
1028.97,3797.2
1030.03,3796.6
1031.1,3792.4
1032.17,3791.8
1033.23,3794.8
1034.3,3794.8
1035.36,3795.5
1036.43,3798.9
1037.5,3790.7
1038.56,3789.1
1039.63,3789.6
1040.69,3786.9
1041.76,3784.3
1042.82,3784.7
1043.89,3784.8
1044.95,3784.1
1046.01,3784.5
1047.08,3780.9
1048.14,3783.0
1049.2,3779.9
1050.27,3780.1
1051.33,3780.2
1052.39,3779.3
1053.46,3781.3
1054.52,3781.3
1055.58,3781.4
1056.64,3781.0
1057.7,3779.8
1058.77,3779.7
1059.83,3779.5
1060.89,3778.7
1061.95,3778.8
1063.01,3780.0
1064.07,3777.8
1065.13,3776.7
1066.19,3776.8
1067.25,3779.1
1068.05,3779.0