File: spectra/VLFR_08-PLA_bio_Raman_1609f445.csv
nm,Intensity
528.626,1863.65
529.132,1863.3
529.637,1863.35
530.143,1862.85
530.648,1864.55
531.153,1865.8
531.658,1912.0
532.164,4449.0
532.669,1864.3
533.174,1864.15
533.679,1970.3
534.184,2251.0
534.689,2390.25
535.194,2288.0
535.699,2315.4
536.203,2316.55
536.708,2343.65
537.213,2330.15
537.717,2388.45
538.222,2386.05
538.726,2378.75
539.231,2412.6
539.735,2330.35
540.239,2327.8
540.744,2339.15
541.248,2362.7
541.752,2386.0
542.256,2400.35
542.76,2394.7
543.264,2384.7
543.768,2444.25
544.272,2514.55
544.776,2684.95
545.28,2611.3
545.784,2473.15
546.287,2394.35
546.791,2399.4
547.294,2417.35
547.798,2403.1
548.301,2439.1
548.805,2468.8
549.308,2577.95
549.811,2648.25
550.315,2511.6
550.818,2488.5
551.321,2479.6
551.824,2492.75
552.327,2456.35
552.83,2419.8
553.333,2445.65
553.835,2460.6
554.338,2458.35
554.841,2487.75
555.343,2463.05
555.846,2460.6
556.349,2459.35
556.851,2451.05
557.353,2442.2
557.856,2472.2
558.358,2477.1
558.86,2456.5
559.362,2484.6
559.864,2474.35
560.366,2509.8
560.868,2524.65
561.37,2560.9
561.872,3297.0
562.374,4814.35
562.876,2647.45
563.377,2548.85
563.879,2562.65
564.38,2590.3
564.882,2765.0
565.383,2701.05
565.885,2586.35
566.386,2584.3
566.887,2603.1
567.388,2589.5
567.889,2557.35
568.391,2543.15
568.892,2546.65
569.392,2556.05
569.893,2566.85
570.394,2552.6
570.895,2541.85
571.395,2551.3
571.896,2553.75
572.397,2592.45
572.897,2572.85
573.397,2583.5
573.898,2565.9
574.398,2580.9
574.898,2565.35
575.398,2565.85
575.898,2600.05
576.398,2568.7
576.898,2597.3
577.398,2571.65
577.898,2585.85
578.398,2575.95
578.897,2568.35
579.397,2582.2
579.896,2592.9
580.396,2591.1
580.895,2600.6
581.395,2615.8
581.894,2614.25
582.393,2607.65
582.892,2642.3
583.391,2602.3
583.89,2633.85
584.389,2629.15
584.888,2607.45
585.387,2595.35
585.886,2587.1
586.384,2633.85
586.883,2613.6
587.381,2594.05
587.88,2598.9
588.378,2606.1
588.876,2551.05
589.375,2554.8
589.873,2560.3
590.371,2604.3
590.869,2599.15
591.367,2600.05
591.865,2603.05
592.363,2595.45
592.86,2616.75
593.358,2610.5
593.856,2611.4
594.353,2590.35
594.851,2593.45
595.348,2612.85
595.845,2601.0
596.342,2614.55
596.84,2621.85
597.337,2621.5
597.834,2617.85
598.331,2611.75
598.828,2629.1
599.324,2642.45
599.821,2613.2
600.318,2618.0
600.814,2612.3
601.311,2619.9
601.807,2618.25
602.304,2628.35
602.8,2635.5
603.296,2649.3
603.792,2655.05
604.288,2633.8
604.784,2636.2
605.28,2640.85
605.776,2634.7
606.272,2656.7
606.767,2661.95
607.263,2643.8
607.759,2630.05
608.254,2630.65
608.749,2635.95
609.245,2641.05
609.74,2653.0
610.235,2630.15
610.73,2644.4
611.225,2646.5
611.72,2634.8
612.215,2615.8
612.71,2634.35
613.204,2630.6
613.699,2615.5
614.194,2610.3
614.688,2636.05
615.182,2607.05
615.677,2623.75
616.171,2588.0
616.665,2623.9
617.159,2621.75
617.653,2623.7
618.147,2641.05
618.641,2635.7
619.135,2613.65
619.628,2635.6
620.122,2637.8
620.615,2619.75
621.109,2600.9
621.602,2627.75
622.095,2615.8
622.589,2632.65
623.082,2598.85
623.575,2621.35
624.068,2606.3
624.561,2604.2
625.053,2616.6
625.546,2594.9
626.039,2598.4
626.531,2607.0
627.024,2592.85
627.516,2591.15
628.008,2575.3
628.501,2620.05
628.993,2576.75
629.485,2581.6
629.977,2567.85
630.469,2594.0
630.96,2591.6
631.452,2583.35
631.944,2577.2
632.435,2598.7
632.927,2606.35
633.418,2573.45
633.91,2575.55
634.401,2583.0
634.892,2584.9
635.383,2599.3
635.874,2575.35
636.365,2586.15
636.856,2571.1
637.346,2611.45
637.837,2580.2
638.327,2600.9
638.818,2601.75
639.308,2583.05
639.799,2615.05
640.289,2636.9
640.779,2620.6
641.269,2657.3
641.759,2681.15
642.249,2722.4
642.738,2805.65
643.228,2848.75
643.718,2940.95
644.207,3092.15
644.697,3138.5
645.186,3114.85
645.675,3080.2
646.164,3080.3
646.653,3086.8
647.142,3099.75
647.631,3070.3
648.12,3073.15
648.609,3064.55
649.098,2998.0
649.586,2972.15
650.075,2974.95
650.563,2892.35
651.051,2815.8
651.539,2759.7
652.027,2717.65
652.515,2737.4
653.003,2715.85
653.491,2661.45
653.979,2653.95
654.467,2589.15
654.954,2554.9
655.442,2506.8
655.929,2458.3
656.416,2397.95
656.904,2438.9
657.391,2413.85
657.878,2393.55
658.365,2382.15
658.851,2368.3
659.338,2334.9
659.825,2342.2
660.311,2343.8
660.798,2312.6
661.041,2326.8