File: spectra/VLFR_08-PLA_bio_Raman_0f9108a0.csv
nm,Intensity
528.637,1834.8
529.143,1836.8
529.648,1838.6
530.153,1836.4
530.659,1838.5
531.164,1841.7
531.669,1884.8
532.174,3613.0
532.679,1837.7
533.184,1837.9
533.689,2063.2
534.194,2572.7
534.699,2515.4
535.203,2436.9
535.708,2379.3
536.213,2357.9
536.717,2375.0
537.222,2335.1
537.726,2367.0
538.231,2339.8
538.735,2303.3
539.24,2312.8
539.744,2284.0
540.248,2352.7
540.752,2374.4
541.256,2363.4
541.761,2344.0
542.265,2361.7
542.769,2338.8
543.272,2431.3
543.776,2462.5
544.28,2414.1
544.784,2379.4
545.288,2342.3
545.791,2354.1
546.295,2355.3
546.798,2379.5
547.302,2383.3
547.805,2392.7
548.308,2404.5
548.812,2394.4
549.315,2424.7
549.818,2425.1
550.321,2416.8
550.824,2439.1
551.327,2452.0
551.83,2509.4
552.333,2485.4
552.836,2509.5
553.339,2471.3
553.842,2544.2
554.344,2546.8
554.847,2510.0
555.349,2496.2
555.852,2482.4
556.354,2491.6
556.857,2497.3
557.359,2583.9
557.861,3034.4
558.363,2845.2
558.866,2609.3
559.368,2586.3
559.87,2547.2
560.372,2560.2
560.873,2560.8
561.375,2533.6
561.877,2559.4
562.379,2568.9
562.88,2641.9
563.382,2773.0
563.883,2678.1
564.385,2611.8
564.886,2743.3
565.388,2728.6
565.889,2819.2
566.39,2779.9
566.891,2634.4
567.392,2634.7
567.893,2669.7
568.394,2676.9
568.895,2689.9
569.396,2691.2
569.897,2644.7
570.398,2696.6
570.898,2683.5
571.399,2772.7
571.899,2801.5
572.4,2768.8
572.9,2769.9
573.4,2771.6
573.901,2757.2
574.401,2783.7
574.901,2729.1
575.401,2688.3
575.901,2752.7
576.401,2963.4
576.901,3080.0
577.401,2785.6
577.9,2716.6
578.4,2722.9
578.9,2706.1
579.399,2723.4
579.899,2708.7
580.398,2748.6
580.897,2757.3
581.397,2748.4
581.896,2718.7
582.395,2733.9
582.894,2756.9
583.393,2735.4
583.892,2746.1
584.391,2735.5
584.889,2737.2
585.388,2751.9
585.887,2742.4
586.385,2816.5
586.884,2988.2
587.382,3095.4
587.881,2916.9
588.379,2779.1
588.877,2788.3
589.375,2756.0
589.874,2742.9
590.372,2756.7
590.87,2747.9
591.367,2752.5
591.865,2743.5
592.363,2766.6
592.861,2749.9
593.358,2748.9
593.856,2718.0
594.353,2752.3
594.851,2724.5
595.348,2746.6
595.845,2739.4
596.342,2755.9
596.84,2763.5
597.337,2724.1
597.833,2761.7
598.33,2751.8
598.827,2756.4
599.324,2785.7
599.821,2736.0
600.317,2795.5
600.814,2753.1
601.31,2773.5
601.807,2768.8
602.303,2767.9
602.799,2774.9
603.295,2745.4
603.791,2762.9
604.287,2740.5
604.783,2764.5
605.279,2762.7
605.775,2746.1
606.271,2745.1
606.766,2732.8
607.262,2747.2
607.757,2744.2
608.253,2712.7
608.748,2753.9
609.243,2760.1
609.738,2755.6
610.233,2736.7
610.729,2760.8
611.223,2773.7
611.718,2748.1
612.213,2748.6
612.708,2731.3
613.202,2732.1
613.697,2739.4
614.192,2728.0
614.686,2729.2
615.18,2726.9
615.675,2775.5
616.169,2754.4
616.663,2729.0
617.157,2740.1
617.651,2731.0
618.145,2703.8
618.638,2734.2
619.132,2714.4
619.626,2723.6
620.119,2725.7
620.613,2717.7
621.106,2709.3
621.599,2709.1
622.093,2743.3
622.586,2773.4
623.079,2809.3
623.572,2764.7
624.065,2744.7
624.558,2698.9
625.05,2716.4
625.543,2709.4
626.036,2725.0
626.528,2719.3
627.02,2693.1
627.513,2710.0
628.005,2880.7
628.497,3142.7
628.989,3088.3
629.481,3063.0
629.973,3065.1
630.465,3484.6
630.957,5396.7
631.449,4427.6
631.94,3487.1
632.432,3327.9
632.923,3745.2
633.414,3876.5
633.906,3373.4
634.397,2894.2
634.888,2742.2
635.379,2667.8
635.87,2644.7
636.361,2652.7
636.852,2625.4
637.342,2599.1
637.833,2610.2
638.323,2598.7
638.814,2596.6
639.304,2579.1
639.794,2565.3
640.285,2573.4
640.775,2562.5
641.265,2575.7
641.755,2559.9
642.244,2595.7
642.734,2529.7
643.224,2552.6
643.713,2562.8
644.203,2546.1
644.692,2541.4
645.181,2527.5
645.671,2549.3
646.16,2493.1
646.649,2492.7
647.138,2491.5
647.627,2503.2
648.115,2473.8
648.604,2451.6
649.093,2452.3
649.581,2456.5
650.07,2472.7
650.558,2461.6
651.046,2439.3
651.534,2436.5
652.023,2424.8
652.511,2417.3
652.998,2389.5
653.486,2386.9
653.974,2412.9
654.462,2384.1
654.949,2349.2
655.437,2365.0
655.924,2366.2
656.411,2348.1
656.898,2366.7
657.385,2337.3
657.872,2350.7
658.359,2325.7
658.846,2321.5
659.333,2310.0
659.82,2298.2
660.306,2296.8
660.793,2303.2
661.036,2294.1