File: spectra/VLFR_06-PET_bio_Raman_da42305d.csv
nm,Intensity
528.635,1842.3
529.14,1841.3
529.645,1841.4
530.151,1842.1
530.656,1844.8
531.161,1846.8
531.666,1889.8
532.171,3735.2
532.676,1851.0
533.181,1864.7
533.686,4786.2
534.191,11141.6
534.696,9014.3
535.201,6652.1
535.705,4965.6
536.21,3889.4
536.715,3477.2
537.219,3322.1
537.724,3274.3
538.228,3302.0
538.733,3287.5
539.237,3346.9
539.741,3603.7
540.246,3341.6
540.75,3114.3
541.254,2973.9
541.758,3002.9
542.262,3003.0
542.766,3049.4
543.27,3024.5
543.774,3118.8
544.278,3075.6
544.781,3085.4
545.285,3124.1
545.789,3141.7
546.292,3194.2
546.796,3193.5
547.299,3166.5
547.803,3263.0
548.306,3297.8
548.809,3290.1
549.313,3272.4
549.816,3281.8
550.319,3565.4
550.822,4117.0
551.325,3456.0
551.828,3447.0
552.331,3461.2
552.834,4149.4
553.337,3570.4
553.839,3556.9
554.342,3647.9
554.845,3653.2
555.347,3995.4
555.85,4326.9
556.352,4455.5
556.854,4590.5
557.357,5935.6
557.859,5254.8
558.361,4921.8
558.863,4550.8
559.365,4167.1
559.867,4079.0
560.369,3981.4
560.871,4137.8
561.373,4208.9
561.875,4294.6
562.377,4450.5
562.878,4607.1
563.38,4653.5
563.881,4514.4
564.383,4566.6
564.884,5043.2
565.386,5756.5
565.887,6160.7
566.388,5127.0
566.889,4677.2
567.391,5049.3
567.892,5333.7
568.393,4819.4
568.893,4813.1
569.394,4947.3
569.895,5248.3
570.396,5900.2
570.897,7308.8
571.397,8500.1
571.898,6731.6
572.398,5702.2
572.899,5346.8
573.399,5288.8
573.899,5499.3
574.399,5526.5
574.9,5495.4
575.4,6003.5
575.9,5620.4
576.4,6007.7
576.899,5966.3
577.399,5590.9
577.899,5455.1
578.399,5621.2
578.898,5491.3
579.398,5723.2
579.897,5622.4
580.397,5889.5
580.896,6133.7
581.396,6609.8
581.895,12583.2
582.394,11189.8
582.893,6242.4
583.392,6055.9
583.891,6216.7
584.39,6234.9
584.889,6377.1
585.387,8074.4
585.886,12939.7
586.385,10433.1
586.883,6840.9
587.382,6550.4
587.88,6386.1
588.379,6258.1
588.877,6356.4
589.375,6282.9
589.873,6346.0
590.371,6326.9
590.869,6229.5
591.367,6305.0
591.865,6431.8
592.363,6369.6
592.86,6347.6
593.358,6405.1
593.856,6409.2
594.353,6477.3
594.851,6427.6
595.348,6525.5
595.845,6652.5
596.342,6630.2
596.84,6733.0
597.337,6620.2
597.834,6647.5
598.331,6646.2
598.827,6663.1
599.324,6683.0
599.821,6702.8
600.318,6636.1
600.814,6652.8
601.311,6705.1
601.807,6750.5
602.303,6724.0
602.8,6796.7
603.296,6741.4
603.792,6693.9
604.288,6710.8
604.784,6842.6
605.28,6692.2
605.776,6799.2
606.272,6902.9
606.767,6882.1
607.263,6871.1
607.758,6802.4
608.254,6899.3
608.749,6844.5
609.244,6798.6
609.74,6805.4
610.235,6989.3
610.73,6871.5
611.225,6719.0
611.72,6972.9
612.215,6972.6
612.709,6935.9
613.204,6967.6
613.699,6990.0
614.193,6990.6
614.688,6992.5
615.182,6960.8
615.676,6971.1
616.171,7059.5
616.665,7093.0
617.159,7071.1
617.653,7171.0
618.147,7242.1
618.641,7181.5
619.134,7280.6
619.628,7090.5
620.122,7196.3
620.615,7239.4
621.109,7170.7
621.602,7453.4
622.095,7243.7
622.588,7458.6
623.082,7357.5
623.575,7367.8
624.068,7475.6
624.56,7510.2
625.053,7543.0
625.546,7506.3
626.039,7541.5
626.531,7574.8
627.024,7600.2
627.516,7702.5
628.008,7720.3
628.501,7873.9
628.993,8136.8
629.485,8133.0
629.977,8133.7
630.469,8135.3
630.961,8719.6
631.452,9782.1
631.944,10065.3
632.436,9352.1
632.927,8973.0
633.418,8804.1
633.91,8796.5
634.401,8708.2
634.892,8406.1
635.383,8643.5
635.874,9342.7
636.365,10509.6
636.856,9884.2
637.347,8921.7
637.837,8731.6
638.328,8804.8
638.818,8505.8
639.309,8551.3
639.799,8613.7
640.289,8519.8
640.78,8497.9
641.27,8529.2
641.76,8494.2
642.249,8601.0
642.739,8595.5
643.229,8443.6
643.719,8507.2
644.208,8786.6
644.698,8454.2
645.187,8535.5
645.676,8710.7
646.165,8668.5
646.655,8581.1
647.144,8569.9
647.633,8602.5
648.121,8672.4
648.61,8426.8
649.099,8605.6
649.587,8361.5
650.076,8397.9
650.564,8658.3
651.053,8470.2
651.541,8154.0
652.029,8177.1
652.517,8102.7
653.005,8100.9
653.493,7778.5
653.981,7985.7
654.468,7970.5
654.956,8100.1
655.444,7835.2
655.931,7906.9
656.418,7726.7
656.906,7678.1
657.393,7682.2
657.88,7470.0
658.367,7526.4
658.854,7498.7
659.341,7373.1
659.827,7258.1
660.314,7276.1
660.8,7242.6
661.044,7147.3