File: spectra/VLFR_01-LDPE_bio_Raman_4301509b.csv
nm,Intensity
526.495,829.1
527.042,828.0
527.589,829.0
528.136,830.1
528.682,829.5
529.229,829.0
529.775,829.0
530.321,829.3
530.867,829.7
531.413,829.3
531.959,833.1
532.505,830.4
533.051,829.9
533.596,830.5
534.141,958.7
534.687,942.3
535.232,927.1
535.777,919.4
536.321,910.7
536.866,910.5
537.41,907.5
537.955,910.7
538.499,905.9
539.043,905.0
539.587,903.0
540.131,899.6
540.675,899.4
541.219,902.5
541.762,899.3
542.305,897.7
542.849,899.8
543.392,896.9
543.935,896.6
544.478,898.1
545.02,898.6
545.563,899.1
546.106,900.1
546.648,898.9
547.19,899.4
547.732,899.2
548.274,902.0
548.816,898.6
549.358,901.5
549.9,902.2
550.441,903.7
550.983,902.6
551.524,905.2
552.065,904.2
552.606,900.8
553.147,906.3
553.688,906.0
554.229,912.8
554.769,911.1
555.31,910.7
555.85,913.1
556.391,916.6
556.931,918.4
557.471,917.1
558.011,924.0
558.551,922.7
559.09,917.4
559.63,917.9
560.169,920.3
560.709,920.9
561.248,917.5
561.787,916.3
562.326,921.0
562.865,921.6
563.404,932.5
563.943,977.4
564.481,954.9
565.02,949.9
565.558,938.3
566.096,992.5
566.634,948.6
567.172,941.2
567.71,940.3
568.248,937.1
568.786,942.5
569.324,935.9
569.861,944.7
570.399,949.1
570.936,956.3
571.473,1036.8
572.01,990.6
572.547,959.5
573.084,959.8
573.621,963.4
574.158,963.3
574.694,957.5
575.231,960.3
575.767,999.8
576.303,1092.7
576.84,1049.0
577.376,1018.3
577.912,992.1
578.448,991.0
578.984,993.0
579.519,1007.5
580.055,1008.4
580.59,1008.3
581.126,1014.3
581.661,1018.3
582.196,1019.9
582.731,1017.8
583.267,1027.0
583.801,1023.8
584.336,1026.3
584.871,1030.1
585.406,1038.7
585.94,1045.8
586.475,1055.4
587.009,1072.1
587.543,1075.2
588.078,1087.0
588.612,1094.7
589.146,1104.6
589.68,1106.2
590.214,1114.9
590.747,1127.9
591.281,1137.4
591.815,1140.7
592.348,1145.5
592.881,1152.1
593.415,1150.7
593.948,1152.3
594.481,1155.4
595.014,1160.5
595.547,1170.5
596.08,1178.1
596.613,1184.5
597.146,1190.8
597.678,1200.2
598.211,1206.2
598.743,1210.7
599.276,1218.6
599.808,1231.0
600.34,1218.9
600.872,1224.3
601.404,1224.7
601.936,1224.2
602.468,1214.2
603.0,1208.4
603.532,1204.0
604.064,1189.3
604.595,1177.8
605.127,1162.8
605.658,1148.8
606.189,1136.1
606.721,1133.0
607.252,1120.7
607.783,1106.6
608.314,1109.3
608.845,1099.0
609.376,1088.7
609.907,1086.8
610.438,1077.7
610.968,1080.9
611.499,1071.8
612.029,1074.8
612.56,1066.1
613.09,1071.0
613.621,1066.6
614.151,1062.5
614.681,1056.9
615.211,1046.8
615.741,1043.4
616.271,1045.4
616.801,1037.2
617.331,1042.0
617.861,1037.0
618.39,1041.3
618.92,1040.2
619.45,1038.8
619.979,1042.3
620.509,1033.0
621.038,1040.5
621.567,1045.3
622.096,1060.6
622.626,1054.0
623.155,1031.4
623.684,1021.4
624.213,1023.6
624.742,1026.9
625.271,1028.9
625.799,1032.0
626.328,1052.6
626.857,1224.6
627.386,1661.5
627.914,1405.7
628.443,1568.6
628.971,1530.1
629.5,1426.6
630.028,1330.1
630.556,1305.0
631.084,1149.0
631.613,1078.3
632.141,1042.4
632.669,1027.6
633.197,1024.8
633.725,1017.7
634.253,1017.2
634.781,1015.3
635.308,1019.9
635.836,1017.8
636.364,1013.9
636.891,1018.2
637.419,1015.6
637.947,1014.8
638.474,1017.3
639.002,1018.9
639.529,1028.3
640.056,1025.4
640.584,1025.1
641.111,1027.0
641.638,1027.7
642.165,1028.1
642.692,1028.3
643.219,1029.4
643.746,1031.8
644.273,1028.6
644.8,1035.4
645.327,1027.0
645.854,1026.4
646.381,1028.0
646.908,1033.1
647.434,1028.6
647.961,1033.3
648.488,1030.3
649.014,1029.0
649.541,1025.5
650.067,1026.9
650.594,1024.8
651.12,1026.9
651.646,1020.4
652.173,1034.6
652.699,1023.9
653.225,1019.3
653.752,1025.6
654.278,1024.8
654.804,1021.2
655.33,1023.4
655.856,1022.9
656.382,1018.1
656.908,1014.9
657.434,1010.5
657.96,1014.5
658.486,1008.7
659.012,1010.5
659.538,997.4
660.064,997.1
660.589,989.7
661.115,984.7
661.641,982.6
662.166,976.8
662.692,971.7
663.086,967.6