File: spectra/VLFR_07-PET_bio_Raman_e7fd8492.csv
nm,Intensity
791.377,9219.36
792.477,8612.26
793.576,8265.56
794.676,8073.8
795.775,7912.36
796.874,7939.28
797.973,7908.14
799.072,7939.36
800.171,7888.94
801.27,7867.04
802.368,7885.54
803.467,7807.3
804.565,7693.96
805.664,7654.6
806.762,7548.48
807.86,7541.84
808.958,7477.9
810.056,7471.68
811.153,7431.1
812.251,7365.32
813.349,7275.92
814.446,7222.12
815.543,7132.82
816.64,7176.3
817.737,7099.74
818.834,7014.44
819.931,6956.7
821.028,6952.28
822.125,6871.22
823.221,6843.94
824.317,6788.2
825.414,6820.54
826.51,6897.62
827.606,6635.94
828.702,6668.64
829.797,6604.04
830.893,6676.92
831.988,6519.94
833.084,6538.74
834.179,6514.88
835.274,6407.48
836.369,6430.22
837.464,6485.34
838.559,6410.92
839.654,6406.2
840.748,6522.08
841.843,6585.18
842.937,6412.5
844.031,6350.8
845.125,6176.46
846.219,6139.46
847.313,6117.8
848.407,6052.26
849.5,5974.98
850.593,6055.7
851.687,6069.84
852.78,6144.78
853.873,5976.7
854.966,5943.24
856.059,5887.26
857.151,5809.28
858.244,5911.5
859.336,5991.8
860.428,5960.6
861.52,5914.78
862.612,5766.98
863.704,5788.64
864.796,5762.82
865.888,5724.04
866.979,5637.96
868.07,5654.02
869.162,5611.16
870.253,5684.72
871.344,5760.22
872.434,5857.42
873.525,5900.22
874.615,5736.24
875.706,5640.06
876.796,5551.5
877.886,5507.16
878.976,5481.36
880.066,5466.98
881.156,5490.36
882.245,5398.26
883.335,5456.2
884.424,5461.82
885.513,5378.08
886.602,5407.82
887.691,5347.76
888.78,5320.92
889.868,5266.82
890.957,5276.38
892.045,5227.36
893.133,5253.7
894.221,5168.52
895.309,5162.84
896.397,5164.76
897.484,5293.2
898.571,5719.92
899.659,5464.8
900.746,5084.46
901.833,4999.08
902.92,5005.36
904.006,4997.42
905.093,4947.26
906.179,5059.14
907.266,5284.38
908.352,5370.96
909.438,5105.0
910.523,4893.5
911.609,4807.52
912.695,4780.98
913.78,4776.16
914.865,4710.36
915.95,4731.36
917.035,4674.38
918.12,4659.3
919.204,4650.36
920.289,4622.86
921.373,4575.96
922.457,4564.78
923.541,4546.6
924.625,4522.24
925.709,4494.46
926.792,4492.08
927.876,4463.24
928.959,4426.92
930.042,4424.54
931.125,4400.66
932.208,4366.82
933.29,4365.92
934.373,4342.64
935.455,4313.4
936.537,4320.0
937.619,4299.42
938.701,4281.66
939.782,4256.42
940.864,4250.74
941.945,4242.26
943.026,4221.84
944.107,4193.92
945.188,4182.64
946.269,4176.5
947.349,4157.02
948.43,4145.3
949.51,4147.52
950.59,4126.04
951.67,4109.08
952.75,4103.94
953.829,4096.52
954.909,4088.68
955.988,4079.58
957.067,4055.8
958.146,4057.32
959.224,4056.72
960.303,4038.4
961.381,4026.34
962.459,4026.3
963.537,4015.76
964.615,4002.38
965.693,4000.76
966.771,3991.94
967.848,3984.22
968.925,3987.3
970.002,3978.64
971.079,3964.38
972.156,3957.14
973.232,3962.96
974.309,3949.84
975.385,3943.78
976.461,3943.24
977.537,3936.24
978.612,3928.48
979.688,3924.28
980.763,3926.46
981.838,3916.26
982.913,3910.28
983.988,3906.3
985.063,3904.0
986.137,3896.9
987.211,3900.96
988.285,3892.5
989.359,3891.14
990.433,3885.48
991.506,3880.24
992.58,3875.44
993.653,3872.02
994.726,3869.96
995.799,3868.04
996.872,3863.76
997.944,3861.02
999.016,3856.46
1000.09,3855.64
1001.16,3848.76
1002.23,3853.16
1003.3,3847.56
1004.38,3844.8
1005.45,3842.86
1006.52,3839.42
1007.59,3837.1
1008.66,3834.58
1009.73,3832.54
1010.8,3827.52
1011.87,3828.46
1012.94,3826.76
1014.01,3825.86
1015.08,3824.66
1016.15,3824.1
1017.22,3821.24
1018.29,3818.16
1019.36,3819.24
1020.42,3817.84
1021.49,3823.14
1022.56,3824.88
1023.63,3821.66
1024.7,3820.34
1025.76,3816.4
1026.83,3809.4
1027.9,3807.94
1028.97,3804.92
1030.03,3803.02
1031.1,3800.76
1032.17,3800.96
1033.23,3800.28
1034.3,3805.6
1035.36,3806.94
1036.43,3802.64
1037.5,3800.36
1038.56,3795.42
1039.63,3794.46
1040.69,3793.48
1041.76,3791.26
1042.82,3791.14
1043.89,3789.42
1044.95,3789.24
1046.01,3787.74
1047.08,3789.0
1048.14,3788.38
1049.2,3787.26
1050.27,3787.08
1051.33,3787.48
1052.39,3787.32
1053.46,3786.1
1054.52,3785.52
1055.58,3785.52
1056.64,3785.28
1057.7,3785.02
1058.77,3784.62
1059.83,3784.22
1060.89,3783.84
1061.95,3784.68
1063.01,3784.04
1064.07,3783.54
1065.13,3783.42
1066.19,3782.66
1067.25,3783.5
1068.05,3782.34