File: spectra/VLFR_01-LDPE_nobio_Raman_d0789ad3.csv
nm,Intensity
526.508,830.3
527.055,829.9
527.602,830.8
528.149,831.25
528.695,830.55
529.241,830.4
529.787,830.7
530.334,829.95
530.879,829.75
531.425,830.6
531.971,832.35
532.516,831.75
533.062,829.5
533.607,830.95
534.152,926.05
534.697,914.65
535.242,896.45
535.786,878.35
536.331,870.65
536.876,867.0
537.42,864.9
537.964,865.05
538.508,860.5
539.052,857.65
539.596,856.5
540.14,853.0
540.683,852.95
541.227,850.4
541.77,850.0
542.313,849.75
542.856,848.95
543.399,849.9
543.942,849.85
544.485,850.1
545.027,847.55
545.57,846.65
546.112,847.75
546.654,848.25
547.196,847.9
547.738,847.15
548.28,846.9
548.822,847.2
549.363,846.15
549.905,848.0
550.446,846.45
550.988,848.75
551.529,845.65
552.07,849.2
552.611,848.6
553.152,852.25
553.692,854.7
554.233,854.25
554.773,854.55
555.314,856.3
555.854,859.3
556.394,860.25
556.934,862.95
557.474,865.15
558.014,869.25
558.553,869.7
559.093,868.25
559.632,866.1
560.172,866.2
560.711,866.65
561.25,868.1
561.789,871.1
562.328,874.6
562.867,879.2
563.406,885.0
563.944,953.1
564.483,911.25
565.021,906.8
565.559,901.75
566.098,971.3
566.636,909.45
567.174,904.75
567.711,908.45
568.249,907.85
568.787,909.2
569.324,917.05
569.862,924.15
570.399,937.3
570.936,951.0
571.474,1069.85
572.011,1005.7
572.548,987.45
573.084,990.95
573.621,1006.5
574.158,1029.4
574.694,1038.75
575.231,1068.0
575.767,1137.0
576.303,1300.55
576.84,1263.4
577.376,1266.8
577.912,1251.7
578.447,1283.5
578.983,1335.85
579.519,1381.35
580.054,1434.2
580.59,1481.35
581.125,1530.2
581.661,1586.45
582.196,1641.35
582.731,1693.9
583.266,1742.5
583.801,1793.8
584.336,1844.7
584.87,1886.4
585.405,1941.2
585.94,1997.95
586.474,2078.55
587.008,2131.25
587.543,2205.1
588.077,2262.5
588.611,2324.7
589.145,2371.85
589.679,2442.5
590.213,2524.4
590.747,2579.4
591.28,2643.8
591.814,2688.75
592.347,2716.3
592.881,2725.65
593.414,2759.85
593.947,2795.25
594.48,2822.1
595.014,2855.95
595.547,2900.9
596.079,2944.6
596.612,2993.55
597.145,3047.05
597.678,3088.45
598.21,3149.05
598.743,3211.8
599.275,3244.0
599.807,3273.65
600.34,3277.3
600.872,3259.6
601.404,3259.65
601.936,3223.5
602.468,3194.75
603.0,3139.8
603.532,3075.35
604.063,2992.15
604.595,2893.05
605.126,2797.35
605.658,2682.8
606.189,2595.7
606.721,2521.8
607.252,2462.8
607.783,2399.5
608.314,2337.35
608.845,2287.2
609.376,2227.3
609.907,2191.7
610.438,2141.45
610.968,2102.1
611.499,2068.05
612.03,2032.6
612.56,2016.55
613.091,1994.95
613.621,1969.3
614.151,1935.95
614.681,1908.2
615.212,1873.95
615.742,1844.65
616.272,1814.6
616.802,1802.3
617.332,1792.45
617.861,1767.95
618.391,1751.05
618.921,1720.75
619.45,1712.65
619.98,1692.35
620.509,1680.3
621.039,1675.5
621.568,1672.75
622.097,1698.4
622.627,1694.75
623.156,1659.25
623.685,1647.15
624.214,1641.15
624.743,1636.75
625.272,1636.0
625.801,1629.4
626.33,1668.9
626.858,1958.2
627.387,2513.75
627.916,2162.7
628.444,2481.6
628.973,2232.3
629.501,2105.55
630.029,1971.75
630.558,1957.15
631.086,1805.55
631.614,1720.55
632.142,1695.7
632.67,1685.7
633.198,1693.1
633.726,1691.75
634.254,1698.75
634.782,1710.4
635.31,1714.05
635.838,1730.4
636.365,1746.75
636.893,1747.15
637.421,1759.2
637.948,1764.2
638.476,1773.25
639.003,1790.5
639.531,1804.6
640.058,1823.05
640.585,1829.0
641.113,1841.55
641.64,1858.5
642.167,1852.9
642.694,1869.75
643.221,1871.95
643.748,1876.3
644.275,1879.45
644.802,1873.5
645.329,1875.3
645.856,1879.85
646.382,1889.1
646.909,1889.15
647.436,1889.45
647.962,1887.55
648.489,1882.6
649.016,1880.5
649.542,1873.75
650.069,1874.0
650.595,1873.25
651.121,1879.85
651.648,1867.7
652.174,1877.6
652.7,1879.65
653.227,1883.15
653.753,1876.95
654.279,1879.95
654.805,1871.2
655.331,1856.4
655.857,1845.0
656.383,1816.4
656.909,1812.05
657.435,1796.9
657.961,1768.85
658.487,1753.85
659.013,1723.2
659.538,1695.35
660.064,1658.05
660.59,1631.0
661.116,1593.3
661.641,1569.3
662.167,1537.95
662.692,1511.3
663.087,1491.5