File: spectra/VLFR_02-HDPE_bio_Raman_add7e25f.csv
nm,Intensity
526.508,828.9
527.055,828.6
527.602,829.4
528.149,829.2
528.695,829.6
529.241,827.3
529.787,829.4
530.334,830.6
530.879,830.3
531.425,829.0
531.971,834.6
532.516,831.9
533.062,829.3
533.607,828.5
534.152,845.0
534.697,844.8
535.242,845.8
535.786,843.4
536.331,843.3
536.876,842.6
537.42,843.0
537.964,842.1
538.508,843.7
539.052,844.3
539.596,843.5
540.14,845.3
540.683,843.0
541.227,843.4
541.77,843.4
542.313,845.9
542.856,845.0
543.399,846.3
543.942,847.1
544.485,845.1
545.027,846.4
545.57,847.0
546.112,847.0
546.654,849.7
547.196,846.2
547.738,847.2
548.28,847.3
548.822,848.9
549.363,848.6
549.905,846.9
550.446,846.7
550.988,846.5
551.529,850.3
552.07,847.1
552.611,849.6
553.152,846.1
553.692,848.5
554.233,849.2
554.773,849.8
555.314,847.0
555.854,846.8
556.394,849.1
556.934,847.2
557.474,848.0
558.014,847.7
558.553,847.6
559.093,850.1
559.632,847.6
560.172,849.6
560.711,848.8
561.25,849.9
561.789,849.2
562.328,848.6
562.867,850.5
563.406,849.8
563.944,855.9
564.483,851.2
565.021,849.9
565.559,850.8
566.098,857.5
566.636,852.3
567.174,851.6
567.711,853.6
568.249,849.1
568.787,852.9
569.324,851.5
569.862,852.1
570.399,851.3
570.936,853.5
571.474,860.9
572.011,855.1
572.548,855.1
573.084,854.3
573.621,853.6
574.158,856.4
574.694,855.2
575.231,855.4
575.767,862.1
576.303,860.4
576.84,862.0
577.376,859.2
577.912,860.7
578.447,859.2
578.983,858.8
579.519,863.9
580.054,862.1
580.59,862.3
581.125,863.6
581.661,866.4
582.196,868.4
582.731,871.3
583.266,869.9
583.801,873.8
584.336,877.1
584.87,879.0
585.405,880.8
585.94,885.3
586.474,886.4
587.008,891.1
587.543,892.6
588.077,897.3
588.611,904.3
589.145,902.9
589.679,909.2
590.213,915.7
590.747,916.0
591.28,921.3
591.814,925.7
592.347,932.2
592.881,938.6
593.414,936.6
593.947,944.3
594.48,948.6
595.014,954.3
595.547,963.1
596.079,964.8
596.612,974.2
597.145,981.7
597.678,991.3
598.21,997.1
598.743,1003.4
599.275,1012.3
599.807,1011.1
600.34,1011.4
600.872,1013.5
601.404,1008.5
601.936,1011.3
602.468,1012.3
603.0,1009.4
603.532,1002.6
604.063,1000.4
604.595,992.6
605.126,987.2
605.658,979.4
606.189,970.4
606.721,968.8
607.252,965.0
607.783,963.2
608.314,961.6
608.845,957.3
609.376,951.7
609.907,947.2
610.438,942.5
610.968,939.6
611.499,935.5
612.03,936.0
612.56,937.7
613.091,930.9
613.621,930.1
614.151,930.6
614.681,924.9
615.212,920.7
615.742,917.9
616.272,917.8
616.802,911.7
617.332,916.1
617.861,915.8
618.391,909.8
618.921,910.6
619.45,904.5
619.98,906.3
620.509,903.1
621.039,901.9
621.568,903.7
622.097,899.3
622.627,900.3
623.156,899.2
623.685,897.2
624.214,895.6
624.743,895.0
625.272,893.1
625.801,893.4
626.33,894.4
626.858,899.8
627.387,918.1
627.916,905.0
628.444,910.5
628.973,906.7
629.501,902.5
630.029,896.0
630.558,893.1
631.086,890.0
631.614,883.9
632.142,884.7
632.67,886.3
633.198,883.8
633.726,881.9
634.254,884.6
634.782,885.8
635.31,884.9
635.838,886.4
636.365,888.5
636.893,886.3
637.421,887.1
637.948,881.5
638.476,886.2
639.003,890.8
639.531,887.6
640.058,888.1
640.585,889.1
641.113,893.5
641.64,893.0
642.167,892.0
642.694,897.2
643.221,896.4
643.748,898.6
644.275,896.7
644.802,900.0
645.329,900.3
645.856,901.7
646.382,901.8
646.909,903.1
647.436,904.2
647.962,902.4
648.489,905.2
649.016,906.6
649.542,906.5
650.069,908.6
650.595,909.9
651.121,908.9
651.648,911.2
652.174,911.6
652.7,914.3
653.227,913.7
653.753,915.1
654.279,913.5
654.805,916.9
655.331,914.0
655.857,915.8
656.383,910.1
656.909,911.4
657.435,910.3
657.961,908.8
658.487,907.2
659.013,905.2
659.538,905.7
660.064,901.4
660.59,899.1
661.116,893.7
661.641,896.8
662.167,889.8
662.692,890.8
663.087,887.9