File: spectra/VLFR_01-LDPE_nobio_Raman_3e7b0e4c.csv
nm,Intensity
526.5,829.3
527.047,829.0
527.594,830.6
528.14,828.2
528.687,827.3
529.233,828.7
529.779,829.7
530.325,829.0
530.871,829.5
531.417,829.9
531.962,835.5
532.508,831.2
533.053,829.2
533.599,829.5
534.144,861.5
534.689,855.6
535.234,855.2
535.778,852.3
536.323,849.9
536.867,850.0
537.412,846.8
537.956,848.6
538.5,846.4
539.044,846.4
539.588,846.0
540.132,845.7
540.675,847.8
541.219,851.1
541.762,847.3
542.305,851.9
542.848,852.9
543.391,851.1
543.934,850.0
544.477,851.0
545.02,852.4
545.562,852.1
546.105,852.6
546.647,852.5
547.189,852.1
547.731,848.7
548.273,845.9
548.815,850.4
549.356,849.8
549.898,849.5
550.439,849.5
550.981,849.7
551.522,848.2
552.063,847.6
552.604,846.4
553.145,848.7
553.686,845.1
554.226,846.6
554.767,847.1
555.307,848.7
555.848,847.7
556.388,850.2
556.928,849.3
557.468,850.0
558.008,851.6
558.547,851.4
559.087,853.3
559.626,851.7
560.166,851.7
560.705,851.2
561.244,853.5
561.783,851.5
562.322,855.1
562.861,856.8
563.4,857.6
563.939,864.6
564.477,859.7
565.015,866.0
565.554,863.4
566.092,869.5
566.63,860.3
567.168,857.8
567.706,857.2
568.244,855.6
568.781,855.1
569.319,854.7
569.857,856.2
570.394,857.7
570.931,861.4
571.468,866.4
572.005,866.6
572.542,862.5
573.079,863.3
573.616,861.0
574.153,868.6
574.689,864.1
575.226,862.7
575.762,866.6
576.298,878.4
576.834,875.2
577.371,870.1
577.907,867.4
578.442,867.4
578.978,866.0
579.514,871.7
580.049,867.6
580.585,871.2
581.12,870.2
581.656,869.6
582.191,872.9
582.726,876.0
583.261,875.9
583.796,881.0
584.331,882.4
584.865,883.2
585.4,885.2
585.935,888.4
586.469,892.8
587.004,892.7
587.538,901.9
588.072,904.6
588.606,904.9
589.14,906.8
589.674,912.1
590.208,918.8
590.742,924.0
591.275,927.9
591.809,928.9
592.342,933.9
592.876,937.1
593.409,942.0
593.942,949.2
594.476,955.3
595.009,960.5
595.542,967.5
596.075,980.1
596.607,990.5
597.14,998.7
597.673,1007.2
598.205,1013.7
598.738,1024.4
599.27,1035.6
599.803,1037.4
600.335,1040.3
600.867,1036.6
601.399,1045.8
601.931,1041.8
602.463,1038.3
602.995,1036.9
603.527,1031.0
604.058,1024.7
604.59,1018.8
605.122,1012.2
605.653,998.1
606.184,986.5
606.716,985.3
607.247,981.9
607.778,973.8
608.309,970.0
608.84,966.1
609.371,958.3
609.902,957.3
610.433,955.8
610.964,950.3
611.494,949.7
612.025,944.5
612.556,943.1
613.086,944.1
613.616,941.4
614.147,943.8
614.677,937.5
615.207,936.3
615.737,933.8
616.267,928.6
616.797,930.6
617.327,929.6
617.857,926.8
618.387,927.8
618.917,923.1
619.446,922.6
619.976,923.7
620.505,922.5
621.035,919.5
621.564,920.1
622.093,925.0
622.623,925.5
623.152,919.3
623.681,915.9
624.21,916.4
624.739,914.9
625.268,914.9
625.797,912.1
626.326,916.2
626.855,947.0
627.383,1006.6
627.912,971.7
628.441,1002.6
628.969,990.7
629.498,973.1
630.026,955.9
630.554,948.3
631.083,927.5
631.611,913.3
632.139,910.1
632.667,907.9
633.195,902.8
633.724,899.1
634.252,898.3
634.779,899.7
635.307,898.9
635.835,897.5
636.363,898.5
636.891,896.8
637.418,899.2
637.946,902.4
638.474,902.4
639.001,905.2
639.529,901.7
640.056,906.4
640.583,907.1
641.111,910.6
641.638,912.5
642.165,910.4
642.692,912.4
643.22,911.5
643.747,915.4
644.274,917.6
644.801,917.8
645.328,917.2
645.854,920.3
646.381,921.9
646.908,922.8
647.435,921.5
647.962,925.4
648.488,926.7
649.015,928.8
649.542,932.3
650.068,931.1
650.595,934.0
651.121,936.8
651.648,936.4
652.174,941.2
652.7,936.9
653.227,945.2
653.753,941.7
654.279,942.0
654.805,938.4
655.331,944.3
655.858,940.2
656.384,940.9
656.91,936.5
657.436,932.9
657.962,933.6
658.488,928.7
659.013,928.9
659.539,928.3
660.065,923.6
660.591,924.2
661.117,916.1
661.642,911.0
662.168,913.9
662.694,905.5
663.088,905.5