File: spectra/VLFR_01-LDPE_bio_Raman_dd81ee9b.csv
nm,Intensity
526.508,830.5
527.055,829.7
527.602,830.8
528.149,830.0
528.695,830.1
529.241,830.7
529.787,829.0
530.334,830.0
530.879,830.1
531.425,829.6
531.971,839.1
532.516,832.7
533.062,829.2
533.607,830.7
534.152,851.1
534.697,851.9
535.242,847.6
535.786,849.2
536.331,847.9
536.876,846.5
537.42,845.9
537.964,846.1
538.508,846.8
539.052,846.0
539.596,845.9
540.14,847.4
540.683,845.7
541.227,846.7
541.77,847.3
542.313,846.9
542.856,847.4
543.399,847.2
543.942,846.8
544.485,845.1
545.027,847.8
545.57,846.4
546.112,847.0
546.654,846.9
547.196,846.1
547.738,846.4
548.28,847.0
548.822,848.1
549.363,847.8
549.905,848.0
550.446,848.7
550.988,849.3
551.529,848.5
552.07,849.0
552.611,849.5
553.152,848.6
553.692,848.2
554.233,847.9
554.773,849.8
555.314,848.8
555.854,848.1
556.394,849.5
556.934,847.7
557.474,850.2
558.014,850.0
558.553,851.2
559.093,850.3
559.632,852.0
560.172,848.9
560.711,851.2
561.25,851.7
561.789,851.7
562.328,850.6
562.867,850.7
563.406,850.4
563.944,855.9
564.483,853.6
565.021,854.8
565.559,854.1
566.098,856.0
566.636,854.8
567.174,853.2
567.711,853.6
568.249,854.9
568.787,855.2
569.324,855.7
569.862,856.2
570.399,856.4
570.936,854.5
571.474,859.4
572.011,858.7
572.548,858.1
573.084,859.4
573.621,856.0
574.158,856.8
574.694,857.3
575.231,856.2
575.767,858.9
576.303,864.8
576.84,862.9
577.376,860.9
577.912,861.4
578.447,859.9
578.983,860.2
579.519,859.2
580.054,858.4
580.59,859.6
581.125,858.8
581.661,860.7
582.196,860.1
582.731,859.7
583.266,862.6
583.801,860.3
584.336,862.9
584.87,864.8
585.405,863.7
585.94,863.6
586.474,864.1
587.008,866.5
587.543,864.8
588.077,865.9
588.611,865.0
589.145,865.1
589.679,865.4
590.213,872.4
590.747,869.6
591.28,870.2
591.814,869.1
592.347,871.9
592.881,871.7
593.414,873.2
593.947,875.3
594.48,875.9
595.014,880.9
595.547,881.3
596.079,886.3
596.612,884.3
597.145,890.9
597.678,896.9
598.21,895.2
598.743,897.0
599.275,903.5
599.807,901.0
600.34,906.0
600.872,904.6
601.404,904.9
601.936,905.8
602.468,903.4
603.0,903.4
603.532,902.9
604.063,901.1
604.595,897.0
605.126,893.7
605.658,892.3
606.189,885.3
606.721,888.4
607.252,884.2
607.783,886.1
608.314,883.1
608.845,884.4
609.376,882.0
609.907,880.4
610.438,881.2
610.968,881.4
611.499,881.0
612.03,879.2
612.56,879.7
613.091,878.6
613.621,877.8
614.151,876.5
614.681,878.8
615.212,878.9
615.742,875.2
616.272,875.8
616.802,876.5
617.332,874.9
617.861,873.5
618.391,873.1
618.921,876.5
619.45,873.4
619.98,871.6
620.509,872.3
621.039,875.9
621.568,870.4
622.097,874.2
622.627,876.5
623.156,873.5
623.685,872.9
624.214,871.8
624.743,871.2
625.272,873.0
625.801,870.7
626.33,872.4
626.858,881.9
627.387,904.7
627.916,887.3
628.444,900.4
628.973,889.9
629.501,883.7
630.029,881.9
630.558,878.4
631.086,872.8
631.614,870.7
632.142,869.9
632.67,867.2
633.198,867.9
633.726,867.8
634.254,867.3
634.782,867.2
635.31,868.0
635.838,867.0
636.365,868.6
636.893,867.2
637.421,865.5
637.948,867.9
638.476,868.4
639.003,867.1
639.531,866.0
640.058,866.0
640.585,868.2
641.113,866.6
641.64,868.3
642.167,867.8
642.694,868.1
643.221,865.3
643.748,867.7
644.275,868.3
644.802,870.5
645.329,868.7
645.856,868.2
646.382,870.5
646.909,872.1
647.436,872.9
647.962,872.3
648.489,872.2
649.016,872.5
649.542,873.4
650.069,875.5
650.595,875.8
651.121,874.0
651.648,874.7
652.174,876.0
652.7,878.5
653.227,874.8
653.753,875.5
654.279,876.3
654.805,875.3
655.331,874.0
655.857,877.3
656.383,876.9
656.909,874.0
657.435,875.7
657.961,872.4
658.487,874.2
659.013,872.2
659.538,870.3
660.064,870.2
660.59,869.1
661.116,869.4
661.641,869.4
662.167,867.0
662.692,866.4
663.087,864.4