File: spectra/VLFR_02-HDPE_nobio_Raman_77980cb2.csv
cm-1,Intensity
-123.878,1852.65
-105.821,1852.9
-87.8007,1852.75
-69.8161,1853.6
-51.8675,1852.75
-33.9547,1855.5
-16.0776,1877.8
1.76388,3203.9
19.5698,1853.6
37.3403,1852.45
55.0755,1905.45
72.7754,2033.4
90.4402,2025.6
108.07,2020.0
125.665,1990.4
143.225,1976.85
160.75,1966.7
178.241,1971.35
195.697,1973.35
213.119,1969.15
230.506,1966.0
247.859,1961.05
265.178,1959.85
282.463,1960.2
299.713,1962.3
316.93,1964.8
334.113,1966.4
351.263,1965.3
368.379,1970.05
385.461,1971.15
402.51,1972.0
419.526,1971.0
436.508,1974.4
453.458,1976.15
470.374,1981.6
487.257,1976.3
504.107,1982.3
520.925,1979.35
537.71,1977.7
554.462,1980.0
571.182,1981.55
587.87,1979.45
604.525,1982.15
621.148,1982.95
637.739,1985.2
654.297,1984.5
670.824,1990.4
687.319,1985.0
703.782,1988.3
720.213,1997.25
736.613,1996.1
752.981,1998.75
769.317,2006.85
785.623,1997.3
801.897,2006.8
818.139,2003.5
834.351,2010.4
850.532,2019.75
866.681,2030.4
882.8,2019.85
898.888,2021.75
914.945,2019.6
930.972,2018.45
946.968,2017.55
962.934,2024.75
978.869,2018.25
994.774,2026.65
1010.65,2033.1
1026.49,2032.7
1042.31,2046.0
1058.09,2280.3
1073.85,2107.0
1089.57,2085.35
1105.27,2070.95
1120.93,2201.85
1136.57,2216.75
1152.18,2055.6
1167.75,2097.05
1183.3,2052.5
1198.82,2044.9
1214.31,2041.15
1229.77,2048.1
1245.2,2052.8
1260.6,2064.85
1275.97,2076.5
1291.32,2441.15
1306.63,2145.9
1321.92,2078.6
1337.18,2049.95
1352.41,2052.4
1367.61,2085.85
1382.78,2050.25
1397.93,2048.25
1413.05,2274.3
1428.14,2218.8
1443.2,2379.25
1458.23,2261.85
1473.23,2153.45
1488.21,2077.2
1503.16,2058.05
1518.08,2055.9
1532.97,2059.95
1547.84,2056.5
1562.68,2048.75
1577.49,2054.5
1592.27,2052.75
1607.03,2062.55
1621.76,2062.35
1636.46,2059.75
1651.14,2066.8
1665.78,2061.4
1680.41,2069.9
1695.0,2076.15
1709.57,2077.25
1724.11,2076.05
1738.62,2092.8
1753.11,2100.6
1767.57,2101.7
1782.01,2106.2
1796.41,2127.75
1810.8,2118.0
1825.15,2128.8
1839.48,2136.85
1853.79,2146.75
1868.06,2161.65
1882.31,2167.65
1896.54,2172.5
1910.74,2183.35
1924.91,2196.75
1939.06,2203.85
1953.19,2195.65
1967.28,2193.65
1981.35,2183.75
1995.4,2194.65
2009.42,2202.55
2023.42,2214.4
2037.39,2194.3
2051.33,2206.05
2065.25,2205.45
2079.15,2203.05
2093.01,2206.35
2106.86,2211.1
2120.68,2224.2
2134.47,2207.45
2148.24,2202.75
2161.99,2204.85
2175.71,2221.15
2189.41,2213.0
2203.08,2195.7
2216.73,2202.25
2230.35,2195.7
2243.95,2189.8
2257.52,2180.55
2271.07,2172.3
2284.6,2167.6
2298.1,2165.4
2311.58,2154.35
2325.03,2154.75
2338.46,2142.05
2351.87,2150.7
2365.25,2134.2
2378.61,2129.45
2391.94,2132.45
2405.26,2148.9
2418.54,2146.7
2431.81,2137.15
2445.05,2127.5
2458.27,2119.7
2471.46,2123.85
2484.63,2112.3
2497.78,2109.5
2510.9,2118.8
2524.0,2117.7
2537.08,2116.95
2550.14,2115.3
2563.17,2104.95
2576.18,2124.35
2589.17,2134.45
2602.13,2129.1
2615.07,2135.6
2627.99,2128.05
2640.89,2130.55
2653.76,2141.45
2666.61,2136.8
2679.44,2140.05
2692.25,2184.4
2705.03,2227.65
2717.79,2319.95
2730.53,2278.45
2743.25,2166.4
2755.94,2148.85
2768.61,2137.2
2781.27,2139.95
2793.89,2154.75
2806.5,2168.3
2819.09,2238.5
2831.65,2689.45
2844.19,4886.65
2856.71,4549.55
2869.21,3904.3
2881.69,5355.15
2894.14,3802.9
2906.58,3379.5
2918.99,3071.0
2931.38,2997.5
2943.75,2532.75
2956.1,2241.95
2968.42,2181.45
2980.73,2151.25
2993.01,2143.65
3005.28,2123.25
3017.52,2107.4
3029.74,2106.55
3041.94,2108.45
3054.12,2099.95
3066.28,2094.3
3078.42,2091.05
3090.54,2086.95
3102.63,2079.95
3114.71,2081.4
3126.77,2081.95
3138.8,2079.6
3150.82,2080.15
3162.81,2073.45
3174.78,2081.65
3186.74,2071.85
3198.67,2075.65
3210.58,2071.5
3222.47,2070.05
3234.35,2089.6
3246.2,2076.95
3258.03,2080.05
3269.84,2081.25
3281.64,2075.5
3293.41,2082.55
3305.16,2079.2
3316.89,2076.4
3328.61,2072.35
3340.3,2067.65
3351.97,2064.9
3363.63,2070.55
3375.26,2062.9
3386.88,2062.25
3398.47,2054.7
3410.05,2050.65
3421.6,2049.65
3433.14,2046.75
3444.66,2056.2
3456.15,2041.4
3467.63,2038.75
3479.09,2040.7
3490.53,2042.05
3501.96,2036.45
3513.36,2029.05
3524.74,2032.0
3536.11,2021.3
3547.45,2021.9
3558.78,2011.5
3570.09,2010.7
3581.37,2016.85
3592.64,2022.45
3603.9,2015.1
3615.13,2009.65
3626.34,1997.8
3637.54,2005.65
3648.72,2004.85
3659.87,1993.3
3665.45,1995.65