File: spectra/VLFR_02-HDPE_nobio_Raman_fa1e7a26.csv
nm,Intensity
526.486,830.4
527.033,829.1
527.579,831.0
528.126,829.9
528.672,829.4
529.219,830.2
529.765,829.6
530.311,828.8
530.857,828.1
531.403,829.5
531.948,834.0
532.494,831.2
533.039,829.4
533.585,828.8
534.13,858.4
534.675,859.4
535.22,854.9
535.764,848.7
536.309,844.2
536.854,844.2
537.398,843.3
537.942,842.2
538.486,842.9
539.03,844.2
539.574,844.5
540.118,840.7
540.662,839.3
541.205,840.1
541.749,840.4
542.292,840.7
542.835,840.0
543.378,840.4
543.921,840.1
544.464,840.5
545.006,840.3
545.549,838.9
546.091,839.3
546.634,841.3
547.176,840.4
547.718,840.4
548.26,841.2
548.802,840.0
549.343,839.3
549.885,839.4
550.426,841.8
550.968,841.1
551.509,842.0
552.05,843.4
552.591,840.1
553.132,841.2
553.673,841.8
554.214,841.2
554.754,842.8
555.295,842.3
555.835,842.4
556.375,844.3
556.915,842.8
557.455,843.6
557.995,846.2
558.535,845.5
559.075,842.9
559.614,844.6
560.154,843.1
560.693,844.4
561.232,842.2
561.772,846.2
562.311,844.7
562.85,845.1
563.388,849.5
563.927,871.5
564.466,857.4
565.004,852.7
565.543,849.6
566.081,880.0
566.619,852.4
567.157,848.8
567.695,854.3
568.233,848.2
568.771,850.4
569.309,850.4
569.846,850.5
570.384,853.5
570.921,857.1
571.458,896.4
571.995,864.7
572.532,857.6
573.069,856.5
573.606,859.2
574.143,865.9
574.68,859.6
575.216,865.4
575.753,881.5
576.289,927.3
576.825,899.1
577.361,893.9
577.897,869.9
578.433,871.0
578.969,877.0
579.505,875.6
580.041,879.1
580.576,878.1
581.112,884.8
581.647,889.2
582.183,891.2
582.718,891.2
583.253,894.1
583.788,898.5
584.323,897.0
584.858,902.9
585.392,904.6
585.927,905.7
586.462,910.4
586.996,913.2
587.53,918.9
588.065,919.5
588.599,925.0
589.133,931.2
589.667,929.0
590.201,941.1
590.735,942.0
591.268,943.5
591.802,946.7
592.335,954.0
592.869,955.4
593.402,956.6
593.936,961.7
594.469,964.7
595.002,970.6
595.535,975.4
596.068,986.9
596.601,985.3
597.133,996.9
597.666,995.6
598.199,1003.6
598.731,1006.1
599.264,1020.1
599.796,1022.1
600.328,1023.7
600.86,1024.5
601.393,1018.1
601.925,1025.7
602.457,1016.9
602.988,1019.6
603.52,1015.3
604.052,1012.1
604.583,1005.9
605.115,994.0
605.646,989.5
606.178,984.9
606.709,977.4
607.24,970.7
607.771,966.9
608.302,964.3
608.833,957.0
609.364,956.2
609.895,956.9
610.426,949.3
610.957,942.7
611.487,938.3
612.018,938.0
612.548,941.3
613.078,937.6
613.609,934.8
614.139,934.5
614.669,929.3
615.199,926.8
615.729,925.4
616.259,921.5
616.789,921.7
617.319,923.1
617.849,924.4
618.378,921.5
618.908,916.0
619.437,915.9
619.967,918.0
620.496,912.5
621.025,914.0
621.555,918.0
622.084,928.7
622.613,929.4
623.142,913.0
623.671,914.9
624.2,910.7
624.729,911.7
625.258,905.3
625.786,911.0
626.315,921.8
626.844,1011.9
627.372,1217.4
627.901,1077.3
628.429,1166.1
628.957,1111.1
629.486,1046.7
630.014,1000.9
630.542,994.8
631.07,946.4
631.598,911.9
632.126,903.0
632.654,904.0
633.182,905.0
633.71,901.9
634.237,899.2
634.765,900.7
635.293,898.3
635.82,900.0
636.348,897.5
636.875,902.2
637.403,894.4
637.93,899.2
638.458,901.0
638.985,901.1
639.512,900.3
640.039,900.2
640.566,900.9
641.093,900.0
641.62,901.9
642.147,897.9
642.674,902.3
643.201,903.8
643.728,903.5
644.255,904.3
644.781,906.2
645.308,903.2
645.835,906.2
646.361,909.4
646.888,907.3
647.414,908.8
647.941,906.5
648.467,909.9
648.993,905.4
649.52,905.3
650.046,908.6
650.572,910.7
651.098,905.7
651.625,913.3
652.151,913.6
652.677,914.8
653.203,913.3
653.729,917.0
654.255,911.8
654.78,912.5
655.306,909.7
655.832,908.9
656.358,909.2
656.884,911.9
657.409,908.5
657.935,910.4
658.461,906.6
658.986,905.5
659.512,902.2
660.037,902.0
660.563,901.7
661.088,898.9
661.614,894.5
662.139,891.4
662.664,890.1
663.058,886.7