File: spectra/VLFR_02-HDPE_bio_Raman_b5a98155.csv
nm,Intensity
526.494,834.5
527.041,834.3
527.588,834.2
528.135,835.1
528.682,833.1
529.229,834.4
529.775,833.3
530.321,833.8
530.868,834.3
531.414,834.5
531.96,847.7
532.506,837.1
533.051,833.0
533.597,835.0
534.142,918.0
534.687,914.2
535.232,913.0
535.777,880.1
536.322,872.1
536.867,869.2
537.411,867.2
537.956,868.0
538.5,865.8
539.044,861.3
539.588,862.4
540.132,858.3
540.676,858.9
541.22,855.6
541.763,857.4
542.306,860.1
542.85,857.4
543.393,857.6
543.936,858.4
544.479,856.0
545.021,859.9
545.564,858.4
546.106,858.0
546.649,859.3
547.191,856.4
547.733,859.5
548.275,859.3
548.817,861.8
549.359,861.1
549.9,859.6
550.442,859.3
550.983,860.7
551.524,859.0
552.066,863.1
552.607,861.8
553.148,861.5
553.688,862.6
554.229,864.5
554.77,863.7
555.31,864.5
555.85,866.1
556.39,866.2
556.931,865.2
557.471,868.5
558.01,870.8
558.55,872.7
559.09,867.4
559.629,869.5
560.169,871.9
560.708,870.3
561.247,870.3
561.786,875.3
562.325,873.0
562.864,873.2
563.403,877.0
563.941,960.1
564.48,894.3
565.018,889.1
565.557,885.1
566.095,944.4
566.633,886.2
567.171,882.3
567.709,891.6
568.247,882.0
568.784,881.4
569.322,882.9
569.859,888.1
570.397,892.7
570.934,898.8
571.471,1020.1
572.008,918.5
572.545,898.2
573.082,896.9
573.619,902.7
574.155,914.7
574.692,909.0
575.228,914.8
575.765,960.5
576.301,1078.4
576.837,1014.6
577.373,999.8
577.909,959.1
578.445,965.1
578.981,975.0
579.516,987.0
580.052,999.8
580.587,1012.8
581.123,1030.7
581.658,1039.6
582.193,1061.0
582.728,1075.4
583.263,1080.1
583.798,1094.8
584.333,1103.4
584.868,1119.1
585.402,1120.9
585.937,1131.7
586.471,1146.9
587.005,1142.5
587.54,1153.0
588.074,1147.2
588.608,1154.2
589.142,1158.3
589.676,1156.5
590.21,1167.8
590.743,1173.1
591.277,1172.4
591.81,1173.8
592.344,1180.6
592.877,1177.9
593.411,1182.8
593.944,1187.3
594.477,1183.5
595.01,1199.7
595.543,1201.7
596.076,1200.2
596.608,1211.4
597.141,1211.2
597.674,1203.0
598.206,1211.7
598.739,1211.3
599.271,1223.2
599.803,1219.1
600.335,1216.8
600.868,1210.4
601.4,1208.0
601.931,1220.5
602.463,1218.7
602.995,1205.4
603.527,1209.3
604.058,1199.6
604.59,1187.1
605.121,1184.3
605.653,1168.6
606.184,1162.9
606.715,1159.4
607.246,1147.4
607.778,1143.8
608.309,1144.8
608.839,1138.2
609.37,1126.0
609.901,1124.6
610.432,1116.1
610.962,1113.1
611.493,1111.2
612.023,1099.2
612.554,1103.9
613.084,1102.9
613.614,1097.5
614.145,1097.7
614.675,1083.7
615.205,1088.9
615.735,1078.6
616.265,1074.4
616.795,1076.0
617.324,1088.7
617.854,1069.7
618.384,1076.5
618.913,1074.5
619.443,1069.7
619.972,1066.9
620.502,1073.6
621.031,1069.9
621.56,1082.4
622.089,1121.8
622.618,1111.6
623.147,1070.8
623.676,1058.4
624.205,1057.6
624.734,1059.6
625.263,1059.1
625.792,1065.6
626.32,1114.4
626.849,1530.0
627.377,2150.7
627.906,1678.0
628.434,2100.8
628.963,1624.4
629.491,1487.7
630.019,1346.1
630.547,1315.3
631.076,1169.3
631.604,1080.8
632.132,1065.0
632.66,1058.7
633.188,1062.9
633.715,1052.7
634.243,1043.7
634.771,1045.4
635.299,1047.9
635.826,1046.9
636.354,1047.9
636.881,1048.0
637.409,1038.5
637.936,1038.4
638.464,1036.8
638.991,1045.6
639.518,1036.1
640.045,1045.7
640.573,1035.8
641.1,1033.1
641.627,1030.8
642.154,1033.9
642.681,1038.0
643.208,1033.9
643.735,1028.8
644.261,1030.5
644.788,1027.4
645.315,1026.2
645.842,1029.8
646.368,1029.7
646.895,1028.9
647.421,1027.3
647.948,1026.9
648.474,1030.2
649.001,1026.4
649.527,1021.6
650.054,1021.5
650.58,1024.5
651.106,1020.5
651.633,1022.4
652.159,1018.9
652.685,1018.7
653.211,1014.0
653.737,1013.0
654.263,1013.2
654.789,1010.3
655.315,1010.5
655.841,1005.2
656.367,1008.7
656.893,1005.0
657.419,1000.3
657.945,997.5
658.47,998.8
658.996,995.5
659.522,991.8
660.047,992.8
660.573,984.6
661.099,982.3
661.624,974.7
662.15,971.0
662.675,964.1
663.07,965.0