File: spectra/VLFR_02-HDPE_bio_Raman_4b7f04d8.csv
nm,Intensity
526.495,828.9
527.042,828.7
527.589,829.6
528.136,830.0
528.682,829.5
529.229,829.3
529.775,830.2
530.321,828.5
530.867,829.2
531.413,829.7
531.959,831.2
532.505,830.1
533.051,828.9
533.596,829.9
534.141,913.7
534.687,906.4
535.232,886.8
535.777,878.5
536.321,873.6
536.866,868.7
537.41,869.5
537.955,868.8
538.499,866.2
539.043,864.2
539.587,861.5
540.131,859.6
540.675,862.8
541.219,860.9
541.762,856.0
542.305,859.3
542.849,856.7
543.392,859.2
543.935,856.3
544.478,856.0
545.02,855.6
545.563,854.2
546.106,854.6
546.648,852.4
547.19,855.5
547.732,854.8
548.274,854.8
548.816,852.4
549.358,853.5
549.9,853.2
550.441,852.6
550.983,853.3
551.524,851.8
552.065,853.8
552.606,854.2
553.147,857.3
553.688,856.8
554.229,859.6
554.769,860.3
555.31,862.5
555.85,863.4
556.391,861.7
556.931,868.5
557.471,872.1
558.011,871.4
558.551,876.4
559.09,875.2
559.63,873.8
560.169,875.8
560.709,877.0
561.248,879.3
561.787,879.7
562.326,884.8
562.865,889.9
563.404,895.4
563.943,957.7
564.481,923.2
565.02,919.7
565.558,921.1
566.096,1006.8
566.634,924.2
567.172,924.2
567.71,926.5
568.248,937.4
568.786,937.9
569.324,947.3
569.861,959.1
570.399,971.0
570.936,984.0
571.473,1093.3
572.01,1036.4
572.547,1028.0
573.084,1033.0
573.621,1060.7
574.158,1083.0
574.694,1106.1
575.231,1133.3
575.767,1221.8
576.303,1315.3
576.84,1319.8
577.376,1335.2
577.912,1369.1
578.448,1421.0
578.984,1488.0
579.519,1546.8
580.055,1619.5
580.59,1694.9
581.126,1740.5
581.661,1815.9
582.196,1856.2
582.731,1918.2
583.267,1959.1
583.801,2006.6
584.336,2025.3
584.871,2066.6
585.406,2085.8
585.94,2121.9
586.475,2153.8
587.009,2180.2
587.543,2221.3
588.078,2243.3
588.612,2291.9
589.146,2320.6
589.68,2365.8
590.214,2411.5
590.747,2457.1
591.281,2486.4
591.815,2509.0
592.348,2526.1
592.881,2499.3
593.415,2521.9
593.948,2512.8
594.481,2539.6
595.014,2532.6
595.547,2533.8
596.08,2535.4
596.613,2555.8
597.146,2551.3
597.678,2563.0
598.211,2596.9
598.743,2595.0
599.276,2626.4
599.808,2627.7
600.34,2589.6
600.872,2589.8
601.404,2577.7
601.936,2550.3
602.468,2534.7
603.0,2466.9
603.532,2432.8
604.064,2381.4
604.595,2306.9
605.127,2238.3
605.658,2156.8
606.189,2096.4
606.721,2052.6
607.252,1996.6
607.783,1976.2
608.314,1937.2
608.845,1900.1
609.376,1861.0
609.907,1825.7
610.438,1784.0
610.968,1762.7
611.499,1739.3
612.029,1716.2
612.56,1700.5
613.09,1687.6
613.621,1660.7
614.151,1649.3
614.681,1636.0
615.211,1599.9
615.741,1586.6
616.271,1563.7
616.801,1544.3
617.331,1539.8
617.861,1526.2
618.39,1510.8
618.92,1497.8
619.45,1493.4
619.979,1480.7
620.509,1464.7
621.038,1463.5
621.567,1473.4
622.096,1480.7
622.626,1486.2
623.155,1467.8
623.684,1459.6
624.213,1454.6
624.742,1457.2
625.271,1466.1
625.799,1470.1
626.328,1482.6
626.857,1643.7
627.386,1972.4
627.914,1778.3
628.443,1914.8
628.971,1875.6
629.5,1804.3
630.028,1735.8
630.556,1719.5
631.084,1630.4
631.613,1586.8
632.141,1566.4
632.669,1558.9
633.197,1560.8
633.725,1558.6
634.253,1561.0
634.781,1566.3
635.308,1572.3
635.836,1574.9
636.364,1575.7
636.891,1579.2
637.419,1574.5
637.947,1575.3
638.474,1580.9
639.002,1592.1
639.529,1585.2
640.056,1598.5
640.584,1606.0
641.111,1612.9
641.638,1626.7
642.165,1624.4
642.692,1617.5
643.219,1611.6
643.746,1616.1
644.273,1616.0
644.8,1617.9
645.327,1612.6
645.854,1614.3
646.381,1607.1
646.908,1600.9
647.434,1610.8
647.961,1604.6
648.488,1591.0
649.014,1582.9
649.541,1575.6
650.067,1563.6
650.594,1555.6
651.12,1553.2
651.646,1549.1
652.173,1542.0
652.699,1543.5
653.225,1538.7
653.752,1536.0
654.278,1519.0
654.804,1524.5
655.33,1511.3
655.856,1499.6
656.382,1490.0
656.908,1484.1
657.434,1467.8
657.96,1451.6
658.486,1437.4
659.012,1419.8
659.538,1410.6
660.064,1378.4
660.589,1357.6
661.115,1334.3
661.641,1316.7
662.166,1288.7
662.692,1273.9
663.086,1266.2