File: spectra/VLFR_07-PET_nobio_Raman_b211c6d3.csv
nm,Intensity
791.75,13232.8
792.846,12476.5
793.942,12016.8
795.037,11916.3
796.133,11619.5
797.228,11645.0
798.324,11686.8
799.419,11591.0
800.514,11470.2
801.61,11520.0
802.705,11235.5
803.8,10886.0
804.894,11048.3
805.989,10701.5
807.084,10648.0
808.178,10551.8
809.273,10479.7
810.367,10288.2
811.461,10313.9
812.556,10254.0
813.65,10252.3
814.744,10136.3
815.837,10063.5
816.931,9941.9
818.025,9957.9
819.118,9758.7
820.212,9636.0
821.305,9626.4
822.398,9596.35
823.491,9434.7
824.585,9379.8
825.677,9627.95
826.77,9151.9
827.863,9106.5
828.956,9062.85
830.048,8876.1
831.14,8841.95
832.233,8689.55
833.325,8715.2
834.417,8475.6
835.509,8382.3
836.601,8531.6
837.692,8468.25
838.784,8353.65
839.876,8431.6
840.967,8710.95
842.058,8377.4
843.149,8173.5
844.24,8060.2
845.331,7829.25
846.422,7742.05
847.513,7692.25
848.604,7603.4
849.694,7622.0
850.784,7632.35
851.875,7602.5
852.965,7574.35
854.055,7471.3
855.145,7457.2
856.235,7321.25
857.324,7506.8
858.414,7458.75
859.503,7637.1
860.593,7367.8
861.682,7208.75
862.771,7185.15
863.86,7183.1
864.949,7184.95
866.038,6935.25
867.126,6959.4
868.215,6983.65
869.303,6905.5
870.391,7083.2
871.479,7210.55
872.567,7405.7
873.655,7177.9
874.743,6848.35
875.831,6801.85
876.918,6721.95
878.006,6604.35
879.093,6647.2
880.18,6589.1
881.267,6564.8
882.354,6500.55
883.441,6484.45
884.527,6520.4
885.614,6348.75
886.7,6378.5
887.786,6209.85
888.872,6210.9
889.958,6188.6
891.044,6113.4
892.13,6164.95
893.216,6033.15
894.301,5973.7
895.386,5959.15
896.472,5979.4
897.557,6618.55
898.642,6745.25
899.726,5954.55
900.811,5727.2
901.896,5658.95
902.98,5681.25
904.064,5570.0
905.148,5655.65
906.232,5899.25
907.316,6211.1
908.4,5910.35
909.484,5546.75
910.567,5418.8
911.65,5345.35
912.734,5257.05
913.817,5252.1
914.9,5226.05
915.982,5139.15
917.065,5134.05
918.147,5074.8
919.23,5055.95
920.312,5035.0
921.394,4946.75
922.476,4910.4
923.558,4926.1
924.639,4874.4
925.721,4828.2
926.802,4805.05
927.884,4784.2
928.965,4737.95
930.046,4713.8
931.126,4688.7
932.207,4643.15
933.288,4639.45
934.368,4573.8
935.448,4581.7
936.528,4537.75
937.608,4528.4
938.688,4491.05
939.767,4466.25
940.847,4450.8
941.926,4434.6
943.005,4403.4
944.084,4382.05
945.163,4361.6
946.242,4347.45
947.321,4328.1
948.399,4297.55
949.477,4278.2
950.556,4289.95
951.634,4246.45
952.711,4230.4
953.789,4208.75
954.867,4187.2
955.944,4194.55
957.021,4164.5
958.098,4160.1
959.175,4131.55
960.252,4128.75
961.328,4105.55
962.405,4090.0
963.481,4085.9
964.557,4060.4
965.633,4054.6
966.709,4049.45
967.785,4039.0
968.86,4017.25
969.936,4005.25
971.011,3997.3
972.086,3983.95
973.161,3985.75
974.235,3964.55
975.31,3960.45
976.384,3953.15
977.459,3943.5
978.533,3927.75
979.607,3933.0
980.68,3916.25
981.754,3915.5
982.827,3894.95
983.901,3895.6
984.974,3890.45
986.047,3885.65
987.119,3871.9
988.192,3872.15
989.264,3859.6
990.337,3856.95
991.409,3853.9
992.481,3837.35
993.553,3830.1
994.624,3834.15
995.696,3826.35
996.767,3816.55
997.838,3816.65
998.909,3814.75
999.98,3799.2
1001.05,3800.3
1002.12,3796.15
1003.19,3791.0
1004.26,3791.0
1005.33,3784.05
1006.4,3780.8
1007.47,3777.0
1008.54,3769.2
1009.61,3766.65
1010.68,3762.3
1011.75,3760.95
1012.82,3758.85
1013.88,3757.8
1014.95,3757.65
1016.02,3752.55
1017.09,3750.1
1018.16,3746.6
1019.22,3745.7
1020.29,3749.45
1021.36,3753.15
1022.43,3754.6
1023.49,3751.7
1024.56,3743.35
1025.63,3736.05
1026.69,3731.1
1027.76,3730.05
1028.83,3723.85
1029.89,3723.35
1030.96,3720.55
1032.02,3722.25
1033.09,3723.9
1034.15,3726.7
1035.22,3725.55
1036.28,3720.2
1037.35,3716.85
1038.41,3711.55
1039.48,3709.75
1040.54,3709.6
1041.6,3706.35
1042.67,3706.8
1043.73,3704.25
1044.79,3702.9
1045.86,3702.4
1046.92,3702.45
1047.98,3702.95
1049.05,3701.2
1050.11,3699.25
1051.17,3700.25
1052.23,3701.75
1053.29,3700.7
1054.36,3698.35
1055.42,3699.9
1056.48,3698.1
1057.54,3698.45
1058.6,3698.95
1059.66,3698.0
1060.72,3698.8
1061.78,3697.25
1062.84,3696.7
1063.9,3698.4
1064.96,3696.45
1066.02,3697.05
1067.08,3695.95
1067.88,3693.9