File: spectra/VLFR_07-PET_bio_Raman_6e0fda1f.csv
nm,Intensity
791.496,11502.3
792.594,10781.9
793.692,10364.2
794.79,10179.6
795.888,10022.3
796.986,10070.4
798.083,9937.0
799.181,10016.8
800.278,9884.5
801.375,9998.4
802.473,9796.9
803.57,9667.5
804.667,9635.4
805.764,9544.0
806.86,9538.0
807.957,9363.5
809.054,9323.2
810.15,9220.3
811.246,9187.7
812.343,9102.2
813.439,9017.1
814.535,8951.3
815.631,8882.1
816.727,8821.4
817.822,8659.7
818.918,8678.6
820.013,8424.3
821.109,8404.0
822.204,8345.4
823.299,8203.4
824.394,8146.3
825.489,8384.1
826.584,8056.2
827.679,7880.6
828.774,7900.8
829.868,7806.9
830.963,7810.8
832.057,7603.5
833.151,7592.9
834.245,7497.9
835.339,7536.6
836.433,7536.9
837.527,7555.0
838.621,7440.0
839.714,7374.4
840.808,7576.7
841.901,7399.9
842.994,7235.7
844.087,7094.0
845.18,6998.0
846.273,6988.0
847.366,6935.3
848.458,6872.9
849.551,6827.3
850.643,6795.9
851.735,6801.2
852.828,6691.8
853.92,6684.7
855.012,6655.5
856.103,6596.4
857.195,6551.7
858.287,6614.1
859.378,6687.2
860.469,6596.2
861.56,6459.2
862.651,6358.7
863.742,6430.5
864.833,6358.4
865.924,6282.7
867.014,6228.1
868.105,6168.0
869.195,6161.1
870.285,6251.1
871.376,6345.6
872.465,6415.0
873.555,6354.6
874.645,6154.1
875.735,6086.3
876.824,6002.7
877.913,5942.1
879.002,5914.1
880.092,5843.6
881.18,5880.8
882.269,5873.9
883.358,5813.7
884.446,5763.7
885.535,5764.1
886.623,5670.2
887.711,5657.1
888.799,5584.6
889.887,5594.7
890.975,5559.9
892.062,5521.8
893.15,5501.1
894.237,5453.3
895.325,5369.7
896.412,5440.0
897.499,5746.5
898.585,5800.0
899.672,5436.4
900.759,5261.4
901.845,5221.1
902.931,5161.2
904.017,5181.6
905.103,5165.9
906.189,5285.8
907.275,5508.8
908.361,5331.5
909.446,5106.7
910.531,5009.0
911.616,4937.2
912.701,4916.4
913.786,4876.4
914.871,4832.7
915.956,4813.3
917.04,4776.3
918.124,4763.3
919.209,4735.9
920.293,4693.8
921.376,4666.1
922.46,4665.3
923.544,4606.1
924.627,4603.5
925.711,4573.1
926.794,4544.1
927.877,4536.6
928.96,4508.5
930.042,4458.5
931.125,4467.0
932.207,4432.0
933.29,4380.7
934.372,4378.6
935.454,4342.4
936.536,4331.0
937.617,4321.7
938.699,4306.8
939.78,4280.9
940.861,4268.0
941.943,4249.5
943.023,4217.6
944.104,4205.2
945.185,4182.2
946.265,4178.9
947.346,4163.6
948.426,4127.3
949.506,4130.0
950.586,4120.6
951.665,4100.4
952.745,4098.0
953.824,4081.8
954.904,4063.6
955.983,4052.0
957.062,4038.9
958.141,4018.4
959.219,4022.1
960.298,4001.8
961.376,3997.0
962.454,3985.5
963.532,3970.4
964.61,3973.2
965.688,3955.1
966.765,3950.9
967.842,3941.3
968.92,3934.9
969.997,3926.8
971.074,3912.4
972.15,3912.3
973.227,3900.8
974.303,3892.0
975.379,3895.7
976.455,3883.7
977.531,3878.3
978.607,3869.0
979.683,3871.3
980.758,3856.9
981.833,3853.1
982.908,3857.1
983.983,3844.0
985.058,3835.6
986.133,3834.3
987.207,3832.3
988.281,3821.9
989.355,3821.3
990.429,3809.4
991.503,3809.8
992.577,3811.4
993.65,3802.8
994.723,3802.5
995.796,3798.7
996.869,3789.0
997.942,3790.2
999.014,3787.4
1000.09,3785.8
1001.16,3781.4
1002.23,3775.4
1003.3,3769.5
1004.37,3774.1
1005.45,3766.3
1006.52,3768.4
1007.59,3763.7
1008.66,3761.0
1009.73,3760.6
1010.8,3756.1
1011.87,3756.4
1012.94,3755.0
1014.01,3753.2
1015.08,3752.6
1016.15,3749.5
1017.22,3747.4
1018.29,3745.1
1019.36,3745.0
1020.43,3743.8
1021.5,3746.7
1022.57,3745.8
1023.64,3745.7
1024.7,3743.1
1025.77,3737.2
1026.84,3735.2
1027.91,3732.0
1028.97,3729.5
1030.04,3728.0
1031.11,3727.8
1032.18,3729.2
1033.24,3728.1
1034.31,3731.2
1035.38,3728.5
1036.44,3725.4
1037.51,3724.8
1038.58,3721.9
1039.64,3720.7
1040.71,3720.7
1041.77,3720.5
1042.84,3718.6
1043.9,3717.2
1044.97,3716.9
1046.03,3716.9
1047.1,3718.0
1048.16,3715.0
1049.22,3715.1
1050.29,3713.3
1051.35,3713.1
1052.42,3715.1
1053.48,3711.9
1054.54,3713.5
1055.61,3713.6
1056.67,3713.3
1057.73,3711.9
1058.79,3713.7
1059.86,3711.1
1060.92,3712.6
1061.98,3713.0
1063.04,3712.4
1064.1,3712.1
1065.16,3711.1
1066.22,3712.2
1067.29,3712.0
1068.08,3710.4