File: spectra/VLFR_06-PET_bio_Raman_fac35d69.csv
nm,Intensity
526.493,829.55
527.039,828.9
527.586,829.5
528.133,828.65
528.679,829.15
529.225,829.65
529.771,828.55
530.317,829.35
530.863,829.4
531.409,828.3
531.955,831.35
532.5,829.25
533.046,828.55
533.591,831.0
534.136,1039.0
534.681,1003.1
535.226,971.45
535.771,954.7
536.315,938.45
536.86,933.2
537.404,929.45
537.948,938.5
538.493,934.85
539.037,931.7
539.58,933.95
540.124,936.35
540.668,935.55
541.211,937.4
541.755,938.25
542.298,938.65
542.841,940.1
543.384,941.15
543.927,945.05
544.47,945.95
545.013,947.15
545.555,949.5
546.098,952.35
546.64,954.15
547.182,954.65
547.724,958.0
548.266,953.9
548.808,963.5
549.35,960.4
549.892,963.5
550.433,965.35
550.974,971.0
551.516,969.95
552.057,970.7
552.598,972.65
553.139,974.95
553.68,973.9
554.22,973.45
554.761,981.85
555.301,977.35
555.842,987.25
556.382,985.15
556.922,992.85
557.462,1004.15
558.002,995.25
558.542,991.05
559.082,990.75
559.621,991.7
560.161,994.85
560.7,996.1
561.239,995.25
561.778,1001.0
562.317,1002.35
562.856,1005.2
563.395,1008.55
563.934,1006.0
564.472,1012.85
565.011,1021.3
565.549,1023.8
566.088,1034.15
566.626,1018.25
567.164,1021.0
567.702,1026.4
568.24,1024.3
568.777,1029.25
569.315,1032.6
569.853,1035.75
570.39,1040.15
570.927,1054.7
571.465,1068.7
572.002,1052.95
572.539,1045.5
573.076,1052.7
573.612,1051.25
574.149,1057.15
574.686,1054.65
575.222,1061.5
575.759,1061.2
576.295,1065.65
576.831,1065.85
577.367,1072.15
577.903,1064.3
578.439,1066.35
578.975,1069.7
579.511,1069.9
580.046,1074.8
580.582,1074.2
581.117,1075.6
581.653,1084.85
582.188,1202.7
582.723,1088.8
583.258,1094.8
583.793,1081.85
584.328,1088.0
584.863,1089.7
585.398,1103.4
585.932,1151.4
586.467,1135.2
587.001,1103.1
587.535,1097.5
588.07,1095.8
588.604,1098.45
589.138,1099.6
589.672,1098.15
590.206,1104.05
590.739,1102.25
591.273,1103.75
591.807,1101.95
592.34,1108.95
592.873,1105.45
593.407,1103.75
593.94,1107.1
594.473,1108.4
595.006,1108.45
595.539,1110.3
596.072,1111.75
596.605,1116.45
597.138,1114.7
597.67,1116.85
598.203,1119.9
598.735,1124.2
599.268,1123.75
599.8,1123.55
600.332,1123.45
600.865,1129.45
601.397,1125.15
601.929,1125.65
602.46,1130.15
602.992,1128.6
603.524,1127.9
604.056,1132.5
604.587,1131.35
605.119,1129.6
605.65,1124.65
606.182,1123.0
606.713,1120.8
607.244,1123.3
607.775,1122.75
608.306,1128.85
608.837,1134.7
609.368,1133.1
609.899,1130.0
610.43,1125.9
610.961,1132.95
611.491,1134.45
612.022,1137.2
612.552,1137.35
613.083,1145.15
613.613,1146.85
614.143,1146.15
614.673,1144.15
615.203,1142.75
615.734,1141.85
616.263,1143.9
616.793,1144.6
617.323,1150.9
617.853,1149.8
618.383,1155.8
618.912,1152.15
619.442,1156.5
619.971,1149.45
620.501,1149.85
621.03,1153.45
621.56,1153.2
622.089,1157.0
622.618,1160.85
623.147,1164.25
623.676,1159.75
624.205,1166.75
624.734,1167.15
625.263,1168.05
625.792,1168.75
626.321,1171.7
626.849,1175.3
627.378,1172.7
627.906,1172.9
628.435,1174.5
628.963,1183.75
629.492,1184.2
630.02,1183.15
630.548,1186.0
631.077,1194.5
631.605,1209.55
632.133,1211.15
632.661,1205.8
633.189,1200.2
633.717,1203.35
634.245,1196.0
634.773,1194.5
635.3,1199.5
635.828,1207.85
636.356,1226.85
636.883,1223.55
637.411,1210.2
637.938,1214.05
638.466,1210.35
638.993,1214.4
639.521,1216.2
640.048,1217.3
640.575,1213.75
641.103,1214.75
641.63,1220.8
642.157,1222.2
642.684,1226.1
643.211,1218.25
643.738,1223.5
644.265,1222.15
644.792,1220.8
645.319,1219.65
645.845,1222.85
646.372,1228.25
646.899,1228.85
647.425,1231.05
647.952,1240.5
648.479,1244.55
649.005,1258.75
649.532,1274.7
650.058,1289.4
650.585,1309.2
651.111,1315.7
651.637,1297.75
652.164,1271.1
652.69,1249.6
653.216,1241.95
653.742,1232.6
654.268,1228.1
654.794,1222.5
655.32,1217.35
655.846,1212.9
656.372,1211.95
656.898,1212.2
657.424,1206.3
657.95,1202.3
658.476,1203.65
659.002,1202.25
659.528,1199.65
660.053,1201.4
660.579,1195.75
661.105,1187.2
661.63,1186.4
662.156,1184.9
662.681,1185.35
663.076,1184.1