File: spectra/VLFR_01-LDPE_bio_Raman_a3ffbb36.csv
nm,Intensity
528.65,1837.9
529.155,1837.43
529.66,1838.4
530.165,1837.63
530.67,1839.15
531.175,1839.13
531.68,1850.53
532.185,2195.4
532.69,1839.38
533.194,1839.78
533.699,1919.47
534.204,2038.13
534.708,2006.8
535.213,1975.72
535.717,1965.13
536.222,1945.85
536.726,1935.7
537.231,1937.68
537.735,1937.45
538.239,1931.8
538.743,1925.4
539.247,1916.43
539.751,1917.03
540.255,1910.68
540.759,1908.9
541.263,1908.8
541.767,1908.57
542.271,1910.93
542.775,1908.25
543.279,1905.68
543.782,1909.22
544.286,1907.82
544.789,1909.47
545.293,1904.65
545.796,1906.07
546.3,1908.43
546.803,1906.95
547.306,1907.25
547.81,1904.75
548.313,1903.68
548.816,1901.43
549.319,1901.5
549.822,1904.3
550.325,1901.97
550.828,1903.53
551.331,1903.45
551.834,1904.1
552.337,1901.1
552.839,1902.68
553.342,1916.5
553.844,1915.88
554.347,1918.43
554.849,1922.03
555.352,1923.15
555.854,1930.93
556.357,1936.0
556.859,1939.85
557.361,1951.32
557.863,1963.72
558.365,1968.55
558.867,1957.53
559.369,1949.5
559.871,1939.7
560.373,1943.1
560.875,1944.22
561.377,1948.88
561.878,1953.28
562.38,1962.75
562.881,1974.28
563.383,1995.95
563.884,2240.73
564.386,2074.4
564.887,2044.13
565.388,2031.13
565.89,2234.88
566.391,2197.25
566.892,2012.22
567.393,2003.7
567.894,1989.65
568.395,1990.8
568.896,1994.07
569.396,2004.0
569.897,2010.63
570.398,2030.07
570.898,2067.65
571.399,2569.98
571.9,2200.4
572.4,2094.6
572.9,2064.45
573.401,2072.7
573.901,2116.82
574.401,2074.32
574.901,2096.1
575.401,2270.1
575.901,2398.63
576.401,2590.4
576.901,2498.88
577.401,2314.7
577.901,2236.65
578.4,2247.68
578.9,2274.25
579.399,2302.52
579.899,2340.93
580.398,2374.4
580.898,2402.0
581.397,2434.98
581.896,2472.0
582.395,2501.68
582.895,2551.05
583.394,2594.0
583.893,2622.55
584.391,2659.32
584.89,2675.4
585.389,2711.52
585.888,2748.48
586.386,2782.57
586.885,2843.02
587.384,2895.57
587.882,2955.73
588.38,2990.73
588.879,3034.88
589.377,3078.52
589.875,3095.3
590.373,3142.43
590.871,3206.0
591.369,3251.3
591.867,3271.93
592.365,3295.65
592.863,3310.27
593.361,3333.63
593.858,3346.93
594.356,3347.3
594.853,3403.57
595.351,3427.07
595.848,3494.8
596.345,3507.63
596.843,3510.98
597.34,3588.93
597.837,3576.32
598.334,3603.15
598.831,3652.15
599.328,3710.07
599.824,3710.05
600.321,3711.52
600.818,3667.0
601.314,3685.43
601.811,3627.13
602.307,3614.32
602.804,3586.02
603.3,3540.73
603.796,3471.63
604.293,3436.48
604.789,3378.68
605.285,3310.63
605.781,3273.15
606.277,3191.98
606.772,3190.0
607.268,3094.38
607.764,3080.57
608.259,3042.82
608.755,3015.98
609.25,2974.15
609.746,2916.1
610.241,2902.27
610.736,2880.82
611.231,2890.7
611.727,2832.88
612.222,2799.23
612.716,2771.25
613.211,2756.9
613.706,2752.45
614.201,2718.1
614.695,2695.63
615.19,2675.63
615.684,2653.15
616.179,2647.43
616.673,2634.4
617.168,2639.02
617.662,2614.88
618.156,2614.5
618.65,2597.57
619.144,2590.6
619.638,2585.3
620.131,2569.23
620.625,2600.43
621.119,2594.82
621.612,2631.18
622.106,2706.85
622.599,2644.05
623.093,2568.7
623.586,2539.8
624.079,2549.1
624.572,2546.52
625.065,2533.5
625.558,2554.27
626.051,2596.98
626.544,2913.82
627.037,4563.35
627.529,4382.83
628.022,3950.32
628.514,4512.0
629.007,4072.9
629.499,3833.7
629.991,3501.85
630.483,3410.52
630.976,3023.45
631.468,2759.4
631.959,2668.18
632.451,2598.88
632.943,2588.15
633.435,2592.52
633.926,2558.5
634.418,2584.88
634.909,2570.68
635.401,2580.18
635.892,2578.8
636.383,2599.1
636.874,2578.6
637.365,2576.45
637.856,2594.27
638.347,2606.27
638.838,2612.63
639.329,2590.25
639.819,2626.27
640.31,2617.32
640.8,2625.3
641.291,2624.93
641.781,2616.9
642.271,2623.43
642.761,2611.13
643.251,2615.65
643.741,2643.48
644.231,2626.13
644.721,2626.3
645.211,2639.0
645.7,2613.25
646.19,2616.3
646.679,2625.43
647.169,2595.88
647.658,2601.23
648.147,2604.7
648.636,2610.35
649.125,2562.3
649.614,2596.0
650.103,2550.6
650.592,2573.45
651.08,2553.95
651.569,2540.3
652.058,2560.52
652.546,2521.0
653.034,2524.52
653.523,2515.82
654.011,2505.98
654.499,2500.93
654.987,2497.63
655.475,2473.45
655.963,2458.77
656.45,2446.93
656.938,2420.77
657.425,2409.18
657.913,2405.63
658.4,2366.95
658.888,2370.18
659.375,2316.52
659.862,2326.5
660.349,2288.93
660.836,2277.9
661.079,2270.25