File: spectra/VLFR_07-PET_nobio_Raman_8feda554.csv
nm,Intensity
791.75,11228.5
792.846,10568.0
793.942,10337.6
795.037,10159.0
796.133,9959.2
797.228,10087.1
798.324,9997.25
799.419,9938.7
800.514,9888.35
801.61,9794.1
802.705,9723.45
803.8,9525.45
804.894,9610.25
805.989,9333.8
807.084,9290.55
808.178,9291.55
809.273,9091.65
810.367,9186.35
811.461,8979.05
812.556,9054.95
813.65,8939.9
814.744,8895.05
815.837,8832.15
816.931,8691.6
818.025,8645.35
819.118,8611.65
820.212,8518.25
821.305,8402.2
822.398,8392.15
823.491,8271.3
824.585,8162.2
825.677,8413.3
826.77,8122.6
827.863,7948.15
828.956,7883.95
830.048,7908.4
831.14,7802.3
832.233,7581.6
833.325,7665.7
834.417,7503.4
835.509,7480.6
836.601,7482.2
837.692,7520.95
838.784,7319.3
839.876,7324.95
840.967,7567.95
842.058,7350.55
843.149,7220.1
844.24,7052.95
845.331,6916.4
846.422,6780.1
847.513,6834.95
848.604,6845.35
849.694,6695.9
850.784,6713.0
851.875,6667.9
852.965,6725.55
854.055,6606.55
855.145,6504.5
856.235,6561.05
857.324,6586.85
858.414,6641.0
859.503,6659.2
860.593,6579.5
861.682,6324.7
862.771,6327.7
863.86,6369.95
864.949,6325.1
866.038,6228.55
867.126,6179.35
868.215,6154.7
869.303,6158.0
870.391,6182.75
871.479,6396.95
872.567,6411.0
873.655,6348.8
874.743,6115.7
875.831,6029.95
876.918,5906.1
878.006,5912.75
879.093,5909.75
880.18,5831.0
881.267,5833.15
882.354,5774.65
883.441,5801.6
884.527,5780.75
885.614,5716.5
886.7,5635.4
887.786,5607.35
888.872,5583.5
889.958,5505.65
891.044,5564.65
892.13,5512.5
893.216,5418.75
894.301,5418.8
895.386,5404.4
896.472,5408.0
897.557,5868.1
898.642,5817.7
899.726,5400.3
900.811,5185.6
901.896,5190.95
902.98,5137.5
904.064,5126.3
905.148,5160.1
906.232,5271.7
907.316,5502.4
908.4,5339.65
909.484,5038.4
910.567,4982.5
911.65,4905.65
912.734,4908.95
913.817,4833.95
914.9,4802.1
915.982,4790.2
917.065,4745.25
918.147,4741.5
919.23,4708.6
920.312,4651.35
921.394,4648.1
922.476,4623.85
923.558,4589.45
924.639,4573.95
925.721,4521.85
926.802,4547.6
927.884,4501.2
928.965,4481.3
930.046,4455.7
931.126,4455.3
932.207,4397.4
933.288,4365.1
934.368,4359.0
935.448,4356.5
936.528,4316.8
937.608,4319.2
938.688,4296.85
939.767,4263.0
940.847,4248.65
941.926,4249.8
943.005,4210.35
944.084,4196.95
945.163,4177.3
946.242,4156.45
947.321,4158.6
948.399,4127.5
949.477,4134.0
950.556,4116.4
951.634,4098.85
952.711,4078.3
953.789,4071.4
954.867,4059.35
955.944,4046.85
957.021,4043.15
958.098,4031.3
959.175,4007.7
960.252,4001.3
961.328,3986.0
962.405,3982.45
963.481,3970.95
964.557,3960.15
965.633,3946.3
966.709,3952.75
967.785,3934.95
968.86,3923.3
969.936,3913.3
971.011,3919.6
972.086,3906.3
973.161,3890.75
974.235,3883.6
975.31,3884.3
976.384,3875.8
977.459,3871.85
978.533,3862.4
979.607,3856.3
980.68,3852.9
981.754,3844.5
982.827,3838.0
983.901,3833.35
984.974,3833.35
986.047,3828.5
987.119,3814.15
988.192,3812.7
989.264,3812.4
990.337,3805.6
991.409,3798.9
992.481,3791.1
993.553,3788.75
994.624,3787.1
995.696,3782.85
996.767,3777.9
997.838,3778.85
998.909,3775.8
999.98,3769.7
1001.05,3763.35
1002.12,3761.85
1003.19,3760.8
1004.26,3756.2
1005.33,3759.2
1006.4,3752.45
1007.47,3749.05
1008.54,3745.7
1009.61,3742.85
1010.68,3740.3
1011.75,3740.0
1012.82,3740.3
1013.88,3738.6
1014.95,3735.7
1016.02,3732.95
1017.09,3731.3
1018.16,3732.05
1019.22,3728.65
1020.29,3731.85
1021.36,3733.65
1022.43,3733.05
1023.49,3728.15
1024.56,3727.35
1025.63,3723.2
1026.69,3717.1
1027.76,3714.9
1028.83,3713.1
1029.89,3715.2
1030.96,3711.45
1032.02,3712.55
1033.09,3713.25
1034.15,3714.8
1035.22,3714.5
1036.28,3711.85
1037.35,3708.0
1038.41,3704.85
1039.48,3703.45
1040.54,3702.65
1041.6,3702.85
1042.67,3700.9
1043.73,3700.2
1044.79,3700.95
1045.86,3700.0
1046.92,3699.5
1047.98,3698.85
1049.05,3697.85
1050.11,3696.9
1051.17,3698.6
1052.23,3698.0
1053.29,3697.5
1054.36,3697.0
1055.42,3696.7
1056.48,3697.95
1057.54,3696.6
1058.6,3696.0
1059.66,3697.25
1060.72,3696.2
1061.78,3695.3
1062.84,3696.2
1063.9,3694.7
1064.96,3694.95
1066.02,3695.4
1067.08,3694.75
1067.88,3693.85