File: spectra/VLFR_01-LDPE_nobio_Raman_5f95f680.csv
nm,Intensity
526.486,830.7
527.033,830.4
527.579,830.8
528.126,830.8
528.672,829.0
529.219,829.7
529.765,831.8
530.311,830.2
530.857,829.4
531.403,831.1
531.948,831.8
532.494,830.7
533.039,828.9
533.585,830.6
534.13,904.9
534.675,893.8
535.22,877.1
535.764,868.2
536.309,860.5
536.854,857.7
537.398,857.8
537.942,855.7
538.486,855.5
539.03,855.1
539.574,850.7
540.118,847.8
540.662,850.2
541.205,847.3
541.749,845.9
542.292,848.9
542.835,846.1
543.378,847.2
543.921,846.3
544.464,847.4
545.006,847.3
545.549,843.1
546.091,845.0
546.634,841.8
547.176,843.0
547.718,846.5
548.26,843.0
548.802,844.0
549.343,844.1
549.885,844.3
550.426,840.6
550.968,845.0
551.509,842.4
552.05,840.9
552.591,843.4
553.132,846.3
553.673,847.6
554.214,845.2
554.754,845.6
555.295,843.8
555.835,849.0
556.375,849.4
556.915,848.2
557.455,854.1
557.995,854.8
558.535,855.3
559.075,852.9
559.614,850.6
560.154,850.5
560.693,850.4
561.232,849.7
561.772,852.5
562.311,851.9
562.85,856.8
563.388,860.7
563.927,904.3
564.466,880.4
565.004,872.7
565.543,867.4
566.081,914.4
566.619,871.5
567.157,865.6
567.695,867.6
568.233,862.1
568.771,860.4
569.309,864.6
569.846,866.2
570.384,872.1
570.921,879.3
571.458,947.6
571.995,914.4
572.532,889.6
573.069,886.6
573.606,884.5
574.143,897.2
574.68,890.8
575.216,901.3
575.753,940.6
576.289,1036.2
576.825,997.2
577.361,978.3
577.897,946.1
578.433,953.3
578.969,967.2
579.505,969.7
580.041,989.2
580.576,1001.7
581.112,1011.0
581.647,1026.6
582.183,1039.6
582.718,1049.6
583.253,1063.4
583.788,1065.8
584.323,1067.9
584.858,1081.7
585.392,1081.8
585.927,1087.4
586.462,1097.5
586.996,1100.4
587.53,1107.3
588.065,1118.8
588.599,1120.2
589.133,1123.8
589.667,1131.2
590.201,1134.0
590.735,1137.5
591.268,1145.4
591.802,1142.1
592.335,1151.2
592.869,1158.3
593.402,1145.0
593.936,1159.9
594.469,1143.7
595.002,1151.1
595.535,1145.3
596.068,1157.9
596.601,1157.4
597.133,1165.4
597.666,1161.1
598.199,1167.5
598.731,1184.9
599.264,1179.5
599.796,1178.2
600.328,1183.0
600.86,1178.8
601.393,1183.8
601.925,1170.4
602.457,1170.3
602.988,1157.8
603.52,1156.5
604.052,1143.1
604.583,1126.0
605.115,1113.7
605.646,1107.5
606.178,1085.1
606.709,1078.9
607.24,1073.4
607.771,1054.7
608.302,1054.6
608.833,1049.8
609.364,1038.7
609.895,1029.0
610.426,1025.1
610.957,1019.0
611.487,1013.2
612.018,1010.3
612.548,1005.5
613.078,1000.5
613.609,1003.5
614.139,997.2
614.669,997.7
615.199,989.3
615.729,987.1
616.259,984.8
616.789,989.7
617.319,987.5
617.849,984.5
618.378,979.2
618.908,980.7
619.437,981.1
619.967,980.7
620.496,978.4
621.025,985.4
621.555,995.3
622.084,1018.1
622.613,1017.5
623.142,991.7
623.671,981.9
624.2,979.2
624.729,984.1
625.258,985.5
625.786,989.7
626.315,1017.4
626.844,1233.5
627.372,1737.5
627.901,1449.0
628.429,1618.0
628.957,1501.1
629.486,1390.6
630.014,1282.5
630.542,1255.1
631.07,1133.4
631.598,1054.4
632.126,1032.1
632.654,1016.8
633.182,1008.8
633.71,1006.6
634.237,1008.1
634.765,1004.3
635.293,1001.0
635.82,1008.7
636.348,1004.3
636.875,1005.0
637.403,1005.9
637.93,1002.7
638.458,1001.3
638.985,998.0
639.512,1002.9
640.039,1000.0
640.566,1004.8
641.093,1007.5
641.62,1005.2
642.147,1007.2
642.674,1003.0
643.201,997.2
643.728,1002.6
644.255,1003.2
644.781,1004.3
645.308,1005.0
645.835,998.7
646.361,999.0
646.888,997.7
647.414,997.5
647.941,997.7
648.467,999.3
648.993,995.5
649.52,990.5
650.046,993.7
650.572,985.4
651.098,989.5
651.625,993.8
652.151,984.8
652.677,988.6
653.203,985.0
653.729,989.9
654.255,987.8
654.78,983.0
655.306,983.2
655.832,980.2
656.358,977.7
656.884,978.3
657.409,980.0
657.935,972.5
658.461,970.3
658.986,962.4
659.512,960.1
660.037,960.0
660.563,956.4
661.088,946.9
661.614,943.7
662.139,937.3
662.664,937.7
663.058,930.4