File: spectra/VLFR_08-PLA_nobio_Raman_bc328dfe.csv
cm-1,Intensity
-123.878,1853.65
-105.821,1851.8
-87.8007,1853.25
-69.8161,1852.95
-51.8675,1852.6
-33.9547,1853.75
-16.0776,1874.1
1.76388,2878.9
19.5698,1852.95
37.3403,1854.3
55.0755,1936.5
72.7754,2162.75
90.4402,2149.0
108.07,2157.0
125.665,2159.5
143.225,2138.9
160.75,2145.95
178.241,2141.0
195.697,2159.25
213.119,2140.4
230.506,2137.75
247.859,2147.5
265.178,2146.75
282.463,2154.65
299.713,2173.15
316.93,2166.85
334.113,2174.4
351.263,2172.75
368.379,2179.75
385.461,2201.15
402.51,2237.2
419.526,2206.4
436.508,2187.6
453.458,2192.9
470.374,2201.65
487.257,2193.85
504.107,2208.15
520.925,2213.55
537.71,2204.95
554.462,2219.45
571.182,2226.45
587.87,2225.45
604.525,2230.2
621.148,2215.2
637.739,2245.95
654.297,2240.7
670.824,2251.4
687.319,2249.4
703.782,2242.8
720.213,2257.45
736.613,2266.65
752.981,2269.95
769.317,2276.85
785.623,2266.45
801.897,2264.4
818.139,2261.6
834.351,2266.15
850.532,2284.4
866.681,2404.0
882.8,2367.05
898.888,2304.7
914.945,2291.75
930.972,2288.55
946.968,2293.4
962.934,2317.45
978.869,2306.65
994.774,2303.25
1010.65,2295.95
1026.49,2320.9
1042.31,2360.5
1058.09,2331.25
1073.85,2331.6
1089.57,2357.3
1105.27,2352.0
1120.93,2370.5
1136.57,2373.05
1152.18,2337.55
1167.75,2334.9
1183.3,2347.4
1198.82,2340.75
1214.31,2351.65
1229.77,2355.0
1245.2,2339.85
1260.6,2348.2
1275.97,2335.3
1291.32,2392.9
1306.63,2373.8
1321.92,2382.7
1337.18,2384.0
1352.41,2378.3
1367.61,2382.4
1382.78,2382.45
1397.93,2373.3
1413.05,2350.75
1428.14,2387.1
1443.2,2429.3
1458.23,2434.35
1473.23,2392.95
1488.21,2369.9
1503.16,2362.1
1518.08,2360.25
1532.97,2369.4
1547.84,2370.4
1562.68,2369.3
1577.49,2375.9
1592.27,2384.4
1607.03,2381.45
1621.76,2377.4
1636.46,2371.5
1651.14,2387.3
1665.78,2379.7
1680.41,2386.8
1695.0,2362.9
1709.57,2371.1
1724.11,2375.25
1738.62,2379.0
1753.11,2422.0
1767.57,2443.65
1782.01,2400.35
1796.41,2368.05
1810.8,2351.95
1825.15,2345.3
1839.48,2352.45
1853.79,2367.05
1868.06,2359.25
1882.31,2369.85
1896.54,2367.9
1910.74,2356.6
1924.91,2358.7
1939.06,2355.4
1953.19,2366.2
1967.28,2353.8
1981.35,2340.3
1995.4,2363.9
2009.42,2358.05
2023.42,2375.2
2037.39,2369.1
2051.33,2360.95
2065.25,2365.55
2079.15,2376.05
2093.01,2363.75
2106.86,2364.2
2120.68,2363.3
2134.47,2375.65
2148.24,2373.65
2161.99,2376.85
2175.71,2369.15
2189.41,2366.65
2203.08,2372.2
2216.73,2359.25
2230.35,2360.75
2243.95,2378.95
2257.52,2360.95
2271.07,2372.45
2284.6,2379.6
2298.1,2339.75
2311.58,2361.5
2325.03,2359.85
2338.46,2354.95
2351.87,2343.3
2365.25,2353.35
2378.61,2351.15
2391.94,2362.45
2405.26,2367.9
2418.54,2353.55
2431.81,2346.4
2445.05,2344.05
2458.27,2331.75
2471.46,2358.2
2484.63,2347.4
2497.78,2345.3
2510.9,2340.25
2524.0,2334.6
2537.08,2338.35
2550.14,2336.8
2563.17,2320.5
2576.18,2339.4
2589.17,2324.35
2602.13,2349.1
2615.07,2329.0
2627.99,2334.35
2640.89,2321.7
2653.76,2318.4
2666.61,2327.95
2679.44,2311.6
2692.25,2325.7
2705.03,2315.1
2717.79,2293.9
2730.53,2319.15
2743.25,2332.8
2755.94,2331.25
2768.61,2316.75
2781.27,2298.25
2793.89,2300.05
2806.5,2294.25
2819.09,2304.85
2831.65,2294.25
2844.19,2288.2
2856.71,2290.25
2869.21,2314.0
2881.69,2385.9
2894.14,2321.5
2906.58,2341.45
2918.99,2341.45
2931.38,2399.9
2943.75,2783.85
2956.1,2583.0
2968.42,2426.8
2980.73,2382.2
2993.01,2436.9
3005.28,2459.5
3017.52,2389.35
3029.74,2289.15
3041.94,2281.0
3054.12,2253.8
3066.28,2234.25
3078.42,2236.25
3090.54,2246.05
3102.63,2234.65
3114.71,2223.9
3126.77,2246.9
3138.8,2211.8
3150.82,2224.2
3162.81,2213.75
3174.78,2207.85
3186.74,2209.3
3198.67,2219.6
3210.58,2213.4
3222.47,2207.2
3234.35,2212.4
3246.2,2190.45
3258.03,2201.8
3269.84,2197.5
3281.64,2196.35
3293.41,2193.05
3305.16,2190.0
3316.89,2181.95
3328.61,2176.25
3340.3,2159.35
3351.97,2157.3
3363.63,2155.55
3375.26,2158.65
3386.88,2148.9
3398.47,2129.5
3410.05,2144.0
3421.6,2139.3
3433.14,2146.75
3444.66,2135.7
3456.15,2131.95
3467.63,2126.25
3479.09,2125.0
3490.53,2116.45
3501.96,2129.1
3513.36,2115.55
3524.74,2109.85
3536.11,2114.45
3547.45,2090.3
3558.78,2091.3
3570.09,2096.05
3581.37,2098.2
3592.64,2100.1
3603.9,2076.8
3615.13,2096.15
3626.34,2079.35
3637.54,2078.6
3648.72,2081.2
3659.87,2083.6
3665.45,2079.35