File: spectra/VLFR_07-PET_bio_Raman_f8488413.csv
nm,Intensity
791.377,15835.9
792.477,14525.9
793.576,13346.0
794.676,12926.1
795.775,12800.7
796.874,12617.5
797.973,12541.1
799.072,12660.2
800.171,12622.6
801.27,12598.9
802.368,12627.4
803.467,12141.1
804.565,12223.0
805.664,12085.5
806.762,11836.9
807.86,11746.1
808.958,11713.0
810.056,11585.2
811.153,11323.4
812.251,11328.2
813.349,11182.0
814.446,11139.4
815.543,11107.9
816.64,10903.7
817.737,10652.7
818.834,10556.6
819.931,10401.4
821.028,10390.4
822.125,10348.9
823.221,10082.9
824.317,10113.7
825.414,10237.5
826.51,10043.5
827.606,9922.4
828.702,9642.02
829.797,9610.0
830.893,9862.5
831.988,9516.14
833.084,9323.1
834.179,9293.72
835.274,9287.12
836.369,9247.54
837.464,9202.1
838.559,9227.2
839.654,9250.22
840.748,9291.56
841.843,9417.06
842.937,9045.3
844.031,8856.6
845.125,8672.0
846.219,8438.92
847.313,8418.86
848.407,8351.34
849.5,8289.04
850.593,8313.88
851.687,8214.6
852.78,8107.88
853.873,8122.06
854.966,7995.66
856.059,7905.76
857.151,7866.92
858.244,7959.58
859.336,7953.7
860.428,8102.72
861.52,7823.7
862.612,7722.86
863.704,7576.62
864.796,7672.34
865.888,7464.32
866.979,7372.88
868.07,7438.98
869.162,7368.28
870.253,7465.32
871.344,7469.26
872.434,7851.76
873.525,7857.16
874.615,7460.0
875.706,7293.08
876.796,7112.02
877.886,7033.72
878.976,6959.58
880.066,6947.56
881.156,6935.16
882.245,6948.76
883.335,6910.58
884.424,6794.02
885.513,6821.98
886.602,6740.34
887.691,6650.52
888.78,6640.52
889.868,6601.32
890.957,6494.74
892.045,6588.5
893.133,6472.18
894.221,6402.7
895.309,6392.9
896.397,6286.78
897.484,6570.96
898.571,7334.96
899.659,6860.52
900.746,6165.78
901.833,6052.42
902.92,6005.08
904.006,5958.28
905.093,6018.08
906.179,6135.18
907.266,6633.54
908.352,6568.76
909.438,6143.1
910.523,5860.08
911.609,5679.98
912.695,5665.9
913.78,5580.22
914.865,5504.38
915.95,5499.44
917.035,5400.26
918.12,5404.86
919.204,5362.02
920.289,5275.8
921.373,5268.42
922.457,5243.96
923.541,5204.64
924.625,5164.26
925.709,5123.7
926.792,5081.52
927.876,5000.78
928.959,5024.38
930.042,4975.6
931.125,4914.18
932.208,4892.9
933.29,4866.9
934.373,4818.76
935.455,4816.08
936.537,4762.18
937.619,4716.48
938.701,4720.68
939.782,4660.78
940.864,4668.6
941.945,4633.42
943.026,4590.5
944.107,4564.1
945.188,4544.96
946.269,4527.06
947.349,4477.46
948.43,4498.24
949.51,4459.06
950.59,4420.68
951.67,4411.46
952.75,4406.72
953.829,4390.44
954.909,4341.72
955.988,4331.58
957.067,4319.78
958.146,4295.92
959.224,4297.1
960.303,4270.26
961.381,4250.76
962.459,4251.76
963.537,4206.64
964.615,4200.14
965.693,4205.16
966.771,4173.3
967.848,4166.7
968.925,4149.7
970.002,4139.28
971.079,4139.48
972.156,4119.16
973.232,4112.92
974.309,4080.4
975.385,4090.56
976.461,4092.42
977.537,4056.66
978.612,4060.08
979.688,4044.78
980.763,4042.1
981.838,4030.56
982.913,4012.28
983.988,4018.94
985.063,4002.66
986.137,4001.4
987.211,3988.9
988.285,3991.48
989.359,3973.72
990.433,3969.64
991.506,3953.08
992.58,3950.28
993.653,3946.44
994.726,3936.84
995.799,3935.84
996.872,3926.88
997.944,3918.52
999.016,3916.2
1000.09,3911.36
1001.16,3904.36
1002.23,3903.06
1003.3,3897.98
1004.38,3889.6
1005.45,3884.86
1006.52,3881.02
1007.59,3874.54
1008.66,3874.74
1009.73,3870.48
1010.8,3861.86
1011.87,3858.5
1012.94,3855.68
1014.01,3856.38
1015.08,3853.54
1016.15,3850.72
1017.22,3851.5
1018.29,3844.82
1019.36,3842.68
1020.42,3841.62
1021.49,3846.38
1022.56,3850.68
1023.63,3848.62
1024.7,3841.74
1025.76,3833.36
1026.83,3829.06
1027.9,3825.98
1028.97,3818.0
1030.03,3814.54
1031.1,3812.04
1032.17,3811.78
1033.23,3812.14
1034.3,3815.38
1035.36,3818.18
1036.43,3814.56
1037.5,3808.9
1038.56,3802.34
1039.63,3800.24
1040.69,3797.68
1041.76,3796.08
1042.82,3795.46
1043.89,3794.08
1044.95,3792.72
1046.01,3790.24
1047.08,3791.38
1048.14,3790.24
1049.2,3788.84
1050.27,3787.32
1051.33,3788.1
1052.39,3788.38
1053.46,3786.88
1054.52,3786.58
1055.58,3787.66
1056.64,3785.04
1057.7,3785.38
1058.77,3784.62
1059.83,3784.96
1060.89,3784.0
1061.95,3784.08
1063.01,3783.42
1064.07,3783.38
1065.13,3782.46
1066.19,3782.26
1067.25,3781.76
1068.05,3780.66