File: spectra/VLFR_01-LDPE_nobio_Raman_00fb209f.csv
nm,Intensity
526.5,828.6
527.047,828.7
527.594,828.9
528.14,828.5
528.687,827.6
529.233,828.3
529.779,828.7
530.325,828.1
530.871,829.2
531.417,828.8
531.962,834.4
532.508,829.8
533.053,827.9
533.599,827.9
534.144,899.1
534.689,888.8
535.234,872.2
535.778,862.0
536.323,857.0
536.867,854.9
537.412,854.2
537.956,852.3
538.5,851.5
539.044,851.2
539.588,848.7
540.132,847.9
540.675,846.7
541.219,848.2
541.762,845.8
542.305,845.2
542.848,844.1
543.391,844.6
543.934,844.5
544.477,843.5
545.02,843.4
545.562,843.8
546.105,842.6
546.647,843.2
547.189,842.7
547.731,841.7
548.273,842.3
548.815,842.4
549.356,841.3
549.898,843.0
550.439,840.2
550.981,841.6
551.522,841.7
552.063,840.8
552.604,842.6
553.145,843.5
553.686,845.2
554.226,842.6
554.767,844.8
555.307,843.8
555.848,845.8
556.388,846.7
556.928,848.5
557.468,849.0
558.008,852.5
558.547,853.6
559.087,851.6
559.626,850.4
560.166,849.6
560.705,847.4
561.244,851.3
561.783,850.7
562.322,850.9
562.861,855.2
563.4,857.7
563.939,899.3
564.477,873.1
565.015,868.2
565.554,865.0
566.092,900.8
566.63,867.6
567.168,866.0
567.706,867.4
568.244,861.8
568.781,863.9
569.319,865.4
569.857,869.3
570.394,872.7
570.931,879.4
571.468,947.1
572.005,906.2
572.542,890.7
573.079,888.7
573.616,892.3
574.153,899.5
574.689,901.1
575.226,905.9
575.762,934.8
576.298,1034.7
576.834,997.3
577.371,977.7
577.907,952.3
578.442,951.8
578.978,959.3
579.514,969.6
580.049,975.6
580.585,986.4
581.12,988.3
581.656,1001.7
582.191,1013.5
582.726,1017.3
583.261,1024.7
583.796,1031.9
584.331,1034.5
584.865,1046.8
585.4,1054.6
585.935,1068.1
586.469,1077.7
587.004,1085.1
587.538,1101.6
588.072,1111.6
588.606,1125.5
589.14,1131.8
589.674,1146.8
590.208,1168.9
590.742,1173.2
591.275,1187.0
591.809,1191.3
592.342,1201.8
592.876,1196.3
593.409,1217.3
593.942,1223.4
594.476,1231.1
595.009,1238.0
595.542,1260.4
596.075,1272.0
596.607,1278.8
597.14,1296.5
597.673,1318.3
598.205,1335.7
598.738,1351.0
599.27,1375.9
599.803,1375.3
600.335,1379.9
600.867,1382.9
601.399,1376.1
601.931,1369.9
602.463,1363.9
602.995,1352.8
603.527,1334.8
604.058,1322.2
604.59,1290.4
605.122,1266.1
605.653,1243.4
606.184,1227.6
606.716,1208.4
607.247,1185.8
607.778,1174.9
608.309,1159.8
608.84,1159.8
609.371,1140.3
609.902,1127.6
610.433,1129.2
610.964,1107.3
611.494,1101.5
612.025,1101.0
612.556,1093.9
613.086,1086.1
613.616,1089.3
614.147,1086.1
614.677,1080.5
615.207,1071.2
615.737,1064.9
616.267,1053.7
616.797,1055.6
617.327,1056.8
617.857,1055.7
618.387,1056.0
618.917,1050.0
619.446,1044.8
619.976,1040.7
620.505,1040.4
621.035,1049.5
621.564,1052.2
622.093,1078.2
622.623,1073.5
623.152,1045.1
623.681,1041.9
624.21,1040.5
624.739,1035.4
625.268,1039.0
625.797,1046.4
626.326,1072.1
626.855,1312.6
627.383,1758.7
627.912,1476.3
628.441,1681.9
628.969,1502.9
629.498,1414.6
630.026,1302.4
630.554,1270.0
631.083,1151.9
631.611,1080.5
632.139,1056.2
632.667,1043.3
633.195,1045.5
633.724,1040.1
634.252,1038.7
634.779,1038.3
635.307,1036.7
635.835,1040.5
636.363,1039.5
636.891,1036.1
637.418,1040.7
637.946,1043.9
638.474,1045.5
639.001,1044.9
639.529,1046.4
640.056,1053.9
640.583,1056.0
641.111,1058.6
641.638,1060.3
642.165,1060.7
642.692,1067.4
643.22,1063.4
643.747,1065.2
644.274,1068.7
644.801,1070.9
645.328,1069.8
645.854,1075.3
646.381,1073.4
646.908,1076.4
647.435,1080.5
647.962,1073.7
648.488,1081.0
649.015,1080.0
649.542,1082.5
650.068,1083.6
650.595,1084.1
651.121,1089.6
651.648,1085.0
652.174,1090.0
652.7,1087.4
653.227,1093.4
653.753,1100.8
654.279,1101.2
654.805,1095.3
655.331,1089.6
655.858,1094.5
656.384,1084.3
656.91,1079.1
657.436,1077.6
657.962,1075.0
658.488,1066.9
659.013,1059.2
659.539,1052.5
660.065,1046.4
660.591,1035.4
661.117,1027.5
661.642,1020.1
662.168,1014.0
662.694,1001.7
663.088,998.5