File: spectra/VLFR_01-LDPE_bio_Raman_1445115d.csv
nm,Intensity
526.508,828.2
527.055,832.0
527.602,830.0
528.149,831.1
528.695,830.2
529.241,830.6
529.787,829.0
530.334,830.0
530.879,828.9
531.425,830.9
531.971,835.9
532.516,829.8
533.062,829.9
533.607,829.8
534.152,858.9
534.697,855.7
535.242,852.7
535.786,851.4
536.331,849.0
536.876,850.4
537.42,847.1
537.964,849.7
538.508,848.2
539.052,846.7
539.596,846.1
540.14,847.0
540.683,845.7
541.227,844.7
541.77,844.4
542.313,845.8
542.856,845.0
543.399,843.7
543.942,842.9
544.485,842.1
545.027,843.0
545.57,841.0
546.112,842.3
546.654,841.1
547.196,842.3
547.738,840.7
548.28,840.8
548.822,840.2
549.363,841.5
549.905,841.9
550.446,840.2
550.988,843.2
551.529,841.6
552.07,842.8
552.611,840.9
553.152,841.0
553.692,841.0
554.233,841.5
554.773,840.6
555.314,843.3
555.854,842.5
556.394,842.9
556.934,843.8
557.474,844.3
558.014,841.7
558.553,844.6
559.093,845.0
559.632,844.6
560.172,844.3
560.711,845.2
561.25,842.9
561.789,844.2
562.328,847.6
562.867,848.6
563.406,847.8
563.944,857.0
564.483,851.4
565.021,850.5
565.559,851.0
566.098,862.2
566.636,851.2
567.174,850.4
567.711,850.7
568.249,851.0
568.787,850.1
569.324,850.0
569.862,851.8
570.399,852.4
570.936,852.1
571.474,871.3
572.011,860.9
572.548,853.6
573.084,855.2
573.621,853.9
574.158,854.2
574.694,853.8
575.231,855.6
575.767,860.3
576.303,881.3
576.84,873.1
577.376,864.8
577.912,859.1
578.447,863.9
578.983,860.8
579.519,864.6
580.054,865.5
580.59,868.6
581.125,871.2
581.661,870.4
582.196,871.1
582.731,873.5
583.266,875.8
583.801,880.2
584.336,879.8
584.87,885.2
585.405,889.9
585.94,889.0
586.474,897.5
587.008,899.4
587.543,907.2
588.077,908.5
588.611,911.9
589.145,917.0
589.679,923.8
590.213,927.2
590.747,931.5
591.28,942.3
591.814,939.7
592.347,946.9
592.881,949.3
593.414,958.1
593.947,971.2
594.48,973.2
595.014,985.5
595.547,995.6
596.079,1000.6
596.612,1018.6
597.145,1027.5
597.678,1038.3
598.21,1053.2
598.743,1065.9
599.275,1079.3
599.807,1077.1
600.34,1083.6
600.872,1087.1
601.404,1083.0
601.936,1083.0
602.468,1081.7
603.0,1076.5
603.532,1070.3
604.063,1061.7
604.595,1050.8
605.126,1036.1
605.658,1024.3
606.189,1019.8
606.721,1009.4
607.252,1001.3
607.783,989.6
608.314,993.1
608.845,984.8
609.376,982.0
609.907,974.1
610.438,969.5
610.968,970.8
611.499,963.4
612.03,961.1
612.56,954.5
613.091,953.9
613.621,955.6
614.151,949.3
614.681,949.6
615.212,946.2
615.742,938.7
616.272,941.4
616.802,933.2
617.332,936.5
617.861,936.5
618.391,937.4
618.921,929.3
619.45,927.7
619.98,926.2
620.509,926.6
621.039,920.4
621.568,923.9
622.097,931.1
622.627,927.0
623.156,925.1
623.685,918.5
624.214,911.2
624.743,914.9
625.272,913.7
625.801,917.6
626.33,920.0
626.858,971.1
627.387,1062.7
627.916,1000.9
628.444,1047.7
628.973,1003.9
629.501,989.7
630.029,967.5
630.558,959.1
631.086,929.5
631.614,912.5
632.142,906.3
632.67,903.4
633.198,902.8
633.726,904.3
634.254,900.2
634.782,902.1
635.31,901.7
635.838,900.8
636.365,903.5
636.893,905.1
637.421,905.0
637.948,905.7
638.476,908.4
639.003,906.0
639.531,908.0
640.058,907.6
640.585,912.0
641.113,911.5
641.64,915.2
642.167,919.3
642.694,919.3
643.221,919.1
643.748,922.5
644.275,925.0
644.802,925.5
645.329,923.9
645.856,926.5
646.382,932.4
646.909,933.3
647.436,937.5
647.962,938.7
648.489,940.8
649.016,943.5
649.542,944.5
650.069,944.3
650.595,945.1
651.121,950.8
651.648,953.1
652.174,956.0
652.7,956.3
653.227,959.1
653.753,962.4
654.279,962.5
654.805,960.7
655.331,961.4
655.857,959.3
656.383,955.6
656.909,958.4
657.435,954.8
657.961,955.1
658.487,951.1
659.013,946.5
659.538,939.4
660.064,938.3
660.59,932.3
661.116,930.3
661.641,927.3
662.167,923.8
662.692,915.4
663.087,919.2