File: spectra/VLFR_08-PLA_bio_Raman_cb4574df.csv
nm,Intensity
528.626,1858.6
529.132,1858.7
529.637,1860.0
530.143,1858.2
530.648,1858.7
531.153,1863.8
531.658,1895.1
532.164,4960.3
532.669,1863.8
533.174,1863.5
533.679,2297.7
534.184,3479.7
534.689,3096.3
535.194,2887.6
535.699,2684.7
536.203,2608.8
536.708,2661.9
537.213,2529.7
537.717,2563.7
538.222,2436.0
538.726,2395.9
539.231,2376.3
539.735,2279.6
540.239,2355.2
540.744,2495.0
541.248,2458.5
541.752,2370.9
542.256,2347.1
542.76,2355.1
543.264,2543.8
543.768,2713.3
544.272,2520.1
544.776,2352.0
545.28,2286.3
545.784,2258.8
546.287,2277.7
546.791,2285.7
547.294,2315.8
547.798,2274.3
548.301,2307.5
548.805,2323.2
549.308,2309.4
549.811,2313.8
550.315,2317.8
550.818,2372.5
551.321,2368.7
551.824,2409.6
552.327,2422.0
552.83,2414.1
553.333,2358.5
553.835,2450.5
554.338,2435.6
554.841,2376.7
555.343,2325.2
555.846,2307.9
556.349,2308.7
556.851,2334.7
557.353,2542.6
557.856,3529.6
558.358,3168.1
558.86,2545.7
559.362,2504.2
559.864,2435.4
560.366,2386.6
560.868,2361.2
561.37,2360.6
561.872,2376.7
562.374,2373.6
562.876,2528.1
563.377,2868.5
563.879,2632.1
564.38,2471.9
564.882,2714.7
565.383,2709.5
565.885,2957.1
566.386,2854.0
566.887,2481.9
567.388,2442.7
567.889,2548.8
568.391,2490.6
568.892,2495.3
569.392,2484.0
569.893,2452.4
570.394,2460.0
570.895,2490.7
571.395,2688.5
571.896,2750.3
572.397,2629.6
572.897,2647.4
573.397,2659.0
573.898,2648.6
574.398,2691.5
574.898,2545.1
575.398,2489.5
575.898,2509.3
576.398,2975.3
576.898,3332.4
577.398,2664.9
577.898,2511.1
578.398,2466.1
578.897,2458.4
579.397,2448.1
579.896,2455.6
580.396,2437.1
580.895,2438.0
581.395,2436.9
581.894,2451.6
582.393,2432.5
582.892,2453.1
583.391,2445.8
583.89,2474.3
584.389,2475.2
584.888,2461.8
585.387,2470.0
585.886,2492.1
586.384,2601.8
586.883,2944.1
587.381,3210.6
587.88,2907.6
588.378,2540.3
588.876,2458.7
589.375,2469.8
589.873,2443.2
590.371,2450.1
590.869,2426.1
591.367,2451.3
591.865,2456.1
592.363,2462.6
592.86,2462.0
593.358,2464.6
593.856,2444.9
594.353,2453.0
594.851,2444.3
595.348,2452.2
595.845,2431.5
596.342,2462.5
596.84,2454.4
597.337,2444.6
597.834,2451.9
598.331,2441.5
598.828,2463.0
599.324,2453.0
599.821,2474.5
600.318,2445.2
600.814,2463.6
601.311,2456.9
601.807,2475.7
602.304,2458.8
602.8,2462.3
603.296,2476.4
603.792,2455.9
604.288,2447.8
604.784,2435.1
605.28,2443.7
605.776,2464.7
606.272,2462.8
606.767,2449.4
607.263,2462.5
607.759,2470.2
608.254,2471.1
608.749,2467.2
609.245,2439.6
609.74,2492.3
610.235,2457.5
610.73,2434.0
611.225,2467.6
611.72,2443.7
612.215,2446.3
612.71,2450.6
613.204,2459.9
613.699,2451.5
614.194,2462.9
614.688,2455.5
615.182,2446.9
615.677,2466.9
616.171,2461.3
616.665,2475.7
617.159,2483.2
617.653,2467.9
618.147,2452.6
618.641,2423.3
619.135,2432.4
619.628,2462.9
620.122,2454.6
620.615,2452.1
621.109,2436.7
621.602,2440.9
622.095,2495.5
622.589,2545.4
623.082,2594.5
623.575,2556.2
624.068,2511.6
624.561,2475.3
625.053,2466.6
625.546,2446.0
626.039,2446.0
626.531,2438.6
627.024,2444.7
627.516,2517.1
628.008,2764.1
628.501,3327.2
628.993,3042.7
629.485,3092.9
629.977,3145.4
630.469,3853.9
630.96,7136.1
631.452,5644.9
631.944,3914.7
632.435,3635.1
632.927,4224.5
633.418,4517.9
633.91,3690.4
634.401,2902.4
634.892,2580.6
635.383,2471.3
635.874,2405.8
636.365,2389.4
636.856,2369.5
637.346,2376.1
637.837,2363.4
638.327,2353.1
638.818,2336.9
639.308,2329.2
639.799,2328.7
640.289,2351.9
640.779,2341.1
641.269,2342.7
641.759,2337.9
642.249,2318.2
642.738,2305.7
643.228,2312.1
643.718,2310.7
644.207,2283.5
644.697,2285.8
645.186,2270.8
645.675,2278.5
646.164,2259.3
646.653,2260.5
647.142,2261.7
647.631,2238.5
648.12,2240.9
648.609,2228.1
649.098,2236.8
649.586,2218.8
650.075,2225.1
650.563,2226.8
651.051,2229.9
651.539,2212.1
652.027,2203.2
652.515,2205.3
653.003,2194.3
653.491,2184.3
653.979,2187.5
654.467,2188.4
654.954,2166.5
655.442,2168.9
655.929,2182.0
656.416,2176.7
656.904,2163.1
657.391,2195.2
657.878,2154.5
658.365,2154.9
658.851,2122.2
659.338,2153.9
659.825,2125.1
660.311,2135.3
660.798,2152.5
661.041,2118.4