File: spectra/VLFR_07-PET_nobio_Raman_2daa0a53.csv
cm-1,Intensity
109.24,7881.15
126.699,7414.55
144.108,7171.3
161.468,7024.35
178.779,6981.15
196.04,6919.15
213.253,6933.7
230.417,6903.85
247.532,6895.4
264.599,6858.05
281.618,6843.85
298.59,6768.4
315.513,6704.7
332.389,6722.35
349.218,6638.35
365.999,6545.7
382.734,6513.2
399.422,6532.95
416.064,6468.25
432.659,6424.7
449.208,6310.05
465.711,6260.8
482.168,6200.65
498.579,6152.65
514.946,6051.05
531.267,6099.25
547.542,6034.55
563.773,5986.25
579.96,5892.4
596.102,5865.5
612.199,5847.4
628.252,5994.5
644.261,5753.2
660.227,5720.85
676.149,5642.85
692.027,5700.15
707.862,5661.4
723.654,5588.5
739.403,5587.95
755.109,5516.7
770.773,5529.05
786.394,5543.35
801.973,5511.6
817.509,5522.7
833.004,5501.5
848.457,5603.2
863.868,5539.15
879.238,5449.0
894.567,5352.6
909.854,5319.7
925.1,5260.9
940.306,5246.1
955.471,5212.6
970.595,5169.55
985.679,5162.6
1000.72,5142.95
1015.73,5139.55
1030.69,5143.4
1045.61,5072.6
1060.5,5049.55
1075.34,5089.2
1090.15,5095.95
1104.92,5088.8
1119.64,5099.65
1134.33,4990.95
1148.98,4934.05
1163.6,4978.6
1178.17,4972.75
1192.7,4864.4
1207.2,4887.75
1221.66,4854.3
1236.08,4872.2
1250.46,4893.75
1264.81,4974.9
1279.12,5017.05
1293.39,4957.6
1307.62,4875.25
1321.82,4813.0
1335.98,4787.3
1350.11,4754.7
1364.19,4747.1
1378.24,4708.95
1392.26,4735.7
1406.24,4705.2
1420.18,4699.85
1434.08,4684.45
1447.96,4697.95
1461.79,4636.25
1475.59,4618.7
1489.35,4613.75
1503.08,4590.05
1516.78,4594.1
1530.44,4556.8
1544.06,4559.05
1557.65,4523.15
1571.2,4498.5
1584.72,4499.35
1598.21,4676.4
1611.66,4780.7
1625.08,4563.7
1638.46,4421.0
1651.81,4405.7
1665.13,4417.4
1678.41,4402.6
1691.66,4404.2
1704.88,4469.3
1718.06,4594.0
1731.21,4561.05
1744.32,4402.6
1757.41,4321.3
1770.46,4296.25
1783.48,4276.6
1796.46,4263.6
1809.42,4223.0
1822.34,4230.55
1835.23,4219.8
1848.08,4207.55
1860.91,4201.85
1873.7,4179.7
1886.46,4170.55
1899.19,4163.25
1911.89,4153.1
1924.56,4128.3
1937.19,4119.0
1949.8,4111.65
1962.37,4095.2
1974.91,4070.15
1987.42,4060.75
1999.9,4038.55
2012.36,4028.55
2024.78,4026.5
2037.16,4007.25
2049.52,4000.8
2061.85,3984.85
2074.15,3983.2
2086.42,3988.4
2098.66,3970.35
2110.87,3963.05
2123.05,3952.85
2135.2,3944.9
2147.32,3936.4
2159.41,3930.1
2171.47,3929.6
2183.51,3922.95
2195.51,3916.75
2207.49,3911.0
2219.43,3901.55
2231.35,3894.45
2243.24,3892.05
2255.1,3889.3
2266.93,3879.0
2278.73,3874.75
2290.51,3870.4
2302.26,3866.4
2313.97,3863.35
2325.67,3864.45
2337.33,3856.1
2348.96,3850.4
2360.57,3842.35
2372.15,3847.55
2383.7,3842.65
2395.23,3840.35
2406.73,3838.2
2418.2,3839.1
2429.64,3832.55
2441.06,3829.8
2452.45,3824.3
2463.81,3820.6
2475.15,3816.15
2486.46,3815.5
2497.74,3809.85
2509.0,3812.55
2520.23,3807.1
2531.43,3806.75
2542.61,3805.5
2553.76,3804.95
2564.88,3801.45
2575.98,3796.8
2587.06,3797.15
2598.1,3796.3
2609.13,3793.05
2620.12,3792.55
2631.09,3789.6
2642.04,3786.7
2652.96,3787.85
2663.85,3786.35
2674.72,3783.5
2685.57,3781.6
2696.39,3777.1
2707.18,3777.7
2717.95,3777.25
2728.69,3772.15
2739.41,3773.95
2750.11,3771.35
2760.78,3770.1
2771.43,3769.1
2782.05,3767.25
2792.65,3767.2
2803.22,3765.2
2813.77,3761.5
2824.3,3761.9
2834.8,3762.6
2845.27,3760.05
2855.73,3758.2
2866.16,3758.3
2876.56,3759.4
2886.95,3756.5
2897.3,3757.2
2907.64,3756.0
2917.95,3754.15
2928.24,3753.45
2938.51,3753.4
2948.75,3755.75
2958.97,3757.4
2969.17,3754.95
2979.34,3751.8
2989.49,3751.95
2999.62,3748.85
3009.72,3748.85
3019.81,3745.15
3029.87,3744.85
3039.9,3746.25
3049.92,3745.85
3059.91,3743.6
3069.88,3745.6
3079.83,3746.8
3089.76,3745.9
3099.66,3742.85
3109.54,3740.6
3119.4,3741.9
3129.24,3741.0
3139.06,3739.15
3148.85,3738.8
3158.62,3738.4
3168.38,3737.2
3178.11,3736.8
3187.81,3738.35
3197.5,3736.75
3207.17,3737.55
3216.81,3735.85
3226.44,3736.15
3236.04,3736.5
3245.62,3736.3
3255.18,3736.65
3264.72,3735.9
3274.24,3734.95
3283.73,3735.85
3293.21,3735.6
3302.67,3735.95
3312.1,3735.85
3321.52,3736.5
3330.91,3734.5
3340.29,3735.95
3349.64,3734.55
3358.97,3733.55
3368.29,3735.4
3375.26,3734.25