File: spectra/VLFR_08-PLA_bio_Raman_7bf9304d.csv
nm,Intensity
526.495,829.2
527.042,830.7
527.589,828.8
528.136,828.7
528.682,827.8
529.229,828.9
529.775,828.7
530.321,828.0
530.867,829.4
531.413,829.2
531.959,835.5
532.505,829.8
533.051,828.6
533.596,831.0
534.141,1037.9
534.687,986.8
535.232,944.5
535.777,919.5
536.321,912.5
536.866,912.2
537.41,901.2
537.955,902.0
538.499,887.2
539.043,883.3
539.587,878.8
540.131,872.2
540.675,891.4
541.219,891.1
541.762,884.0
542.305,876.7
542.849,876.8
543.392,899.6
543.935,909.0
544.478,885.4
545.02,873.7
545.563,866.4
546.106,864.3
546.648,869.1
547.19,871.3
547.732,870.7
548.274,869.2
548.816,870.5
549.358,874.5
549.9,869.5
550.441,875.3
550.983,875.4
551.524,877.8
552.065,879.4
552.606,881.0
553.147,880.9
553.688,876.9
554.229,886.0
554.769,875.3
555.31,868.6
555.85,870.1
556.391,867.7
556.931,871.9
557.471,888.6
558.011,1018.8
558.551,910.2
559.09,885.5
559.63,878.0
560.169,873.8
560.709,873.8
561.248,872.7
561.787,868.5
562.326,874.7
562.865,882.8
563.404,917.8
563.943,894.2
564.481,881.4
565.02,907.5
565.558,901.7
566.096,934.7
566.634,898.3
567.172,874.9
567.71,879.7
568.248,884.4
568.786,880.5
569.324,887.3
569.861,877.0
570.399,881.7
570.936,880.9
571.473,897.3
572.01,901.3
572.547,891.8
573.084,894.1
573.621,895.9
574.158,892.5
574.694,905.4
575.231,879.8
575.767,883.9
576.303,903.1
576.84,970.7
577.376,904.0
577.912,886.3
578.448,881.8
578.984,880.9
579.519,881.8
580.055,878.9
580.59,880.4
581.126,879.0
581.661,880.5
582.196,879.9
582.731,879.5
583.267,879.9
583.801,880.7
584.336,882.1
584.871,878.4
585.406,880.7
585.94,885.3
586.475,894.8
587.009,936.5
587.543,961.6
588.078,907.2
588.612,886.0
589.146,880.0
589.68,881.7
590.214,879.5
590.747,880.5
591.281,877.7
591.815,878.7
592.348,881.2
592.881,882.1
593.415,880.6
593.948,880.7
594.481,879.5
595.014,879.2
595.547,881.3
596.08,881.3
596.613,878.9
597.146,878.9
597.678,878.4
598.211,880.5
598.743,881.3
599.276,881.4
599.808,878.8
600.34,881.1
600.872,877.5
601.404,880.0
601.936,878.5
602.468,881.7
603.0,882.6
603.532,879.9
604.064,879.0
604.595,881.1
605.127,879.9
605.658,875.1
606.189,877.5
606.721,875.5
607.252,880.7
607.783,879.8
608.314,877.3
608.845,878.1
609.376,880.5
609.907,879.8
610.438,876.4
610.968,878.4
611.499,878.6
612.029,877.2
612.56,879.0
613.09,879.7
613.621,881.8
614.151,880.9
614.681,880.7
615.211,880.3
615.741,881.4
616.271,882.1
616.801,880.4
617.331,880.2
617.861,881.2
618.39,878.6
618.92,878.6
619.45,878.8
619.979,878.4
620.509,879.0
621.038,880.6
621.567,880.3
622.096,881.9
622.626,890.9
623.155,894.8
623.684,893.1
624.213,884.1
624.742,885.6
625.271,878.6
625.799,878.8
626.328,880.8
626.857,882.4
627.386,885.1
627.914,895.8
628.443,971.3
628.971,953.7
629.5,957.5
630.028,959.0
630.556,1021.2
631.084,1460.5
631.613,1177.3
632.141,1028.4
632.669,1012.5
633.197,1111.2
633.725,1065.7
634.253,960.6
634.781,909.0
635.308,886.9
635.836,882.2
636.364,882.1
636.891,880.1
637.419,877.4
637.947,875.6
638.474,874.1
639.002,876.4
639.529,874.1
640.056,871.4
640.584,876.3
641.111,875.9
641.638,878.4
642.165,876.5
642.692,875.1
643.219,873.1
643.746,872.3
644.273,869.9
644.8,870.3
645.327,868.3
645.854,870.1
646.381,866.9
646.908,867.2
647.434,869.6
647.961,869.4
648.488,869.2
649.014,870.5
649.541,868.2
650.067,866.5
650.594,866.1
651.12,866.1
651.646,866.9
652.173,864.1
652.699,864.7
653.225,866.5
653.752,867.5
654.278,866.4
654.804,866.3
655.33,864.0
655.856,864.5
656.382,864.0
656.908,865.2
657.434,866.5
657.96,863.4
658.486,862.4
659.012,862.7
659.538,863.8
660.064,866.7
660.589,863.4
661.115,865.1
661.641,865.2
662.166,863.0
662.692,863.6
663.086,862.0