File: spectra/VLFR_08-PLA_nobio_Raman_e5b2ab9a.csv
nm,Intensity
526.532,830.533
527.079,830.567
527.625,829.833
528.172,829.133
528.718,830.0
529.265,829.7
529.811,829.867
530.357,830.8
530.903,829.867
531.449,829.967
531.994,834.8
532.54,830.1
533.085,830.7
533.63,831.4
534.176,912.167
534.721,893.533
535.266,884.667
535.81,878.267
536.355,874.167
536.9,874.967
537.444,870.667
537.988,872.3
538.533,867.167
539.077,864.533
539.621,864.433
540.165,863.833
540.708,869.8
541.252,869.6
541.795,864.933
542.339,864.233
542.882,864.667
543.425,874.433
543.968,881.3
544.511,866.633
545.054,865.133
545.597,862.333
546.139,863.233
546.682,864.1
547.224,864.867
547.766,863.567
548.308,864.433
548.85,866.333
549.392,866.8
549.934,864.733
550.475,864.133
551.017,868.167
551.558,868.667
552.1,870.3
552.641,869.767
553.182,871.233
553.723,870.767
554.264,870.433
554.804,867.533
555.345,868.167
555.885,867.333
556.426,865.733
556.966,867.433
557.506,873.067
558.046,919.2
558.586,878.067
559.126,873.2
559.665,872.4
560.205,870.733
560.745,869.667
561.284,870.9
561.823,869.6
562.362,869.367
562.901,872.3
563.44,887.233
563.979,876.5
564.518,876.867
565.056,882.167
565.595,880.433
566.133,892.267
566.671,879.633
567.21,872.267
567.748,877.167
568.285,876.0
568.823,878.167
569.361,878.167
569.899,875.0
570.436,876.167
570.974,877.5
571.511,885.733
572.048,883.8
572.585,879.667
573.122,881.833
573.659,884.067
574.196,882.9
574.733,886.133
575.269,879.167
575.806,877.833
576.342,885.767
576.878,903.767
577.414,887.933
577.951,882.033
578.486,879.3
579.022,878.8
579.558,878.4
580.094,879.8
580.629,880.467
581.165,878.0
581.7,878.7
582.236,879.433
582.771,879.967
583.306,878.033
583.841,880.033
584.376,880.933
584.911,881.067
585.445,881.967
585.98,881.833
586.514,886.267
587.049,898.3
587.583,908.933
588.117,887.933
588.651,883.433
589.186,879.767
589.72,879.767
590.253,880.133
590.787,880.267
591.321,880.833
591.854,880.933
592.388,879.8
592.921,879.3
593.455,880.7
593.988,878.933
594.521,880.333
595.054,880.233
595.587,881.467
596.12,883.1
596.653,881.067
597.186,879.6
597.718,882.167
598.251,881.6
598.783,880.533
599.316,879.967
599.848,878.733
600.38,880.0
600.912,878.733
601.444,881.4
601.976,880.533
602.508,879.833
603.04,879.3
603.572,878.033
604.103,878.0
604.635,878.833
605.167,879.233
605.698,878.8
606.229,876.733
606.761,876.9
607.292,879.133
607.823,878.233
608.354,879.4
608.885,878.533
609.416,877.233
609.947,879.8
610.477,879.1
611.008,877.867
611.539,878.033
612.069,877.633
612.6,878.133
613.13,880.233
613.66,880.767
614.19,880.667
614.721,880.2
615.251,878.967
615.781,879.6
616.311,877.5
616.841,880.133
617.37,881.367
617.9,878.5
618.43,880.467
618.96,878.667
619.489,878.7
620.019,879.7
620.548,879.333
621.077,879.4
621.607,878.6
622.136,881.033
622.665,880.8
623.194,884.133
623.723,883.1
624.252,881.433
624.781,878.533
625.31,878.0
625.839,878.767
626.368,879.6
626.896,878.433
627.425,880.1
627.953,885.4
628.482,909.167
629.01,903.633
629.539,904.067
630.067,907.5
630.596,930.767
631.124,1087.53
631.652,980.333
632.18,928.567
632.708,922.367
633.236,958.533
633.764,942.667
634.292,903.333
634.82,885.967
635.348,880.4
635.876,879.233
636.403,878.033
636.931,877.1
637.459,877.067
637.986,876.0
638.514,874.867
639.041,874.333
639.568,875.8
640.096,876.7
640.623,874.3
641.15,875.767
641.678,875.067
642.205,875.367
642.732,874.567
643.259,873.833
643.786,873.933
644.313,872.033
644.84,871.3
645.367,871.967
645.894,870.467
646.421,871.4
646.948,872.367
647.474,870.1
648.001,871.933
648.528,871.633
649.054,870.833
649.581,869.533
650.108,869.767
650.634,870.867
651.161,869.133
651.687,868.2
652.214,869.0
652.74,867.933
653.266,869.567
653.793,867.067
654.319,868.967
654.845,869.533
655.371,870.6
655.897,867.867
656.424,867.3
656.95,869.9
657.476,869.467
658.002,868.267
658.528,868.667
659.054,868.133
659.58,868.367
660.106,867.833
660.631,867.733
661.157,865.067
661.683,866.633
662.209,866.8
662.735,866.833
663.129,866.9