File: spectra/VLFR_07-PET_bio_Raman_fe406b84.csv
nm,Intensity
791.496,9916.5
792.594,9235.2
793.692,8863.3
794.79,8674.2
795.888,8572.3
796.986,8606.7
798.083,8522.6
799.181,8437.1
800.278,8399.7
801.375,8469.0
802.473,8409.3
803.57,8219.2
804.667,8156.6
805.764,8132.5
806.86,7990.6
807.957,7913.8
809.054,7904.8
810.15,7803.2
811.246,7735.2
812.343,7756.0
813.439,7675.7
814.535,7620.7
815.631,7569.2
816.727,7495.2
817.822,7426.9
818.918,7322.9
820.013,7292.1
821.109,7218.8
822.204,7128.8
823.299,7110.2
824.394,7059.1
825.489,7253.4
826.584,7004.3
827.679,6937.6
828.774,6922.2
829.868,6854.6
830.963,6854.2
832.057,6719.1
833.151,6678.4
834.245,6651.1
835.339,6606.4
836.433,6651.9
837.527,6619.7
838.621,6634.2
839.714,6606.7
840.808,6842.4
841.901,6636.2
842.994,6495.0
844.087,6389.7
845.18,6274.2
846.273,6201.4
847.366,6186.2
848.458,6153.1
849.551,6140.1
850.643,6096.4
851.735,6095.9
852.828,6091.8
853.92,6011.8
855.012,6000.3
856.103,5963.1
857.195,5938.1
858.287,6012.1
859.378,6049.4
860.469,6026.7
861.56,5822.8
862.651,5802.4
863.742,5799.8
864.833,5828.6
865.924,5751.7
867.014,5689.8
868.105,5659.4
869.195,5667.3
870.285,5702.3
871.376,5793.0
872.465,5881.8
873.555,5799.1
874.645,5673.9
875.735,5555.2
876.824,5501.7
877.913,5477.5
879.002,5406.5
880.092,5410.6
881.18,5396.8
882.269,5408.3
883.358,5334.2
884.446,5290.3
885.535,5320.7
886.623,5280.1
887.711,5204.0
888.799,5174.7
889.887,5167.4
890.975,5169.9
892.062,5127.2
893.15,5119.9
894.237,5049.6
895.325,5058.9
896.412,5088.4
897.499,5429.5
898.585,5421.8
899.672,5131.7
900.759,4933.3
901.845,4862.3
902.931,4867.2
904.017,4833.1
905.103,4883.4
906.189,5001.3
907.275,5201.3
908.361,5057.7
909.446,4827.0
910.531,4705.9
911.616,4677.7
912.701,4656.3
913.786,4624.7
914.871,4584.3
915.956,4563.9
917.04,4565.8
918.124,4534.8
919.209,4510.8
920.293,4493.2
921.376,4464.7
922.46,4440.3
923.544,4419.7
924.627,4411.5
925.711,4367.1
926.794,4363.2
927.877,4348.9
928.96,4312.5
930.042,4303.2
931.125,4279.9
932.207,4268.5
933.29,4254.9
934.372,4241.7
935.454,4220.8
936.536,4204.8
937.617,4177.9
938.699,4178.2
939.78,4155.5
940.861,4143.6
941.943,4116.9
943.023,4116.5
944.104,4102.2
945.185,4084.5
946.265,4077.7
947.346,4065.3
948.426,4061.5
949.506,4037.4
950.586,4040.7
951.665,4016.0
952.745,4009.8
953.824,3998.7
954.904,3986.8
955.983,3978.3
957.062,3965.5
958.141,3966.8
959.219,3959.7
960.298,3940.5
961.376,3934.2
962.454,3930.6
963.532,3919.4
964.61,3914.4
965.688,3912.1
966.765,3902.0
967.842,3890.6
968.92,3889.7
969.997,3886.1
971.074,3879.1
972.15,3866.5
973.227,3866.9
974.303,3861.2
975.379,3853.1
976.455,3848.0
977.531,3845.3
978.607,3838.4
979.683,3831.9
980.758,3830.4
981.833,3828.9
982.908,3829.8
983.983,3816.6
985.058,3813.4
986.133,3814.0
987.207,3809.8
988.281,3803.0
989.355,3806.5
990.429,3795.9
991.503,3791.8
992.577,3790.0
993.65,3790.2
994.723,3781.2
995.796,3779.8
996.869,3779.0
997.942,3774.9
999.014,3772.1
1000.09,3769.6
1001.16,3768.0
1002.23,3767.3
1003.3,3763.3
1004.37,3761.3
1005.45,3758.2
1006.52,3756.5
1007.59,3751.0
1008.66,3752.3
1009.73,3750.5
1010.8,3749.8
1011.87,3744.6
1012.94,3743.3
1014.01,3742.9
1015.08,3745.5
1016.15,3740.7
1017.22,3741.1
1018.29,3739.9
1019.36,3738.0
1020.43,3740.5
1021.5,3744.0
1022.57,3746.6
1023.64,3739.4
1024.7,3736.9
1025.77,3735.7
1026.84,3730.2
1027.91,3729.9
1028.97,3727.6
1030.04,3727.3
1031.11,3724.9
1032.18,3725.6
1033.24,3725.7
1034.31,3729.6
1035.38,3726.3
1036.44,3724.9
1037.51,3722.0
1038.58,3716.7
1039.64,3716.4
1040.71,3719.7
1041.77,3715.8
1042.84,3715.4
1043.9,3715.0
1044.97,3715.3
1046.03,3713.1
1047.1,3718.0
1048.16,3714.2
1049.22,3711.9
1050.29,3714.5
1051.35,3713.5
1052.42,3712.6
1053.48,3711.9
1054.54,3714.0
1055.61,3711.8
1056.67,3712.3
1057.73,3711.5
1058.79,3712.5
1059.86,3711.5
1060.92,3712.3
1061.98,3710.1
1063.04,3710.6
1064.1,3710.9
1065.16,3709.3
1066.22,3709.3
1067.29,3709.8
1068.08,3709.5