File: spectra/VLFR_08-PLA_nobio_Raman_a0f4d3e9.csv
nm,Intensity
526.5,830.1
527.047,828.6
527.594,828.7
528.14,829.0
528.687,828.5
529.233,829.3
529.779,829.6
530.325,829.7
530.871,828.0
531.417,828.8
531.962,833.2
532.508,831.6
533.053,828.3
533.599,829.3
534.144,1034.9
534.689,980.3
535.234,952.2
535.778,939.6
536.323,921.6
536.867,928.9
537.412,907.6
537.956,910.4
538.5,901.2
539.044,894.7
539.588,892.5
540.132,882.4
540.675,908.4
541.219,911.2
541.762,892.4
542.305,887.7
542.848,887.2
543.391,915.0
543.934,943.4
544.477,903.2
545.02,888.7
545.562,883.7
546.105,884.0
546.647,882.4
547.189,887.9
547.731,884.5
548.273,883.1
548.815,891.7
549.356,892.3
549.898,888.2
550.439,888.2
550.981,890.7
551.522,895.6
552.063,900.4
552.604,899.2
553.145,906.5
553.686,897.5
554.226,903.3
554.767,891.1
555.307,889.9
555.848,888.5
556.388,889.9
556.928,891.4
557.468,903.7
558.008,1020.3
558.547,926.7
559.087,906.1
559.626,905.4
560.166,898.8
560.705,895.3
561.244,892.7
561.783,892.3
562.322,893.7
562.861,900.0
563.4,937.7
563.939,917.6
564.477,904.7
565.015,935.9
565.554,920.2
566.092,957.8
566.63,921.5
567.168,894.5
567.706,906.3
568.244,906.8
568.781,906.6
569.319,907.0
569.857,899.2
570.394,905.3
570.931,904.0
571.468,932.0
572.005,922.2
572.542,912.0
573.079,915.0
573.616,922.8
574.153,916.7
574.689,934.6
575.226,907.4
575.762,904.0
576.298,926.6
576.834,994.7
577.371,927.4
577.907,911.5
578.442,908.6
578.978,906.3
579.514,906.8
580.049,905.3
580.585,904.8
581.12,903.7
581.656,904.8
582.191,905.0
582.726,901.4
583.261,904.9
583.796,909.1
584.331,906.9
584.865,906.8
585.4,907.7
585.935,912.4
586.469,918.9
587.004,950.3
587.538,992.9
588.072,934.2
588.606,911.6
589.14,909.6
589.674,903.8
590.208,909.1
590.742,903.9
591.275,907.0
591.809,906.7
592.342,909.5
592.876,905.5
593.409,903.4
593.942,903.5
594.476,904.5
595.009,901.3
595.542,906.9
596.075,905.3
596.607,906.9
597.14,907.2
597.673,901.8
598.205,904.9
598.738,909.2
599.27,906.6
599.803,904.7
600.335,906.7
600.867,907.5
601.399,904.7
601.931,904.2
602.463,898.8
602.995,905.3
603.527,904.7
604.058,906.0
604.59,900.8
605.122,901.6
605.653,901.3
606.184,903.7
606.716,899.5
607.247,900.5
607.778,899.9
608.309,902.1
608.84,900.1
609.371,902.0
609.902,902.3
610.433,901.2
610.964,900.1
611.494,900.1
612.025,899.7
612.556,900.5
613.086,902.2
613.616,902.3
614.147,904.8
614.677,902.4
615.207,905.1
615.737,903.0
616.267,904.6
616.797,904.8
617.327,905.7
617.857,900.5
618.387,900.8
618.917,901.6
619.446,900.6
619.976,901.5
620.505,900.9
621.035,902.4
621.564,901.7
622.093,903.3
622.623,907.3
623.152,913.4
623.681,912.0
624.21,904.8
624.739,904.4
625.268,900.8
625.797,901.9
626.326,899.9
626.855,903.6
627.383,901.0
627.912,915.9
628.441,979.2
628.969,969.1
629.498,965.3
630.026,969.0
630.554,1016.7
631.083,1428.5
631.611,1211.4
632.139,1049.1
632.667,1005.2
633.195,1096.4
633.724,1068.0
634.252,980.6
634.779,921.8
635.307,902.8
635.835,901.4
636.363,896.6
636.891,894.3
637.418,894.6
637.946,894.1
638.474,894.2
639.001,891.0
639.529,891.3
640.056,892.3
640.583,890.2
641.111,894.3
641.638,895.0
642.165,892.2
642.692,893.7
643.22,890.5
643.747,885.7
644.274,886.7
644.801,887.4
645.328,883.2
645.854,882.7
646.381,883.6
646.908,883.6
647.435,879.3
647.962,883.5
648.488,879.5
649.015,881.1
649.542,884.4
650.068,881.5
650.595,880.6
651.121,879.3
651.648,879.6
652.174,879.5
652.7,880.2
653.227,878.9
653.753,880.0
654.279,877.8
654.805,877.5
655.331,880.1
655.858,878.6
656.384,881.1
656.91,879.4
657.436,879.5
657.962,880.1
658.488,878.2
659.013,877.5
659.539,877.1
660.065,876.4
660.591,876.4
661.117,875.9
661.642,874.0
662.168,872.2
662.694,874.3
663.088,871.8