File: spectra/VLFR_08-PLA_nobio_Raman_affcf259.csv
nm,Intensity
526.508,828.5
527.055,829.8
527.602,829.5
528.149,830.3
528.695,829.6
529.241,828.4
529.787,830.4
530.334,830.1
530.879,829.4
531.425,829.1
531.971,833.4
532.516,831.8
533.062,830.5
533.607,833.4
534.152,1044.0
534.697,1001.9
535.242,958.6
535.786,948.2
536.331,934.8
536.876,944.4
537.42,929.8
537.964,932.7
538.508,923.1
539.052,919.9
539.596,918.9
540.14,912.3
540.683,924.3
541.227,930.5
541.77,920.7
542.313,916.1
542.856,915.5
543.399,935.4
543.942,944.4
544.485,927.6
545.027,919.7
545.57,915.3
546.112,913.6
546.654,918.4
547.196,916.0
547.738,914.0
548.28,917.8
548.822,917.5
549.363,921.0
549.905,919.5
550.446,922.5
550.988,925.0
551.529,930.4
552.07,927.7
552.611,933.6
553.152,935.7
553.692,928.3
554.233,940.4
554.773,931.7
555.314,927.6
555.854,925.6
556.394,925.7
556.934,928.5
557.474,938.2
558.014,1045.8
558.553,961.7
559.093,942.5
559.632,937.9
560.172,936.1
560.711,931.7
561.25,927.6
561.789,929.6
562.328,936.7
562.867,938.7
563.406,970.2
563.944,952.0
564.483,945.7
565.021,966.3
565.559,956.9
566.098,985.2
566.636,961.9
567.174,939.4
567.711,943.7
568.249,947.1
568.787,946.3
569.324,947.3
569.862,948.6
570.399,950.0
570.936,948.9
571.474,962.6
572.011,969.1
572.548,957.5
573.084,962.0
573.621,966.6
574.158,961.5
574.694,971.1
575.231,954.8
575.767,953.5
576.303,972.8
576.84,1020.8
577.376,975.2
577.912,953.9
578.447,960.0
578.983,956.9
579.519,950.1
580.054,953.9
580.59,954.9
581.125,950.6
581.661,951.4
582.196,953.8
582.731,952.4
583.266,955.1
583.801,963.1
584.336,955.9
584.87,960.3
585.405,960.9
585.94,960.3
586.474,971.3
587.008,1003.9
587.543,1024.2
588.077,977.6
588.611,959.5
589.145,959.4
589.679,956.5
590.213,959.8
590.747,962.2
591.28,957.5
591.814,958.5
592.347,956.3
592.881,954.9
593.414,955.0
593.947,955.1
594.48,956.5
595.014,957.0
595.547,959.2
596.079,957.6
596.612,956.2
597.145,958.9
597.678,956.5
598.21,956.0
598.743,959.8
599.275,957.0
599.807,956.3
600.34,955.9
600.872,953.9
601.404,957.7
601.936,948.8
602.468,956.0
603.0,958.7
603.532,954.3
604.063,955.7
604.595,952.2
605.126,956.3
605.658,949.3
606.189,950.9
606.721,946.7
607.252,946.5
607.783,955.2
608.314,953.4
608.845,950.6
609.376,950.4
609.907,948.7
610.438,948.0
610.968,951.2
611.499,947.6
612.03,948.9
612.56,952.8
613.091,952.1
613.621,949.3
614.151,950.1
614.681,951.1
615.212,949.0
615.742,948.2
616.272,948.8
616.802,952.9
617.332,954.9
617.861,951.2
618.391,948.8
618.921,950.0
619.45,950.9
619.98,949.8
620.509,949.9
621.039,951.1
621.568,947.5
622.097,946.1
622.627,951.5
623.156,958.5
623.685,955.1
624.214,952.8
624.743,947.5
625.272,949.8
625.801,948.2
626.33,947.2
626.858,947.1
627.387,949.6
627.916,955.2
628.444,1006.5
628.973,1002.7
629.501,991.7
630.029,998.6
630.558,1040.6
631.086,1347.8
631.614,1153.1
632.142,1042.9
632.67,1033.0
633.198,1105.9
633.726,1077.1
634.254,997.3
634.782,960.6
635.31,946.4
635.838,943.9
636.365,939.7
636.893,937.0
637.421,937.6
637.948,932.8
638.476,932.2
639.003,940.0
639.531,936.2
640.058,933.6
640.585,934.0
641.113,933.6
641.64,932.7
642.167,935.9
642.694,935.1
643.221,927.3
643.748,928.1
644.275,929.4
644.802,924.9
645.329,928.1
645.856,928.2
646.382,926.2
646.909,923.9
647.436,928.5
647.962,921.1
648.489,922.6
649.016,925.2
649.542,921.2
650.069,922.8
650.595,923.3
651.121,921.3
651.648,918.7
652.174,918.1
652.7,916.3
653.227,920.4
653.753,920.5
654.279,918.9
654.805,916.8
655.331,915.8
655.857,916.0
656.383,920.1
656.909,917.6
657.435,914.9
657.961,913.9
658.487,913.8
659.013,916.3
659.538,913.5
660.064,915.6
660.59,913.1
661.116,911.8
661.641,915.8
662.167,913.2
662.692,910.4
663.087,911.8