File: spectra/VLFR_08-PLA_nobio_Raman_0f49d139.csv
nm,Intensity
526.5,828.1
527.047,829.5
527.594,829.4
528.14,830.0
528.687,829.4
529.233,828.8
529.779,829.4
530.325,828.3
530.871,828.4
531.417,829.6
531.962,831.4
532.508,830.3
533.053,830.1
533.599,830.5
534.144,1030.7
534.689,990.8
535.234,956.1
535.778,936.7
536.323,925.8
536.867,925.7
537.412,917.4
537.956,914.5
538.5,907.4
539.044,901.5
539.588,898.0
540.132,892.0
540.675,911.9
541.219,910.8
541.762,903.0
542.305,897.0
542.848,899.3
543.391,920.9
543.934,931.5
544.477,909.1
545.02,900.1
545.562,896.2
546.105,894.9
546.647,895.6
547.189,896.8
547.731,896.1
548.273,897.2
548.815,897.7
549.356,899.0
549.898,904.0
550.439,906.3
550.981,905.9
551.522,903.9
552.063,906.5
552.604,912.1
553.145,910.6
553.686,908.3
554.226,915.6
554.767,907.4
555.307,903.5
555.848,899.9
556.388,904.1
556.928,903.2
557.468,920.0
558.008,1032.6
558.547,939.0
559.087,918.2
559.626,913.9
560.166,912.6
560.705,910.0
561.244,907.2
561.783,907.8
562.322,909.9
562.861,919.8
563.4,950.5
563.939,930.2
564.477,919.1
565.015,937.5
565.554,937.1
566.092,960.2
566.63,935.8
567.168,913.1
567.706,921.6
568.244,920.4
568.781,922.4
569.319,922.9
569.857,916.2
570.394,921.9
570.931,923.7
571.468,935.4
572.005,940.0
572.542,934.3
573.079,937.0
573.616,938.4
574.153,930.9
574.689,943.7
575.226,923.3
575.762,928.1
576.298,942.3
576.834,997.4
577.371,944.9
577.907,925.0
578.442,930.3
578.978,923.9
579.514,924.9
580.049,925.0
580.585,923.7
581.12,925.2
581.656,924.8
582.191,925.6
582.726,926.5
583.261,929.1
583.796,931.1
584.331,930.8
584.865,926.6
585.4,928.9
585.935,928.3
586.469,941.6
587.004,971.3
587.538,992.3
588.072,950.3
588.606,930.1
589.14,929.7
589.674,925.4
590.208,927.4
590.742,929.8
591.275,928.9
591.809,928.8
592.342,926.2
592.876,922.4
593.409,922.9
593.942,926.5
594.476,921.0
595.009,925.8
595.542,927.8
596.075,927.9
596.607,926.9
597.14,928.0
597.673,929.7
598.205,923.9
598.738,925.6
599.27,930.6
599.803,927.3
600.335,923.8
600.867,927.7
601.399,927.8
601.931,926.5
602.463,928.3
602.995,924.7
603.527,925.7
604.058,924.6
604.59,926.6
605.122,927.1
605.653,922.3
606.184,924.2
606.716,922.2
607.247,924.5
607.778,924.2
608.309,925.9
608.84,923.2
609.371,925.0
609.902,922.6
610.433,923.8
610.964,922.1
611.494,921.9
612.025,924.3
612.556,924.5
613.086,924.7
613.616,922.2
614.147,927.5
614.677,921.9
615.207,928.2
615.737,926.2
616.267,925.0
616.797,923.3
617.327,930.7
617.857,926.6
618.387,925.0
618.917,922.5
619.446,929.3
619.976,924.7
620.505,921.5
621.035,920.0
621.564,923.7
622.093,925.9
622.623,930.3
623.152,935.3
623.681,930.4
624.21,928.3
624.739,927.4
625.268,922.8
625.797,923.1
626.326,923.7
626.855,923.0
627.383,922.8
627.912,929.8
628.441,985.3
628.969,975.1
629.498,970.7
630.026,977.0
630.554,1016.6
631.083,1306.9
631.611,1117.2
632.139,1018.8
632.667,1006.5
633.195,1070.3
633.724,1044.5
634.252,972.4
634.779,939.3
635.307,925.8
635.835,921.4
636.363,916.6
636.891,914.6
637.418,917.4
637.946,915.9
638.474,913.8
639.001,913.2
639.529,914.4
640.056,915.5
640.583,914.8
641.111,915.6
641.638,913.1
642.165,912.2
642.692,913.9
643.22,908.9
643.747,910.7
644.274,907.8
644.801,903.3
645.328,907.7
645.854,905.7
646.381,902.7
646.908,901.4
647.435,905.8
647.962,904.8
648.488,901.8
649.015,904.6
649.542,905.0
650.068,899.9
650.595,900.7
651.121,900.8
651.648,900.0
652.174,898.5
652.7,896.2
653.227,903.7
653.753,899.7
654.279,898.9
654.805,898.8
655.331,897.8
655.858,894.8
656.384,892.6
656.91,895.4
657.436,897.6
657.962,897.8
658.488,896.3
659.013,898.0
659.539,897.4
660.065,900.0
660.591,899.0
661.117,895.5
661.642,894.6
662.168,891.0
662.694,890.6
663.088,892.6