File: spectra/VLFR_07-PET_bio_Raman_e527f017.csv
nm,Intensity
791.75,11009.4
792.846,10679.8
793.942,10355.8
795.037,10203.3
796.133,10122.2
797.228,10114.5
798.324,9910.65
799.419,9990.65
800.514,10049.0
801.61,10035.0
802.705,9997.9
803.8,9875.15
804.894,9803.4
805.989,9745.1
807.084,9687.7
808.178,9645.6
809.273,9557.15
810.367,9492.3
811.461,9339.9
812.556,9422.75
813.65,9172.35
814.744,9177.1
815.837,8985.4
816.931,9001.95
818.025,8748.3
819.118,8856.6
820.212,8638.55
821.305,8649.15
822.398,8592.75
823.491,8459.7
824.585,8411.55
825.677,8419.8
826.77,8421.6
827.863,8212.55
828.956,8102.35
830.048,8086.15
831.14,8073.1
832.233,7972.2
833.325,7915.65
834.417,7889.3
835.509,7759.9
836.601,7808.25
837.692,7861.9
838.784,7767.45
839.876,7790.75
840.967,7834.45
842.058,7764.05
843.149,7670.5
844.24,7526.05
845.331,7384.6
846.422,7399.95
847.513,7288.85
848.604,7247.0
849.694,7217.35
850.784,7190.75
851.875,7137.2
852.965,7155.9
854.055,7064.7
855.145,7032.45
856.235,6949.95
857.324,6958.95
858.414,6984.35
859.503,7013.0
860.593,7000.5
861.682,6782.75
862.771,6778.35
863.86,6824.2
864.949,6804.15
866.038,6670.6
867.126,6567.7
868.215,6550.35
869.303,6580.1
870.391,6627.95
871.479,6645.0
872.567,6762.3
873.655,6645.1
874.743,6512.05
875.831,6407.2
876.918,6375.4
878.006,6370.95
879.093,6251.85
880.18,6218.85
881.267,6245.2
882.354,6253.05
883.441,6175.4
884.527,6161.85
885.614,6065.55
886.7,6059.65
887.786,5991.85
888.872,5929.95
889.958,5961.95
891.044,5933.9
892.13,5858.8
893.216,5829.45
894.301,5792.15
895.386,5729.95
896.472,5750.25
897.557,5926.3
898.642,6040.0
899.726,5819.6
900.811,5559.05
901.896,5492.3
902.98,5520.65
904.064,5504.5
905.148,5482.1
906.232,5559.85
907.316,5675.6
908.4,5640.85
909.484,5441.25
910.567,5266.55
911.65,5230.95
912.734,5166.8
913.817,5113.25
914.9,5080.7
915.982,5070.65
917.065,5051.25
918.147,5012.5
919.23,4989.95
920.312,4966.35
921.394,4952.7
922.476,4876.4
923.558,4839.95
924.639,4841.7
925.721,4781.05
926.802,4743.2
927.884,4730.75
928.965,4696.75
930.046,4639.9
931.126,4623.45
932.207,4589.25
933.288,4548.3
934.368,4549.85
935.448,4539.1
936.528,4473.85
937.608,4464.1
938.688,4452.0
939.767,4426.75
940.847,4407.75
941.926,4395.05
943.005,4364.95
944.084,4341.7
945.163,4330.85
946.242,4315.75
947.321,4288.25
948.399,4266.2
949.477,4259.0
950.556,4250.0
951.634,4222.75
952.711,4204.1
953.789,4193.05
954.867,4184.35
955.944,4174.25
957.021,4146.4
958.098,4141.6
959.175,4124.9
960.252,4111.3
961.328,4103.6
962.405,4101.35
963.481,4074.1
964.557,4071.3
965.633,4056.85
966.709,4051.25
967.785,4039.15
968.86,4032.25
969.936,4024.55
971.011,4019.8
972.086,3996.6
973.161,3993.75
974.235,3988.0
975.31,3969.7
976.384,3972.45
977.459,3958.8
978.533,3961.7
979.607,3945.6
980.68,3941.25
981.754,3937.35
982.827,3927.6
983.901,3926.0
984.974,3912.25
986.047,3913.2
987.119,3906.7
988.192,3905.1
989.264,3897.05
990.337,3888.1
991.409,3886.2
992.481,3876.4
993.553,3878.7
994.624,3865.85
995.696,3862.2
996.767,3858.9
997.838,3852.0
998.909,3853.0
999.98,3847.75
1001.05,3844.2
1002.12,3839.8
1003.19,3835.5
1004.26,3830.45
1005.33,3830.55
1006.4,3828.0
1007.47,3822.5
1008.54,3814.85
1009.61,3812.75
1010.68,3812.85
1011.75,3807.45
1012.82,3808.7
1013.88,3804.7
1014.95,3801.05
1016.02,3798.95
1017.09,3797.2
1018.16,3791.75
1019.22,3791.45
1020.29,3791.9
1021.36,3792.95
1022.43,3793.45
1023.49,3792.1
1024.56,3789.45
1025.63,3784.45
1026.69,3779.5
1027.76,3776.65
1028.83,3772.65
1029.89,3770.15
1030.96,3769.2
1032.02,3770.45
1033.09,3767.3
1034.15,3771.1
1035.22,3770.8
1036.28,3769.45
1037.35,3766.45
1038.41,3762.15
1039.48,3760.1
1040.54,3760.8
1041.6,3757.6
1042.67,3756.75
1043.73,3755.55
1044.79,3754.8
1045.86,3754.5
1046.92,3754.55
1047.98,3752.85
1049.05,3752.05
1050.11,3752.1
1051.17,3751.65
1052.23,3752.45
1053.29,3750.95
1054.36,3751.45
1055.42,3750.7
1056.48,3748.8
1057.54,3749.2
1058.6,3748.65
1059.66,3748.75
1060.72,3749.65
1061.78,3750.2
1062.84,3747.9
1063.9,3747.25
1064.96,3747.15
1066.02,3746.3
1067.08,3744.8
1067.88,3745.1