File: spectra/VLFR_08-PLA_bio_Raman_973e5cf3.csv
nm,Intensity
526.508,829.1
527.055,829.5
527.602,830.0
528.149,828.9
528.695,830.4
529.241,830.6
529.787,829.6
530.334,830.5
530.879,830.0
531.425,829.5
531.971,837.3
532.516,831.4
533.062,827.5
533.607,830.2
534.152,905.2
534.697,905.9
535.242,900.6
535.786,898.4
536.331,895.2
536.876,896.6
537.42,896.5
537.964,897.2
538.508,901.6
539.052,900.3
539.596,902.2
540.14,900.1
540.683,903.4
541.227,904.5
541.77,900.1
542.313,904.0
542.856,901.4
543.399,907.7
543.942,910.7
544.485,907.9
545.027,913.1
545.57,910.2
546.112,912.1
546.654,913.4
547.196,913.3
547.738,912.2
548.28,912.9
548.822,917.5
549.363,915.3
549.905,918.3
550.446,917.0
550.988,918.7
551.529,920.6
552.07,924.3
552.611,922.1
553.152,923.5
553.692,924.9
554.233,928.2
554.773,924.2
555.314,927.7
555.854,930.3
556.394,925.8
556.934,928.0
557.474,931.2
558.014,952.2
558.553,939.8
559.093,930.0
559.632,935.1
560.172,935.3
560.711,933.6
561.25,933.0
561.789,930.6
562.328,938.5
562.867,936.5
563.406,944.1
563.944,941.8
564.483,942.3
565.021,942.5
565.559,945.7
566.098,951.0
566.636,947.4
567.174,945.6
567.711,938.9
568.249,946.0
568.787,950.0
569.324,950.3
569.862,948.9
570.399,948.9
570.936,949.8
571.474,952.9
572.011,953.2
572.548,956.0
573.084,956.8
573.621,955.6
574.158,955.9
574.694,961.3
575.231,954.2
575.767,959.2
576.303,960.6
576.84,972.4
577.376,966.6
577.912,961.0
578.447,962.4
578.983,964.6
579.519,964.6
580.054,962.1
580.59,960.0
581.125,961.3
581.661,957.3
582.196,962.4
582.731,966.2
583.266,963.7
583.801,964.8
584.336,964.3
584.87,966.0
585.405,962.5
585.94,969.7
586.474,966.0
587.008,975.3
587.543,979.6
588.077,972.6
588.611,966.6
589.145,967.8
589.679,965.9
590.213,966.2
590.747,964.6
591.28,966.8
591.814,969.1
592.347,963.9
592.881,968.4
593.414,964.1
593.947,964.3
594.48,963.6
595.014,966.0
595.547,967.3
596.079,965.8
596.612,970.9
597.145,961.8
597.678,964.3
598.21,967.6
598.743,970.7
599.275,968.1
599.807,962.5
600.34,964.7
600.872,968.1
601.404,967.0
601.936,966.0
602.468,966.2
603.0,966.2
603.532,966.6
604.063,967.1
604.595,962.9
605.126,964.8
605.658,963.2
606.189,960.6
606.721,961.2
607.252,967.4
607.783,962.7
608.314,957.9
608.845,962.6
609.376,960.5
609.907,964.2
610.438,959.2
610.968,960.3
611.499,962.8
612.03,962.8
612.56,962.6
613.091,964.2
613.621,964.3
614.151,965.4
614.681,959.8
615.212,960.9
615.742,960.4
616.272,962.1
616.802,964.8
617.332,964.8
617.861,962.9
618.391,960.3
618.921,960.4
619.45,959.9
619.98,958.1
620.509,958.6
621.039,960.5
621.568,955.8
622.097,963.8
622.627,961.6
623.156,959.6
623.685,962.7
624.214,959.1
624.743,958.7
625.272,957.0
625.801,957.0
626.33,953.6
626.858,958.4
627.387,955.2
627.916,956.2
628.444,967.5
628.973,963.1
629.501,960.9
630.029,962.4
630.558,971.4
631.086,1039.4
631.614,995.6
632.142,975.2
632.67,971.4
633.198,984.4
633.726,977.4
634.254,962.4
634.782,950.1
635.31,944.6
635.838,947.9
636.365,948.3
636.893,946.2
637.421,943.0
637.948,948.6
638.476,942.2
639.003,943.8
639.531,943.3
640.058,940.3
640.585,942.1
641.113,938.6
641.64,940.5
642.167,936.1
642.694,940.3
643.221,935.4
643.748,932.2
644.275,933.3
644.802,933.3
645.329,931.2
645.856,931.1
646.382,932.6
646.909,929.3
647.436,933.7
647.962,929.7
648.489,929.2
649.016,928.2
649.542,928.1
650.069,926.8
650.595,927.0
651.121,924.7
651.648,926.2
652.174,924.8
652.7,927.7
653.227,923.7
653.753,923.5
654.279,923.5
654.805,924.6
655.331,917.4
655.857,918.1
656.383,920.4
656.909,919.7
657.435,920.6
657.961,921.0
658.487,917.5
659.013,915.0
659.538,914.1
660.064,915.1
660.59,914.4
661.116,916.1
661.641,909.8
662.167,909.6
662.692,911.9
663.087,909.6