File: spectra/VLFR_01-LDPE_nobio_Raman_8539768b.csv
nm,Intensity
526.5,829.0
527.047,828.0
527.594,829.0
528.14,829.6
528.687,829.2
529.233,828.8
529.779,829.4
530.325,828.5
530.871,829.1
531.417,828.3
531.962,836.9
532.508,830.7
533.053,830.1
533.599,829.5
534.144,908.5
534.689,892.9
535.234,878.4
535.778,868.6
536.323,862.1
536.867,860.1
537.412,857.1
537.956,857.2
538.5,856.0
539.044,852.6
539.588,848.8
540.132,849.9
540.675,848.4
541.219,848.1
541.762,845.2
542.305,846.9
542.848,843.8
543.391,843.2
543.934,846.4
544.477,845.8
545.02,843.6
545.562,842.7
546.105,844.5
546.647,845.4
547.189,843.3
547.731,844.8
548.273,844.1
548.815,844.8
549.356,840.9
549.898,844.2
550.439,843.9
550.981,844.2
551.522,842.4
552.063,843.0
552.604,843.0
553.145,845.6
553.686,846.4
554.226,846.6
554.767,847.3
555.307,847.8
555.848,848.9
556.388,850.9
556.928,852.8
557.468,856.8
558.008,859.8
558.547,861.4
559.087,855.7
559.626,854.9
560.166,856.4
560.705,853.0
561.244,853.7
561.783,855.8
562.322,858.2
562.861,863.4
563.4,867.7
563.939,927.6
564.477,892.0
565.015,882.8
565.554,877.1
566.092,949.7
566.63,879.5
567.168,873.9
567.706,875.5
568.244,872.7
568.781,874.6
569.319,876.1
569.857,879.1
570.394,884.6
570.931,895.7
571.468,1003.5
572.005,931.8
572.542,911.8
573.079,905.9
573.616,915.1
574.153,923.9
574.689,922.6
575.226,933.8
575.762,989.3
576.298,1084.9
576.834,1043.3
577.371,1023.3
577.907,1007.5
578.442,1020.7
578.978,1039.8
579.514,1061.4
580.049,1082.4
580.585,1107.8
581.12,1130.1
581.656,1163.3
582.191,1179.0
582.726,1207.9
583.261,1237.8
583.796,1251.9
584.331,1267.5
584.865,1279.9
585.4,1294.7
585.935,1309.8
586.469,1329.2
587.004,1339.8
587.538,1366.1
588.072,1374.4
588.606,1391.8
589.14,1404.3
589.674,1414.5
590.208,1434.1
590.742,1450.8
591.275,1459.9
591.809,1472.5
592.342,1471.8
592.876,1478.5
593.409,1486.5
593.942,1486.5
594.476,1488.9
595.009,1506.4
595.542,1526.3
596.075,1533.5
596.607,1547.0
597.14,1564.8
597.673,1580.4
598.205,1603.5
598.738,1609.7
599.27,1635.8
599.803,1641.8
600.335,1651.4
600.867,1647.9
601.399,1651.3
601.931,1638.4
602.463,1636.0
602.995,1611.4
603.527,1599.9
604.058,1572.9
604.59,1547.4
605.122,1515.2
605.653,1465.6
606.184,1441.4
606.716,1414.7
607.247,1388.6
607.778,1378.3
608.309,1350.3
608.84,1331.7
609.371,1326.0
609.902,1299.8
610.433,1288.4
610.964,1276.9
611.494,1263.2
612.025,1254.2
612.556,1252.3
613.086,1246.2
613.616,1232.7
614.147,1221.4
614.677,1211.5
615.207,1197.3
615.737,1193.3
616.267,1184.9
616.797,1181.1
617.327,1170.7
617.857,1166.0
618.387,1159.9
618.917,1148.9
619.446,1148.7
619.976,1152.0
620.505,1142.5
621.035,1146.7
621.564,1157.3
622.093,1174.6
622.623,1165.7
623.152,1141.4
623.681,1124.5
624.21,1141.1
624.739,1134.1
625.268,1133.6
625.797,1146.5
626.326,1166.4
626.855,1377.2
627.383,1820.4
627.912,1542.0
628.441,1769.5
628.969,1672.4
629.498,1549.3
630.026,1445.3
630.554,1422.1
631.083,1289.3
631.611,1209.1
632.139,1184.5
632.667,1179.7
633.195,1177.0
633.724,1167.9
634.252,1181.1
634.779,1175.9
635.307,1179.3
635.835,1178.4
636.363,1188.3
636.891,1177.0
637.418,1190.0
637.946,1184.6
638.474,1192.7
639.001,1190.9
639.529,1192.5
640.056,1203.2
640.583,1201.3
641.111,1210.9
641.638,1208.9
642.165,1214.0
642.692,1220.1
643.22,1216.7
643.747,1214.1
644.274,1220.5
644.801,1210.6
645.328,1216.9
645.854,1223.6
646.381,1221.2
646.908,1223.8
647.435,1228.3
647.962,1224.6
648.488,1215.1
649.015,1225.4
649.542,1224.0
650.068,1216.4
650.595,1223.0
651.121,1223.1
651.648,1219.2
652.174,1223.5
652.7,1233.5
653.227,1233.9
653.753,1227.6
654.279,1229.3
654.805,1227.9
655.331,1227.0
655.858,1223.3
656.384,1217.2
656.91,1213.9
657.436,1202.8
657.962,1201.2
658.488,1188.1
659.013,1175.3
659.539,1171.9
660.065,1160.3
660.591,1146.0
661.117,1137.6
661.642,1131.2
662.168,1110.4
662.694,1107.3
663.088,1095.6