File: spectra/VLFR_08-PLA_bio_Raman_49f5108c.csv
nm,Intensity
526.508,827.8
527.055,826.8
527.602,828.2
528.149,828.6
528.695,827.4
529.241,828.2
529.787,827.2
530.334,827.9
530.879,828.2
531.425,828.0
531.971,829.9
532.516,829.3
533.062,829.0
533.607,829.4
534.152,1039.4
534.697,993.7
535.242,956.7
535.786,938.4
536.331,924.9
536.876,930.1
537.42,918.3
537.964,918.7
538.508,906.5
539.052,903.6
539.596,900.5
540.14,896.9
540.683,908.5
541.227,915.9
541.77,904.8
542.313,898.7
542.856,900.9
543.399,924.5
543.942,942.2
544.485,910.8
545.027,895.7
545.57,895.8
546.112,896.4
546.654,896.8
547.196,898.4
547.738,900.1
548.28,897.9
548.822,897.3
549.363,901.6
549.905,902.3
550.446,901.6
550.988,901.2
551.529,908.0
552.07,907.5
552.611,913.1
553.152,915.3
553.692,910.2
554.233,917.3
554.773,908.6
555.314,903.7
555.854,900.8
556.394,899.5
556.934,908.0
557.474,919.3
558.014,1037.9
558.553,946.3
559.093,917.2
559.632,916.3
560.172,911.7
560.711,908.8
561.25,909.4
561.789,908.4
562.328,908.7
562.867,921.3
563.406,946.8
563.944,932.0
564.483,916.2
565.021,948.2
565.559,936.8
566.098,966.3
566.636,934.8
567.174,915.7
567.711,922.2
568.249,926.1
568.787,922.1
569.324,923.6
569.862,921.3
570.399,917.2
570.936,921.5
571.474,942.8
572.011,942.7
572.548,935.7
573.084,933.5
573.621,939.4
574.158,933.7
574.694,948.4
575.231,925.4
575.767,927.3
576.303,943.2
576.84,1000.9
577.376,948.1
577.912,929.6
578.447,927.7
578.983,924.7
579.519,923.0
580.054,924.6
580.59,922.9
581.125,922.9
581.661,927.8
582.196,926.7
582.731,927.1
583.266,930.3
583.801,931.4
584.336,928.5
584.87,927.1
585.405,930.3
585.94,931.1
586.474,944.7
587.008,979.9
587.543,1008.2
588.077,954.8
588.611,932.6
589.145,931.8
589.679,931.6
590.213,928.1
590.747,929.1
591.28,928.5
591.814,924.6
592.347,927.8
592.881,922.5
593.414,922.2
593.947,928.5
594.48,925.6
595.014,930.9
595.547,925.9
596.079,928.1
596.612,926.3
597.145,928.8
597.678,925.4
598.21,928.0
598.743,929.3
599.275,926.9
599.807,926.0
600.34,930.5
600.872,927.8
601.404,923.8
601.936,923.9
602.468,926.3
603.0,926.6
603.532,923.2
604.063,922.9
604.595,925.2
605.126,925.2
605.658,921.8
606.189,923.1
606.721,922.5
607.252,924.2
607.783,922.9
608.314,926.0
608.845,922.6
609.376,925.9
609.907,923.3
610.438,919.8
610.968,920.2
611.499,923.8
612.03,925.0
612.56,921.4
613.091,922.9
613.621,921.9
614.151,925.5
614.681,924.8
615.212,926.5
615.742,923.8
616.272,925.4
616.802,927.2
617.332,924.0
617.861,923.6
618.391,923.3
618.921,922.3
619.45,919.5
619.98,922.5
620.509,923.1
621.039,923.7
621.568,920.2
622.097,923.8
622.627,930.5
623.156,940.3
623.685,933.2
624.214,927.4
624.743,924.5
625.272,927.3
625.801,923.3
626.33,923.0
626.858,924.1
627.387,926.1
627.916,935.3
628.444,1004.4
628.973,996.2
629.501,989.2
630.029,995.6
630.558,1053.2
631.086,1444.2
631.614,1202.6
632.142,1061.7
632.67,1036.7
633.198,1130.9
633.726,1099.7
634.254,996.6
634.782,945.3
635.31,925.4
635.838,919.8
636.365,916.5
636.893,917.3
637.421,911.8
637.948,915.4
638.476,915.8
639.003,914.7
639.531,911.8
640.058,914.1
640.585,908.3
641.113,910.9
641.64,914.1
642.167,914.7
642.694,913.8
643.221,906.2
643.748,905.6
644.275,904.5
644.802,902.5
645.329,905.0
645.856,902.0
646.382,905.4
646.909,904.6
647.436,902.1
647.962,903.0
648.489,903.1
649.016,901.1
649.542,901.1
650.069,902.1
650.595,895.7
651.121,901.2
651.648,900.3
652.174,896.2
652.7,901.3
653.227,894.5
653.753,897.6
654.279,896.9
654.805,895.9
655.331,900.0
655.857,894.5
656.383,899.6
656.909,898.7
657.435,892.0
657.961,894.6
658.487,895.4
659.013,893.0
659.538,895.7
660.064,897.3
660.59,892.7
661.116,893.6
661.641,891.7
662.167,892.3
662.692,895.8
663.087,890.9