File: spectra/VLFR_06-PET_bio_Raman_7a2c7309.csv
nm,Intensity
526.547,831.95
527.095,831.4
527.642,832.45
528.189,832.95
528.736,831.95
529.283,831.7
529.829,832.35
530.376,832.15
530.922,831.85
531.468,831.65
532.014,840.2
532.56,830.4
533.106,832.45
533.651,840.3
534.196,1390.75
534.742,1231.8
535.287,1087.3
535.832,999.6
536.376,950.4
536.921,929.1
537.465,924.1
538.01,918.35
538.554,924.7
539.098,925.05
539.642,929.45
540.186,934.65
540.729,919.1
541.273,915.2
541.816,912.65
542.36,914.85
542.903,916.3
543.446,916.0
543.988,920.8
544.531,919.4
545.074,923.6
545.616,924.95
546.158,926.15
546.701,926.85
547.243,929.75
547.785,932.95
548.326,931.65
548.868,933.6
549.41,935.5
549.951,938.7
550.492,948.8
551.034,944.95
551.575,942.55
552.116,947.75
552.656,954.3
553.197,960.45
553.738,959.5
554.278,955.5
554.819,955.2
555.359,963.85
555.899,987.9
556.439,993.45
556.979,1000.3
557.519,1069.25
558.058,1011.95
558.598,1009.2
559.137,993.4
559.677,981.9
560.216,988.5
560.755,989.95
561.294,992.9
561.833,991.35
562.371,1000.8
562.91,1011.45
563.449,1012.2
563.987,1007.85
564.525,1017.05
565.064,1039.6
565.602,1069.55
566.14,1068.6
566.678,1030.15
567.216,1025.8
567.753,1060.25
568.291,1033.55
568.828,1034.65
569.366,1040.35
569.903,1051.4
570.44,1075.65
570.977,1134.85
571.514,1179.4
572.051,1116.25
572.588,1074.75
573.125,1062.75
573.661,1062.75
574.198,1076.15
574.734,1073.75
575.271,1091.8
575.807,1083.1
576.343,1096.75
576.879,1106.0
577.415,1087.6
577.951,1087.05
578.486,1087.45
579.022,1089.7
579.557,1097.25
580.093,1097.4
580.628,1103.75
581.164,1110.3
581.699,1160.6
582.234,1690.2
582.769,1135.1
583.304,1122.35
583.838,1119.7
584.373,1125.95
584.908,1137.65
585.442,1188.35
585.977,1420.2
586.511,1291.8
587.045,1160.45
587.58,1144.8
588.114,1141.5
588.648,1145.5
589.182,1138.75
589.715,1146.5
590.249,1139.85
590.783,1145.1
591.316,1149.7
591.85,1145.55
592.383,1146.3
592.917,1151.65
593.45,1152.6
593.983,1150.1
594.516,1151.0
595.049,1155.15
595.582,1158.9
596.115,1161.55
596.648,1163.15
597.18,1166.65
597.713,1163.65
598.245,1172.05
598.778,1173.95
599.31,1172.6
599.842,1170.0
600.375,1171.4
600.907,1173.05
601.439,1171.2
601.971,1174.7
602.503,1168.05
603.034,1177.0
603.566,1179.9
604.098,1181.9
604.629,1177.05
605.161,1175.95
605.692,1166.95
606.224,1170.1
606.755,1172.75
607.286,1173.35
607.817,1177.85
608.348,1176.05
608.879,1183.75
609.41,1183.55
609.941,1178.55
610.472,1179.8
611.002,1177.85
611.533,1182.85
612.063,1185.75
612.594,1194.7
613.124,1198.45
613.655,1200.5
614.185,1202.75
614.715,1201.0
615.245,1206.35
615.775,1205.75
616.305,1208.05
616.835,1209.5
617.365,1210.65
617.895,1222.85
618.425,1223.5
618.954,1217.25
619.484,1218.15
620.013,1216.9
620.543,1217.9
621.072,1219.85
621.602,1221.25
622.131,1226.65
622.66,1227.9
623.189,1235.45
623.718,1239.55
624.247,1241.2
624.776,1243.2
625.305,1247.45
625.834,1251.0
626.363,1250.9
626.891,1250.65
627.42,1255.7
627.949,1258.25
628.477,1270.65
629.006,1288.2
629.534,1283.5
630.062,1287.6
630.591,1295.5
631.119,1323.4
631.647,1396.9
632.175,1376.55
632.703,1341.2
633.231,1338.85
633.759,1333.85
634.287,1325.85
634.815,1325.5
635.343,1323.9
635.871,1365.05
636.398,1429.45
636.926,1414.25
637.454,1355.55
637.981,1349.25
638.509,1348.9
639.036,1352.2
639.564,1352.8
640.091,1364.95
640.618,1353.9
641.146,1366.0
641.673,1371.65
642.2,1381.05
642.727,1372.9
643.254,1374.7
643.781,1373.55
644.308,1373.2
644.835,1374.35
645.362,1371.4
645.889,1377.4
646.416,1380.25
646.942,1389.8
647.469,1394.95
647.996,1391.3
648.522,1389.5
649.049,1392.7
649.576,1388.15
650.102,1392.8
650.629,1391.6
651.155,1390.85
651.682,1398.65
652.208,1409.45
652.734,1401.85
653.261,1409.35
653.787,1411.1
654.313,1412.3
654.839,1412.65
655.365,1407.35
655.892,1411.65
656.418,1412.85
656.944,1416.35
657.47,1407.65
657.996,1413.4
658.522,1420.35
659.048,1412.3
659.574,1424.1
660.099,1422.1
660.625,1416.85
661.151,1411.35
661.677,1406.65
662.203,1408.7
662.728,1411.35
663.123,1403.9