File: spectra/VLFR_08-PLA_bio_Raman_d17de985.csv
nm,Intensity
528.626,1865.4
529.132,1864.9
529.637,1865.3
530.143,1864.6
530.648,1867.1
531.153,1866.5
531.658,1879.1
532.164,3466.0
532.669,1865.9
533.174,1867.7
533.679,2066.8
534.184,2800.1
534.689,2613.8
535.194,2565.5
535.699,2486.1
536.203,2414.0
536.708,2441.7
537.213,2350.5
537.717,2405.3
538.222,2380.1
538.726,2320.7
539.231,2292.3
539.735,2262.3
540.239,2271.1
540.744,2406.7
541.248,2374.7
541.752,2293.5
542.256,2289.7
542.76,2281.5
543.264,2423.1
543.768,2589.8
544.272,2422.1
544.776,2311.8
545.28,2253.4
545.784,2245.5
546.287,2267.9
546.791,2282.3
547.294,2285.8
547.798,2275.7
548.301,2294.8
548.805,2302.6
549.308,2300.8
549.811,2287.9
550.315,2301.7
550.818,2329.5
551.321,2354.5
551.824,2359.9
552.327,2400.3
552.83,2412.1
553.333,2370.5
553.835,2449.5
554.338,2404.5
554.841,2350.2
555.343,2348.0
555.846,2327.4
556.349,2339.7
556.851,2341.3
557.353,2429.7
557.856,3027.4
558.358,3030.1
558.86,2491.9
559.362,2470.5
559.864,2448.4
560.366,2403.7
560.868,2418.6
561.37,2386.9
561.872,2404.5
562.374,2394.9
562.876,2495.2
563.377,2744.8
563.879,2584.4
564.38,2483.2
564.882,2635.8
565.383,2644.1
565.885,2729.6
566.386,2779.8
566.887,2500.3
567.388,2455.9
567.889,2520.2
568.391,2502.4
568.892,2515.8
569.392,2479.8
569.893,2460.7
570.394,2476.8
570.895,2490.3
571.395,2664.9
571.896,2646.8
572.397,2540.0
572.897,2544.7
573.397,2576.6
573.898,2615.3
574.398,2649.4
574.898,2578.6
575.398,2496.9
575.898,2512.4
576.398,2768.6
576.898,3014.4
577.398,2622.6
577.898,2501.2
578.398,2471.4
578.897,2461.1
579.397,2478.8
579.896,2474.1
580.396,2483.6
580.895,2452.8
581.395,2465.8
581.894,2491.1
582.393,2471.5
582.892,2466.2
583.391,2468.7
583.89,2509.4
584.389,2488.6
584.888,2491.1
585.387,2475.6
585.886,2497.4
586.384,2534.3
586.883,2737.9
587.381,2955.3
587.88,2775.7
588.378,2526.4
588.876,2485.6
589.375,2488.9
589.873,2467.1
590.371,2478.4
590.869,2476.6
591.367,2478.2
591.865,2469.7
592.363,2460.8
592.86,2462.2
593.358,2468.5
593.856,2475.5
594.353,2445.5
594.851,2467.5
595.348,2475.0
595.845,2473.2
596.342,2486.7
596.84,2473.3
597.337,2462.3
597.834,2468.8
598.331,2465.8
598.828,2475.8
599.324,2477.3
599.821,2463.0
600.318,2491.2
600.814,2482.8
601.311,2452.1
601.807,2455.2
602.304,2457.2
602.8,2466.4
603.296,2450.8
603.792,2478.6
604.288,2458.7
604.784,2447.7
605.28,2448.7
605.776,2481.9
606.272,2455.1
606.767,2467.1
607.263,2436.6
607.759,2460.4
608.254,2462.5
608.749,2456.7
609.245,2452.3
609.74,2427.7
610.235,2463.1
610.73,2425.2
611.225,2448.0
611.72,2442.8
612.215,2448.4
612.71,2437.7
613.204,2448.5
613.699,2439.2
614.194,2428.5
614.688,2448.2
615.182,2432.1
615.677,2441.3
616.171,2450.2
616.665,2418.9
617.159,2428.7
617.653,2441.8
618.147,2402.4
618.641,2415.0
619.135,2436.7
619.628,2425.8
620.122,2411.1
620.615,2401.2
621.109,2404.4
621.602,2417.2
622.095,2431.0
622.589,2489.7
623.082,2512.7
623.575,2507.5
624.068,2462.7
624.561,2426.3
625.053,2389.9
625.546,2395.2
626.039,2404.0
626.531,2411.6
627.024,2406.0
627.516,2420.4
628.008,2575.1
628.501,2892.9
628.993,2813.5
629.485,2824.1
629.977,2849.0
630.469,3144.9
630.96,5239.0
631.452,4689.9
631.944,3378.6
632.435,3081.3
632.927,3291.2
633.418,3704.2
633.91,3203.8
634.401,2671.1
634.892,2457.9
635.383,2393.1
635.874,2358.8
636.365,2348.7
636.856,2332.6
637.346,2354.0
637.837,2311.1
638.327,2314.1
638.818,2322.1
639.308,2300.6
639.799,2303.0
640.289,2316.1
640.779,2289.8
641.269,2309.0
641.759,2286.6
642.249,2302.3
642.738,2290.1
643.228,2271.0
643.718,2268.8
644.207,2269.1
644.697,2265.3
645.186,2274.1
645.675,2249.8
646.164,2259.6
646.653,2241.0
647.142,2244.3
647.631,2232.5
648.12,2237.5
648.609,2221.0
649.098,2230.1
649.586,2230.4
650.075,2203.8
650.563,2208.9
651.051,2205.6
651.539,2217.6
652.027,2217.8
652.515,2188.1
653.003,2193.4
653.491,2181.0
653.979,2164.5
654.467,2170.0
654.954,2198.5
655.442,2175.9
655.929,2154.0
656.416,2162.0
656.904,2157.6
657.391,2155.3
657.878,2151.3
658.365,2148.4
658.851,2145.1
659.338,2138.7
659.825,2132.7
660.311,2128.3
660.798,2112.4
661.041,2126.3