File: spectra/VLFR_01-LDPE_bio_Raman_e228e169.csv
nm,Intensity
526.547,832.4
527.095,832.25
527.642,831.0
528.189,830.65
528.736,832.9
529.283,832.35
529.829,831.05
530.376,831.65
530.922,831.4
531.468,832.4
532.014,838.55
532.56,832.3
533.106,831.15
533.651,832.4
534.196,838.9
534.742,839.25
535.287,838.2
535.832,838.75
536.376,838.8
536.921,836.5
537.465,838.95
538.01,838.15
538.554,835.25
539.098,836.2
539.642,837.6
540.186,836.25
540.729,835.75
541.273,835.75
541.816,836.6
542.36,837.2
542.903,835.95
543.446,836.1
543.988,836.85
544.531,836.5
545.074,835.8
545.616,836.05
546.158,835.6
546.701,835.7
547.243,836.5
547.785,835.25
548.326,835.05
548.868,835.55
549.41,836.3
549.951,836.15
550.492,835.9
551.034,835.85
551.575,836.0
552.116,836.4
552.656,834.85
553.197,835.3
553.738,836.35
554.278,835.3
554.819,835.95
555.359,836.7
555.899,836.95
556.439,835.8
556.979,836.15
557.519,837.05
558.058,836.35
558.598,835.7
559.137,835.95
559.677,836.55
560.216,835.4
560.755,835.55
561.294,836.85
561.833,836.85
562.371,836.75
562.91,837.35
563.449,836.9
563.987,837.2
564.525,835.6
565.064,836.95
565.602,836.6
566.14,837.9
566.678,835.85
567.216,837.15
567.753,836.65
568.291,836.7
568.828,836.35
569.366,836.45
569.903,837.15
570.44,838.05
570.977,837.8
571.514,837.5
572.051,837.35
572.588,838.1
573.125,836.4
573.661,837.7
574.198,836.85
574.734,837.25
575.271,837.3
575.807,838.2
576.343,838.6
576.879,838.0
577.415,837.3
577.951,836.5
578.486,839.35
579.022,837.85
579.557,836.55
580.093,838.65
580.628,839.0
581.164,836.95
581.699,837.65
582.234,837.55
582.769,838.05
583.304,837.95
583.838,838.85
584.373,839.1
584.908,837.65
585.442,838.4
585.977,839.35
586.511,837.8
587.045,838.05
587.58,838.2
588.114,839.4
588.648,839.45
589.182,838.25
589.715,837.65
590.249,838.2
590.783,839.85
591.316,837.8
591.85,838.8
592.383,839.55
592.917,840.25
593.45,840.8
593.983,840.05
594.516,839.7
595.049,839.9
595.582,840.2
596.115,841.05
596.648,839.05
597.18,840.65
597.713,840.2
598.245,839.55
598.778,840.95
599.31,841.6
599.842,841.85
600.375,842.15
600.907,841.25
601.439,842.6
601.971,842.05
602.503,842.1
603.034,842.35
603.566,842.35
604.098,841.75
604.629,841.3
605.161,840.7
605.692,841.8
606.224,841.35
606.755,841.05
607.286,840.55
607.817,840.0
608.348,839.95
608.879,840.4
609.41,841.1
609.941,840.05
610.472,841.3
611.002,840.6
611.533,838.75
612.063,840.0
612.594,839.85
613.124,839.75
613.655,839.5
614.185,839.8
614.715,839.7
615.245,841.25
615.775,840.3
616.305,839.8
616.835,839.9
617.365,839.95
617.895,840.95
618.425,840.55
618.954,839.9
619.484,840.05
620.013,840.1
620.543,839.6
621.072,838.95
621.602,839.45
622.131,839.8
622.66,838.85
623.189,839.55
623.718,838.4
624.247,840.15
624.776,840.25
625.305,839.7
625.834,838.95
626.363,840.05
626.891,840.4
627.42,842.15
627.949,840.7
628.477,841.5
629.006,841.9
629.534,841.2
630.062,842.25
630.591,840.65
631.119,840.1
631.647,839.95
632.175,841.3
632.703,840.6
633.231,839.9
633.759,839.9
634.287,839.15
634.815,839.05
635.343,839.6
635.871,840.95
636.398,840.55
636.926,839.45
637.454,840.45
637.981,839.9
638.509,840.75
639.036,840.05
639.564,841.1
640.091,839.75
640.618,840.95
641.146,840.8
641.673,841.0
642.2,841.0
642.727,842.2
643.254,842.2
643.781,840.5
644.308,841.5
644.835,841.75
645.362,841.45
645.889,842.1
646.416,842.65
646.942,843.05
647.469,844.45
647.996,843.55
648.522,844.05
649.049,844.1
649.576,843.55
650.102,843.85
650.629,843.7
651.155,843.5
651.682,844.8
652.208,843.3
652.734,843.9
653.261,843.2
653.787,844.85
654.313,842.6
654.839,843.0
655.365,841.2
655.892,841.95
656.418,841.25
656.944,841.65
657.47,841.1
657.996,840.15
658.522,840.7
659.048,839.1
659.574,840.6
660.099,839.1
660.625,839.55
661.151,838.8
661.677,838.05
662.203,837.5
662.728,838.5
663.123,836.8