File: spectra/VLFR_01-LDPE_bio_Raman_06634192.csv
nm,Intensity
528.635,1835.3
529.14,1835.3
529.645,1834.5
530.151,1835.5
530.656,1835.8
531.161,1836.6
531.666,1883.7
532.171,3785.4
532.676,1838.6
533.181,1838.2
533.686,2029.8
534.191,2413.2
534.696,2370.9
535.201,2286.9
535.705,2182.5
536.21,2128.6
536.715,2140.9
537.219,2110.1
537.724,2114.6
538.228,2092.5
538.733,2067.2
539.237,2052.6
539.741,2039.2
540.246,2031.9
540.75,2028.4
541.254,2032.6
541.758,2022.9
542.262,2023.4
542.766,2006.6
543.27,2006.7
543.774,2012.2
544.278,2012.1
544.781,2009.6
545.285,2004.5
545.789,1999.4
546.292,2009.0
546.796,1999.2
547.299,1993.7
547.803,1999.0
548.306,1993.4
548.809,1995.6
549.313,1986.4
549.816,1988.4
550.319,1978.9
550.822,1992.4
551.325,1994.1
551.828,1989.5
552.331,1999.8
552.834,2005.4
553.337,2029.6
553.839,2022.0
554.342,2042.4
554.845,2044.2
555.347,2048.1
555.85,2065.4
556.352,2085.5
556.854,2114.3
557.357,2119.7
557.859,2158.9
558.361,2180.3
558.863,2155.4
559.365,2126.3
559.867,2116.0
560.369,2105.7
560.871,2099.9
561.373,2133.6
561.875,2131.1
562.377,2162.9
562.878,2195.8
563.38,2265.4
563.881,2849.2
564.383,2488.8
564.884,2407.0
565.386,2319.8
565.887,2671.7
566.388,2596.0
566.889,2295.9
567.391,2348.4
567.892,2250.1
568.393,2247.1
568.893,2247.6
569.394,2260.5
569.895,2269.2
570.396,2329.1
570.897,2392.9
571.397,3346.0
571.898,2749.6
572.398,2476.8
572.899,2374.7
573.399,2361.7
573.899,2458.5
574.399,2386.5
574.9,2405.0
575.4,2757.1
575.9,3041.9
576.4,3774.4
576.899,3400.8
577.399,2994.9
577.899,2716.5
578.399,2768.1
578.898,2808.8
579.398,2870.7
579.897,2938.8
580.397,3017.4
580.896,3191.2
581.396,3263.1
581.895,3322.8
582.394,3449.0
582.893,3484.4
583.392,3526.1
583.891,3546.7
584.39,3644.6
584.889,3720.4
585.387,3692.3
585.886,3683.8
586.385,3723.5
586.883,3766.9
587.382,3760.3
587.88,3750.5
588.379,3817.1
588.877,3835.5
589.375,3823.2
589.873,3896.8
590.371,3919.4
590.869,4064.1
591.367,4051.9
591.865,4092.5
592.363,4037.0
592.86,4047.5
593.358,4061.7
593.856,4096.1
594.353,4099.7
594.851,4107.4
595.348,4094.6
595.845,4081.7
596.342,4100.8
596.84,4123.4
597.337,4115.9
597.834,4201.0
598.331,4205.4
598.827,4250.2
599.324,4271.3
599.821,4293.0
600.318,4225.2
600.814,4348.3
601.311,4341.9
601.807,4306.2
602.303,4279.2
602.8,4238.9
603.296,4234.0
603.792,4129.6
604.288,4047.0
604.784,3945.3
605.28,3906.7
605.776,3766.4
606.272,3783.7
606.767,3661.3
607.263,3645.1
607.758,3558.3
608.254,3486.4
608.749,3392.4
609.244,3383.6
609.74,3336.2
610.235,3306.1
610.73,3255.1
611.225,3226.5
611.72,3188.1
612.215,3105.6
612.709,3078.1
613.204,3058.9
613.699,3021.3
614.193,3003.7
614.688,2964.0
615.182,2994.3
615.676,2981.0
616.171,2919.4
616.665,2921.7
617.159,2943.9
617.653,2930.2
618.147,2921.4
618.641,2929.0
619.134,2877.6
619.628,2923.2
620.122,2888.4
620.615,2912.5
621.109,2961.5
621.602,3057.4
622.095,3224.4
622.588,3172.0
623.082,2959.2
623.575,2864.6
624.068,2865.9
624.56,2910.0
625.053,2888.6
625.546,2976.3
626.039,3061.5
626.531,3922.0
627.024,8079.3
627.516,7888.5
628.008,6866.0
628.501,9927.6
628.993,7377.9
629.485,6427.5
629.977,5638.3
630.469,5342.5
630.961,4192.5
631.452,3432.5
631.944,3207.5
632.436,3113.0
632.927,3103.8
633.418,2991.6
633.91,2966.4
634.401,2977.2
634.892,2954.1
635.383,2931.3
635.874,2936.4
636.365,2936.0
636.856,2891.8
637.347,2887.4
637.837,2879.5
638.328,2857.8
638.818,2799.4
639.309,2822.1
639.799,2837.9
640.289,2822.7
640.78,2808.7
641.27,2771.1
641.76,2763.7
642.249,2791.0
642.739,2782.6
643.229,2745.4
643.719,2800.1
644.208,2792.4
644.698,2780.4
645.187,2757.8
645.676,2779.7
646.165,2753.0
646.655,2763.4
647.144,2748.2
647.633,2712.6
648.121,2754.8
648.61,2711.5
649.099,2670.6
649.587,2667.3
650.076,2674.8
650.564,2647.9
651.053,2628.5
651.541,2651.7
652.029,2640.6
652.517,2598.5
653.005,2644.9
653.493,2602.1
653.981,2607.6
654.468,2586.2
654.956,2596.5
655.444,2575.7
655.931,2570.6
656.418,2553.2
656.906,2504.6
657.393,2511.1
657.88,2458.0
658.367,2440.8
658.854,2448.8
659.341,2409.8
659.827,2421.3
660.314,2345.5
660.8,2348.6
661.044,2332.5