File: spectra/VLFR_07-PET_bio_Raman_322812da.csv
nm,Intensity
791.588,10511.0
792.685,10159.2
793.781,9821.9
794.878,9646.2
795.975,9616.8
797.071,9504.2
798.168,9518.3
799.264,9438.7
800.36,9340.2
801.456,9512.8
802.552,9434.4
803.648,9271.2
804.744,9192.9
805.84,9193.3
806.936,9061.9
808.031,9037.6
809.127,8944.8
810.222,8942.1
811.317,8908.3
812.412,8751.1
813.507,8791.1
814.602,8613.8
815.697,8533.8
816.792,8486.0
817.887,8361.2
818.981,8389.2
820.076,8292.5
821.17,8235.5
822.265,8112.0
823.359,8013.7
824.453,7985.5
825.547,8002.9
826.641,7858.8
827.735,7753.7
828.828,7708.4
829.922,7646.5
831.016,7613.6
832.109,7505.9
833.202,7410.0
834.295,7393.2
835.388,7297.6
836.481,7314.7
837.574,7296.2
838.667,7184.5
839.76,7199.5
840.852,7320.1
841.945,7270.6
843.037,7148.6
844.129,7072.4
845.221,6962.6
846.314,6852.3
847.405,6870.2
848.497,6792.0
849.589,6750.8
850.68,6747.4
851.772,6759.6
852.863,6690.9
853.955,6631.0
855.046,6588.7
856.137,6596.9
857.228,6544.1
858.318,6520.7
859.409,6561.4
860.5,6561.1
861.59,6435.9
862.681,6448.3
863.771,6357.0
864.861,6407.1
865.951,6267.8
867.041,6225.2
868.131,6174.2
869.22,6191.3
870.31,6187.1
871.399,6231.9
872.488,6286.3
873.578,6273.0
874.667,6136.2
875.756,6116.5
876.845,6004.1
877.933,5995.0
879.022,5898.0
880.11,5892.9
881.199,5850.4
882.287,5855.9
883.375,5825.3
884.463,5791.2
885.551,5731.7
886.639,5767.0
887.726,5692.3
888.814,5644.0
889.901,5651.5
890.988,5587.9
892.075,5581.7
893.162,5500.6
894.249,5504.0
895.336,5455.0
896.423,5438.0
897.509,5524.1
898.595,5682.4
899.682,5480.3
900.768,5316.4
901.854,5294.9
902.94,5210.7
904.025,5240.0
905.111,5182.5
906.196,5205.7
907.282,5334.4
908.367,5346.8
909.452,5169.1
910.537,5040.8
911.622,5003.6
912.706,4949.3
913.791,4941.8
914.875,4906.9
915.959,4837.9
917.044,4837.6
918.128,4815.9
919.211,4814.2
920.295,4742.7
921.379,4728.7
922.462,4695.4
923.546,4711.7
924.629,4630.8
925.712,4633.0
926.795,4592.7
927.877,4566.7
928.96,4519.2
930.043,4517.7
931.125,4484.3
932.207,4463.5
933.289,4431.2
934.371,4419.7
935.453,4400.5
936.535,4383.3
937.616,4346.3
938.697,4330.8
939.779,4324.3
940.86,4290.1
941.941,4286.7
943.022,4254.1
944.102,4250.5
945.183,4235.6
946.263,4209.9
947.343,4217.0
948.423,4189.0
949.503,4176.3
950.583,4159.4
951.663,4142.1
952.742,4134.4
953.822,4106.0
954.901,4109.1
955.98,4082.2
957.059,4081.3
958.137,4072.8
959.216,4067.6
960.294,4043.5
961.373,4034.1
962.451,4029.9
963.529,4013.7
964.607,4011.2
965.684,3999.0
966.762,3986.9
967.839,3985.4
968.917,3986.2
969.994,3964.0
971.071,3959.6
972.147,3955.1
973.224,3951.2
974.3,3935.3
975.377,3929.7
976.453,3926.6
977.529,3920.0
978.605,3915.4
979.68,3907.6
980.756,3898.6
981.831,3900.4
982.907,3895.0
983.982,3884.4
985.057,3878.9
986.131,3879.5
987.206,3875.0
988.28,3869.1
989.355,3866.4
990.429,3861.8
991.503,3856.0
992.576,3853.9
993.65,3850.0
994.723,3842.8
995.797,3841.7
996.87,3837.0
997.943,3831.6
999.016,3831.5
1000.09,3828.6
1001.16,3827.3
1002.23,3818.7
1003.31,3817.6
1004.38,3814.7
1005.45,3810.5
1006.52,3806.1
1007.59,3808.5
1008.66,3801.2
1009.73,3805.4
1010.81,3799.4
1011.88,3799.3
1012.95,3793.8
1014.02,3793.8
1015.09,3793.5
1016.16,3794.1
1017.23,3788.6
1018.3,3787.6
1019.37,3786.8
1020.44,3787.6
1021.51,3784.8
1022.58,3786.2
1023.64,3781.3
1024.71,3782.3
1025.78,3776.4
1026.85,3773.6
1027.92,3772.4
1028.99,3771.5
1030.05,3769.4
1031.12,3769.4
1032.19,3767.6
1033.26,3767.5
1034.32,3768.8
1035.39,3768.7
1036.46,3766.8
1037.52,3766.5
1038.59,3763.5
1039.66,3761.8
1040.72,3761.8
1041.79,3759.8
1042.86,3757.9
1043.92,3761.0
1044.99,3758.9
1046.05,3758.5
1047.12,3757.3
1048.18,3758.2
1049.25,3756.6
1050.31,3754.0
1051.37,3755.2
1052.44,3756.0
1053.5,3755.3
1054.57,3754.1
1055.63,3754.7
1056.69,3753.8
1057.76,3754.3
1058.82,3754.1
1059.88,3752.6
1060.95,3753.7
1062.01,3754.9
1063.07,3752.5
1064.13,3753.9
1065.19,3752.1
1066.26,3752.5
1067.32,3752.9
1068.11,3750.2