File: spectra/VLFR_02-HDPE_nobio_Raman_7e5fd823.csv
nm,Intensity
526.532,830.5
527.079,830.4
527.625,830.5
528.172,830.4
528.718,829.733
529.265,830.233
529.811,830.667
530.357,830.3
530.903,830.233
531.449,829.8
531.994,839.833
532.54,830.733
533.085,828.8
533.63,830.8
534.176,891.633
534.721,881.4
535.266,870.533
535.81,861.9
536.355,857.433
536.9,855.7
537.444,856.0
537.988,855.867
538.533,854.7
539.077,850.667
539.621,849.767
540.165,848.233
540.708,847.7
541.252,847.233
541.795,846.8
542.339,847.233
542.882,845.967
543.425,846.3
543.968,847.567
544.511,845.633
545.054,845.867
545.597,845.9
546.139,845.267
546.682,845.8
547.224,846.2
547.766,845.667
548.308,845.667
548.85,844.567
549.392,845.233
549.934,845.833
550.475,846.067
551.017,847.333
551.558,845.0
552.1,845.367
552.641,846.0
553.182,847.133
553.723,848.5
554.264,847.967
554.804,848.967
555.345,849.633
555.885,851.6
556.426,851.1
556.966,852.6
557.506,854.2
558.046,856.0
558.586,860.167
559.126,856.2
559.665,855.733
560.205,855.9
560.745,854.733
561.284,854.833
561.823,855.867
562.362,859.733
562.901,861.7
563.44,863.567
563.979,966.3
564.518,881.133
565.056,876.2
565.595,874.667
566.133,1069.37
566.671,876.767
567.21,866.233
567.748,864.6
568.285,861.633
568.823,862.333
569.361,865.567
569.899,865.033
570.436,868.967
570.974,874.2
571.511,1053.2
572.048,893.5
572.585,873.167
573.122,869.467
573.659,873.0
574.196,879.5
574.733,871.667
575.269,888.733
575.806,949.4
576.342,984.867
576.878,944.833
577.414,917.3
577.951,896.733
578.486,894.7
579.022,899.467
579.558,902.467
580.094,905.167
580.629,909.4
581.165,916.567
581.7,921.067
582.236,926.733
582.771,931.267
583.306,934.967
583.841,940.933
584.376,947.6
584.911,951.4
585.445,956.067
585.98,958.567
586.514,966.6
587.049,972.7
587.583,979.533
588.117,984.033
588.651,990.433
589.186,996.833
589.72,1006.8
590.253,1015.07
590.787,1021.23
591.321,1028.33
591.854,1031.23
592.388,1039.7
592.921,1039.37
593.455,1041.23
593.988,1044.6
594.521,1046.53
595.054,1048.5
595.587,1050.67
596.12,1055.27
596.653,1055.4
597.186,1062.1
597.718,1064.17
598.251,1069.4
598.783,1079.43
599.316,1079.07
599.848,1085.93
600.38,1079.5
600.912,1082.9
601.444,1083.47
601.976,1079.33
602.508,1082.9
603.04,1074.8
603.572,1075.17
604.103,1068.27
604.635,1061.0
605.167,1050.77
605.698,1044.03
606.229,1036.53
606.761,1029.17
607.292,1026.03
607.823,1023.13
608.354,1018.97
608.885,1011.93
609.416,1005.63
609.947,1004.8
610.477,999.467
611.008,1002.57
611.539,996.733
612.069,997.433
612.6,990.667
613.13,991.233
613.66,989.033
614.19,986.467
614.721,982.967
615.251,981.4
615.781,978.7
616.311,972.633
616.841,974.267
617.37,973.533
617.9,973.433
618.43,972.3
618.96,968.4
619.489,971.333
620.019,965.667
620.548,968.167
621.077,968.8
621.607,974.767
622.136,993.967
622.665,985.2
623.194,965.5
623.723,961.333
624.252,959.533
624.781,958.6
625.31,959.733
625.839,967.733
626.368,992.067
626.896,1197.4
627.425,1536.27
627.953,1282.8
628.482,1478.83
629.01,1375.37
629.539,1275.3
630.067,1182.17
630.596,1157.27
631.124,1043.07
631.652,989.6
632.18,971.333
632.708,966.1
633.236,963.033
633.764,959.433
634.292,960.133
634.82,960.367
635.348,956.333
635.876,960.067
636.403,961.467
636.931,960.1
637.459,960.967
637.986,960.867
638.514,959.033
639.041,963.533
639.568,962.933
640.096,963.367
640.623,968.867
641.15,970.2
641.678,968.6
642.205,972.467
642.732,973.367
643.259,973.0
643.786,973.333
644.313,973.133
644.84,973.533
645.367,974.6
645.894,972.467
646.421,973.867
646.948,973.633
647.474,973.4
648.001,975.467
648.528,972.733
649.054,971.267
649.581,972.667
650.108,969.667
650.634,967.467
651.161,966.933
651.687,967.567
652.214,969.9
652.74,966.733
653.266,966.333
653.793,965.3
654.319,967.233
654.845,968.433
655.371,966.767
655.897,965.667
656.424,961.667
656.95,962.0
657.476,959.767
658.002,958.333
658.528,957.133
659.054,955.1
659.58,951.7
660.106,949.933
660.631,945.6
661.157,942.9
661.683,936.233
662.209,935.367
662.735,929.7
663.129,928.267