File: spectra/VLFR_02-HDPE_nobio_Raman_44197ae2.csv
nm,Intensity
526.508,829.8
527.055,831.3
527.602,830.1
528.149,830.8
528.695,831.2
529.241,829.6
529.787,830.5
530.334,828.8
530.879,829.8
531.425,830.9
531.971,832.5
532.516,831.2
533.062,830.1
533.607,830.2
534.152,908.2
534.697,896.4
535.242,884.3
535.786,870.0
536.331,863.2
536.876,861.1
537.42,857.6
537.964,858.8
538.508,856.0
539.052,853.7
539.596,850.4
540.14,850.5
540.683,850.7
541.227,848.8
541.77,849.7
542.313,847.7
542.856,849.5
543.399,849.6
543.942,848.9
544.485,847.5
545.027,848.5
545.57,847.1
546.112,848.0
546.654,846.6
547.196,849.4
547.738,850.2
548.28,847.6
548.822,848.0
549.363,848.7
549.905,849.0
550.446,850.1
550.988,849.3
551.529,849.1
552.07,851.4
552.611,848.9
553.152,850.3
553.692,853.7
554.233,851.5
554.773,855.7
555.314,852.9
555.854,856.0
556.394,856.2
556.934,858.8
557.474,863.1
558.014,862.8
558.553,861.0
559.093,862.4
559.632,862.5
560.172,860.7
560.711,858.6
561.25,859.6
561.789,859.9
562.328,864.8
562.867,866.0
563.406,866.4
563.944,973.6
564.483,890.3
565.021,886.1
565.559,882.0
566.098,1031.5
566.636,885.0
567.174,872.0
567.711,875.1
568.249,872.6
568.787,869.0
569.324,872.8
569.862,875.8
570.399,881.6
570.936,887.2
571.474,1034.2
572.011,915.4
572.548,890.9
573.084,885.8
573.621,887.6
574.158,901.2
574.694,893.7
575.231,902.6
575.767,982.6
576.303,1024.0
576.84,984.8
577.376,959.1
577.912,931.3
578.447,932.5
578.983,940.6
579.519,944.9
580.054,953.8
580.59,960.9
581.125,976.2
581.661,983.6
582.196,994.3
582.731,1001.0
583.266,1009.5
583.801,1022.5
584.336,1026.1
584.87,1040.6
585.405,1055.4
585.94,1060.2
586.474,1077.7
587.008,1084.0
587.543,1099.0
588.077,1110.6
588.611,1124.2
589.145,1136.7
589.679,1147.0
590.213,1160.3
590.747,1169.9
591.28,1188.5
591.814,1197.8
592.347,1204.1
592.881,1210.4
593.414,1201.6
593.947,1211.9
594.48,1210.7
595.014,1217.5
595.547,1216.2
596.079,1210.2
596.612,1208.7
597.145,1212.1
597.678,1202.7
598.21,1212.2
598.743,1211.4
599.275,1205.9
599.807,1206.0
600.34,1194.8
600.872,1193.9
601.404,1188.8
601.936,1178.6
602.468,1176.1
603.0,1164.8
603.532,1165.9
604.063,1155.9
604.595,1147.5
605.126,1135.6
605.658,1121.6
606.189,1120.9
606.721,1107.2
607.252,1097.9
607.783,1100.8
608.314,1091.8
608.845,1086.6
609.376,1082.9
609.907,1080.0
610.438,1077.5
610.968,1070.5
611.499,1073.0
612.03,1062.2
612.56,1065.6
613.091,1058.2
613.621,1057.0
614.151,1052.5
614.681,1042.9
615.212,1046.5
615.742,1042.0
616.272,1034.3
616.802,1032.0
617.332,1035.9
617.861,1026.6
618.391,1026.1
618.921,1016.8
619.45,1023.2
619.98,1014.9
620.509,1017.1
621.039,1017.4
621.568,1021.4
622.097,1035.0
622.627,1031.1
623.156,1011.7
623.685,1004.0
624.214,1004.6
624.743,1005.7
625.272,1001.4
625.801,1010.5
626.33,1027.1
626.858,1216.7
627.387,1611.0
627.916,1346.7
628.444,1513.4
628.973,1399.2
629.501,1309.2
630.029,1211.4
630.558,1192.9
631.086,1085.9
631.614,1032.3
632.142,1014.8
632.67,1009.9
633.198,1006.8
633.726,1002.4
634.254,1000.7
634.782,1001.0
635.31,1002.4
635.838,1002.2
636.365,999.9
636.893,1003.7
637.421,1004.8
637.948,1006.4
638.476,1003.2
639.003,999.8
639.531,1003.3
640.058,1004.3
640.585,1003.9
641.113,1010.1
641.64,1010.5
642.167,1007.1
642.694,1017.0
643.221,1013.7
643.748,1010.6
644.275,1010.7
644.802,1008.6
645.329,1007.8
645.856,1006.5
646.382,1008.0
646.909,1006.0
647.436,1009.9
647.962,1009.2
648.489,998.5
649.016,1002.8
649.542,995.3
650.069,991.3
650.595,991.4
651.121,990.4
651.648,982.9
652.174,986.3
652.7,985.1
653.227,980.0
653.753,982.0
654.279,979.3
654.805,976.9
655.331,974.8
655.857,967.7
656.383,968.6
656.909,972.2
657.435,964.7
657.961,960.4
658.487,959.8
659.013,956.9
659.538,952.9
660.064,950.2
660.59,945.7
661.116,944.5
661.641,941.4
662.167,940.2
662.692,935.6
663.087,932.1