File: spectra/VLFR_06-PET_bio_Raman_48ee4762.csv
nm,Intensity
526.508,831.6
527.055,831.7
527.602,829.4
528.149,831.4
528.695,831.1
529.241,829.7
529.787,830.4
530.334,831.1
530.879,830.4
531.425,831.5
531.971,836.1
532.516,832.1
533.062,831.6
533.607,840.7
534.152,1993.1
534.697,1674.7
535.242,1343.5
535.786,1145.6
536.331,1029.9
536.876,981.1
537.42,966.2
537.964,956.5
538.508,957.6
539.052,951.5
539.596,969.1
540.14,976.2
540.683,937.8
541.227,923.6
541.77,920.7
542.313,922.4
542.856,921.6
543.399,918.7
543.942,928.3
544.485,925.3
545.027,928.0
545.57,925.5
546.112,931.2
546.654,935.3
547.196,931.8
547.738,933.8
548.28,934.9
548.822,938.2
549.363,937.5
549.905,939.9
550.446,958.6
550.988,964.6
551.529,948.6
552.07,950.9
552.611,956.2
553.152,976.0
553.692,960.0
554.233,961.7
554.773,961.4
555.314,975.7
555.854,1016.5
556.394,1026.7
556.934,1034.8
557.474,1170.9
558.014,1059.1
558.553,1060.5
559.093,1013.4
559.632,988.1
560.172,992.0
560.711,992.5
561.25,996.4
561.789,1003.9
562.328,1012.6
562.867,1022.0
563.406,1032.1
563.944,1019.5
564.483,1028.8
565.021,1068.1
565.559,1138.7
566.098,1128.3
566.636,1047.2
567.174,1031.5
567.711,1108.2
568.249,1043.0
568.787,1037.8
569.324,1048.2
569.862,1075.5
570.399,1113.0
570.936,1235.6
571.474,1335.7
572.011,1198.6
572.548,1096.2
573.084,1078.2
573.621,1072.3
574.158,1102.7
574.694,1090.1
575.231,1108.9
575.767,1094.2
576.303,1122.6
576.84,1140.8
577.376,1101.4
577.912,1088.6
578.447,1097.3
578.983,1097.3
579.519,1104.0
580.054,1109.4
580.59,1121.8
581.125,1130.2
581.661,1203.0
582.196,2310.2
582.731,1182.8
583.266,1139.4
583.801,1137.0
584.336,1146.2
584.87,1158.9
585.405,1259.2
585.94,1739.1
586.474,1499.8
587.008,1193.2
587.543,1169.2
588.077,1159.6
588.611,1157.0
589.145,1151.0
589.679,1153.0
590.213,1159.8
590.747,1158.0
591.28,1162.3
591.814,1164.3
592.347,1155.3
592.881,1163.5
593.414,1165.7
593.947,1164.8
594.48,1166.9
595.014,1171.5
595.547,1170.5
596.079,1169.5
596.612,1173.6
597.145,1176.6
597.678,1184.1
598.21,1181.2
598.743,1186.5
599.275,1185.0
599.807,1188.9
600.34,1191.1
600.872,1191.9
601.404,1190.4
601.936,1194.7
602.468,1196.6
603.0,1188.7
603.532,1199.2
604.063,1195.0
604.595,1199.9
605.126,1195.8
605.658,1189.5
606.189,1192.1
606.721,1188.3
607.252,1198.8
607.783,1192.1
608.314,1192.8
608.845,1207.7
609.376,1201.4
609.907,1202.4
610.438,1205.8
610.968,1198.6
611.499,1204.5
612.03,1211.2
612.56,1215.3
613.091,1220.6
613.621,1221.9
614.151,1226.1
614.681,1233.0
615.212,1225.0
615.742,1230.0
616.272,1238.1
616.802,1232.2
617.332,1245.4
617.861,1241.8
618.391,1244.1
618.921,1248.1
619.45,1253.7
619.98,1247.1
620.509,1246.7
621.039,1244.3
621.568,1247.0
622.097,1260.7
622.627,1259.3
623.156,1259.4
623.685,1262.3
624.214,1273.6
624.743,1279.3
625.272,1285.2
625.801,1280.3
626.33,1279.3
626.858,1286.7
627.387,1290.1
627.916,1301.9
628.444,1321.8
628.973,1340.1
629.501,1337.9
630.029,1333.0
630.558,1341.6
631.086,1390.9
631.614,1506.5
632.142,1495.1
632.67,1421.5
633.198,1416.0
633.726,1404.0
634.254,1376.3
634.782,1366.6
635.31,1386.3
635.838,1438.8
636.365,1536.3
636.893,1550.3
637.421,1427.0
637.948,1408.3
638.476,1399.1
639.003,1401.8
639.531,1411.1
640.058,1410.5
640.585,1412.4
641.113,1419.5
641.64,1431.1
642.167,1443.5
642.694,1440.2
643.221,1421.5
643.748,1427.1
644.275,1433.9
644.802,1431.3
645.329,1427.9
645.856,1437.3
646.382,1433.2
646.909,1455.0
647.436,1446.1
647.962,1456.5
648.489,1443.6
649.016,1447.1
649.542,1449.6
650.069,1456.6
650.595,1451.6
651.121,1451.1
651.648,1457.3
652.174,1461.3
652.7,1468.7
653.227,1467.9
653.753,1465.1
654.279,1461.5
654.805,1477.5
655.331,1469.1
655.857,1467.8
656.383,1472.5
656.909,1477.9
657.435,1468.0
657.961,1475.2
658.487,1475.5
659.013,1474.6
659.538,1481.3
660.064,1468.1
660.59,1481.0
661.116,1465.5
661.641,1467.9
662.167,1453.7
662.692,1464.9
663.087,1459.2