File: spectra/VLFR_01-LDPE_nobio_Raman_b62990db.csv
nm,Intensity
526.486,827.9
527.033,829.2
527.579,829.3
528.126,827.5
528.672,829.2
529.219,829.7
529.765,829.1
530.311,829.0
530.857,829.5
531.403,830.1
531.948,832.4
532.494,830.6
533.039,828.9
533.585,827.5
534.13,862.8
534.675,863.0
535.22,855.8
535.764,852.0
536.309,851.6
536.854,849.2
537.398,848.6
537.942,848.3
538.486,845.6
539.03,846.0
539.574,845.8
540.118,843.7
540.662,842.8
541.205,844.7
541.749,844.5
542.292,841.1
542.835,842.6
543.378,842.6
543.921,842.3
544.464,841.9
545.006,842.1
545.549,844.1
546.091,841.0
546.634,841.7
547.176,841.5
547.718,843.9
548.26,840.8
548.802,843.0
549.343,840.4
549.885,840.5
550.426,842.6
550.968,841.6
551.509,839.3
552.05,841.8
552.591,842.4
553.132,842.1
553.673,843.3
554.214,842.7
554.754,841.5
555.295,842.4
555.835,843.0
556.375,844.7
556.915,845.0
557.455,845.3
557.995,849.1
558.535,846.0
559.075,844.7
559.614,845.2
560.154,845.5
560.693,844.6
561.232,844.5
561.772,845.8
562.311,845.4
562.85,845.4
563.388,848.2
563.927,868.5
564.466,857.1
565.004,853.7
565.543,852.4
566.081,876.3
566.619,853.5
567.157,849.8
567.695,851.0
568.233,852.4
568.771,849.1
569.309,852.0
569.846,850.7
570.384,854.2
570.921,853.5
571.458,884.5
571.995,869.7
572.532,857.6
573.069,857.9
573.606,859.5
574.143,862.9
574.68,858.0
575.216,860.4
575.753,877.0
576.289,913.7
576.825,894.3
577.361,884.1
577.897,871.8
578.433,870.7
578.969,872.7
579.505,874.9
580.041,875.2
580.576,883.0
581.112,884.2
581.647,889.7
582.183,892.5
582.718,894.4
583.253,899.3
583.788,900.8
584.323,911.1
584.858,912.1
585.392,921.7
585.927,926.9
586.462,934.7
586.996,936.5
587.53,949.9
588.065,953.8
588.599,965.0
589.133,972.9
589.667,983.9
590.201,993.6
590.735,998.6
591.268,1010.6
591.802,1010.2
592.335,1012.8
592.869,1026.2
593.402,1032.6
593.936,1037.4
594.469,1053.3
595.002,1048.0
595.535,1061.6
596.068,1069.9
596.601,1073.5
597.133,1091.7
597.666,1105.8
598.199,1113.9
598.731,1124.0
599.264,1137.2
599.796,1133.9
600.328,1144.4
600.86,1138.8
601.393,1141.4
601.925,1142.1
602.457,1136.5
602.988,1119.9
603.52,1111.7
604.052,1110.4
604.583,1094.4
605.115,1080.5
605.646,1066.7
606.178,1056.5
606.709,1048.1
607.24,1035.0
607.771,1031.9
608.302,1020.5
608.833,1014.2
609.364,1007.2
609.895,1007.9
610.426,1000.3
610.957,996.2
611.487,986.8
612.018,985.6
612.548,983.9
613.078,981.9
613.609,980.1
614.139,977.6
614.669,971.3
615.199,971.0
615.729,961.0
616.259,958.8
616.789,959.7
617.319,951.4
617.849,951.4
618.378,950.8
618.908,946.8
619.437,945.4
619.967,945.1
620.496,941.1
621.025,942.7
621.555,945.4
622.084,945.5
622.613,951.0
623.142,935.0
623.671,934.6
624.2,934.7
624.729,930.2
625.258,929.8
625.786,934.8
626.315,936.6
626.844,1005.4
627.372,1173.1
627.901,1077.3
628.429,1132.5
628.957,1102.4
629.486,1068.4
630.014,1025.7
630.542,1017.8
631.07,970.0
631.598,936.5
632.126,924.5
632.654,922.4
633.182,917.9
633.71,917.3
634.237,920.6
634.765,916.3
635.293,917.4
635.82,919.5
636.348,923.8
636.875,924.5
637.403,921.0
637.93,923.6
638.458,923.4
638.985,927.8
639.512,927.8
640.039,932.0
640.566,933.7
641.093,934.7
641.62,934.8
642.147,936.8
642.674,935.3
643.201,938.7
643.728,940.6
644.255,941.3
644.781,943.1
645.308,943.8
645.835,943.2
646.361,949.6
646.888,949.1
647.414,947.0
647.941,948.8
648.467,946.3
648.993,950.4
649.52,949.8
650.046,949.0
650.572,949.9
651.098,950.0
651.625,953.9
652.151,954.0
652.677,958.8
653.203,955.5
653.729,954.8
654.255,955.9
654.78,954.5
655.306,957.8
655.832,951.5
656.358,949.4
656.884,949.8
657.409,949.7
657.935,945.9
658.461,944.0
658.986,937.4
659.512,934.4
660.037,930.6
660.563,931.3
661.088,928.1
661.614,919.9
662.139,914.4
662.664,911.9
663.058,910.7