File: spectra/VLFR_01-LDPE_bio_Raman_3d8698da.csv
nm,Intensity
526.495,829.6
527.042,828.8
527.589,830.2
528.136,829.0
528.682,828.8
529.229,828.4
529.775,829.8
530.321,828.8
530.867,828.7
531.413,830.2
531.959,829.1
532.505,829.1
533.051,828.1
533.596,829.6
534.141,902.2
534.687,885.1
535.232,875.5
535.777,861.5
536.321,855.2
536.866,853.9
537.41,855.2
537.955,851.9
538.499,850.5
539.043,845.7
539.587,843.8
540.131,844.8
540.675,842.7
541.219,842.5
541.762,842.6
542.305,844.2
542.849,840.2
543.392,841.9
543.935,842.2
544.478,840.3
545.02,842.0
545.563,842.5
546.106,840.7
546.648,841.2
547.19,842.7
547.732,841.5
548.274,840.7
548.816,839.8
549.358,842.8
549.9,839.1
550.441,841.1
550.983,839.9
551.524,839.1
552.065,842.3
552.606,842.0
553.147,843.0
553.688,843.5
554.229,844.3
554.769,843.7
555.31,845.6
555.85,847.9
556.391,849.5
556.931,850.8
557.471,849.4
558.011,853.0
558.551,856.7
559.09,854.8
559.63,853.6
560.169,850.6
560.709,851.1
561.248,849.9
561.787,853.2
562.326,854.4
562.865,857.6
563.404,859.2
563.943,963.0
564.481,886.4
565.02,876.8
565.558,873.0
566.096,1064.6
566.634,879.8
567.172,860.8
567.71,862.9
568.248,854.6
568.786,858.4
569.324,858.1
569.861,859.4
570.399,864.4
570.936,872.0
571.473,1053.4
572.01,896.2
572.547,870.6
573.084,864.8
573.621,865.7
574.158,876.7
574.694,865.5
575.231,880.7
575.767,972.1
576.303,1012.8
576.84,959.9
577.376,925.1
577.912,883.8
578.448,880.7
578.984,882.2
579.519,886.4
580.055,885.1
580.59,889.2
581.126,894.4
581.661,897.6
582.196,904.8
582.731,904.4
583.267,913.2
583.801,921.7
584.336,925.7
584.871,929.8
585.406,936.1
585.94,947.2
586.475,950.8
587.009,962.0
587.543,971.8
588.078,983.8
588.612,983.4
589.146,992.3
589.68,999.9
590.214,1006.4
590.747,1014.9
591.281,1021.6
591.815,1030.9
592.348,1036.7
592.881,1034.5
593.415,1036.3
593.948,1037.1
594.481,1033.6
595.014,1039.7
595.547,1041.5
596.08,1038.9
596.613,1039.4
597.146,1036.8
597.678,1036.3
598.211,1041.3
598.743,1042.2
599.276,1046.9
599.808,1045.6
600.34,1042.9
600.872,1048.8
601.404,1045.3
601.936,1046.2
602.468,1038.7
603.0,1041.8
603.532,1029.6
604.064,1031.8
604.595,1023.3
605.127,1020.2
605.658,1011.3
606.189,1012.7
606.721,1001.8
607.252,1001.7
607.783,1000.5
608.314,991.6
608.845,995.9
609.376,994.3
609.907,988.6
610.438,988.2
610.968,985.8
611.499,986.8
612.029,981.9
612.56,975.6
613.09,979.4
613.621,983.3
614.151,973.5
614.681,967.3
615.211,965.8
615.741,965.7
616.271,961.5
616.801,964.9
617.331,964.0
617.861,965.9
618.39,962.2
618.92,957.5
619.45,960.1
619.979,958.3
620.509,949.5
621.038,955.1
621.567,965.6
622.096,984.0
622.626,981.0
623.155,956.7
623.684,945.1
624.213,945.4
624.742,942.8
625.271,943.3
625.799,951.5
626.328,981.5
626.857,1230.3
627.386,1720.3
627.914,1374.6
628.443,1575.2
628.971,1512.0
629.5,1373.1
630.028,1227.8
630.556,1197.2
631.084,1049.1
631.613,971.1
632.141,944.0
632.669,936.9
633.197,936.2
633.725,930.7
634.253,931.5
634.781,928.0
635.308,924.9
635.836,929.9
636.364,928.4
636.891,927.4
637.419,927.2
637.947,929.1
638.474,926.4
639.002,924.4
639.529,926.5
640.056,929.8
640.584,931.6
641.111,928.7
641.638,930.1
642.165,933.4
642.692,932.5
643.219,934.6
643.746,931.2
644.273,933.3
644.8,929.9
645.327,933.9
645.854,933.2
646.381,929.7
646.908,934.0
647.434,932.3
647.961,933.4
648.488,931.3
649.014,935.4
649.541,932.8
650.067,932.1
650.594,931.0
651.12,930.9
651.646,926.8
652.173,930.3
652.699,929.9
653.225,926.5
653.752,928.6
654.278,929.7
654.804,927.0
655.33,927.2
655.856,924.2
656.382,924.1
656.908,921.1
657.434,919.6
657.96,919.9
658.486,919.0
659.012,915.5
659.538,917.5
660.064,914.1
660.589,911.7
661.115,911.4
661.641,906.2
662.166,902.9
662.692,905.2
663.086,902.8