File: spectra/VLFR_07-PET_nobio_Raman_1e374301.csv
nm,Intensity
791.588,15024.8
792.685,13742.6
793.781,13445.7
794.878,12939.2
795.975,12824.7
797.071,12715.5
798.168,12757.9
799.264,12827.4
800.36,12707.2
801.456,12681.1
802.552,12690.4
803.648,12234.1
804.744,12183.8
805.84,12011.2
806.936,11973.8
808.031,11815.1
809.127,11731.5
810.222,11581.1
811.317,11370.0
812.412,11324.4
813.507,11208.4
814.602,11185.8
815.697,10950.0
816.792,10709.3
817.887,10749.2
818.981,10678.5
820.076,10472.4
821.17,10256.4
822.265,10378.4
823.359,10178.6
824.453,10098.5
825.547,10087.3
826.641,9902.9
827.735,9793.8
828.828,9610.1
829.922,9447.5
831.016,9458.7
832.109,9327.4
833.202,9229.9
834.295,9063.3
835.388,9051.1
836.481,9010.4
837.574,9023.5
838.667,8865.2
839.76,8843.7
840.852,8947.1
841.945,8991.3
843.037,8682.2
844.129,8511.4
845.221,8368.7
846.314,8296.7
847.405,8219.5
848.497,8140.4
849.589,8042.9
850.681,7954.6
851.772,7985.4
852.863,7935.3
853.955,7879.8
855.046,7713.7
856.137,7835.6
857.228,7688.2
858.318,7652.6
859.409,7805.4
860.5,7725.7
861.59,7571.7
862.681,7460.5
863.771,7471.1
864.861,7404.9
865.951,7310.8
867.041,7214.1
868.131,7169.4
869.22,7171.2
870.31,7268.7
871.399,7264.5
872.488,7437.3
873.578,7333.0
874.667,7211.4
875.756,7008.1
876.845,6951.9
877.933,6866.3
879.022,6871.1
880.11,6785.8
881.199,6787.3
882.287,6726.0
883.375,6666.6
884.463,6693.0
885.551,6618.2
886.639,6524.4
887.726,6531.6
888.814,6462.1
889.901,6396.5
890.988,6379.6
892.075,6351.0
893.162,6249.4
894.249,6177.1
895.336,6154.6
896.423,6140.6
897.509,6369.5
898.595,6705.9
899.682,6310.1
900.768,5983.6
901.854,5832.1
902.94,5850.9
904.025,5792.7
905.111,5726.3
906.196,5860.5
907.282,6138.8
908.367,6028.5
909.452,5855.7
910.537,5580.6
911.622,5474.9
912.706,5460.4
913.791,5382.0
914.875,5335.8
915.959,5328.6
917.044,5237.3
918.128,5190.1
919.211,5166.4
920.295,5143.6
921.379,5085.7
922.462,5054.9
923.546,5018.1
924.629,5000.4
925.712,4925.4
926.795,4926.2
927.877,4886.0
928.96,4820.8
930.043,4801.9
931.125,4789.2
932.207,4744.2
933.289,4737.1
934.371,4686.3
935.453,4636.2
936.535,4609.1
937.616,4578.5
938.697,4550.1
939.779,4558.1
940.86,4512.0
941.941,4480.2
943.022,4461.8
944.102,4447.1
945.183,4408.9
946.263,4397.6
947.343,4383.6
948.423,4361.3
949.503,4331.9
950.583,4307.3
951.663,4295.0
952.742,4277.0
953.822,4250.4
954.901,4245.9
955.98,4224.3
957.059,4221.4
958.137,4199.2
959.216,4178.6
960.294,4165.2
961.373,4151.2
962.451,4136.0
963.529,4126.1
964.607,4126.5
965.684,4102.0
966.762,4100.2
967.839,4070.5
968.917,4069.7
969.994,4062.6
971.071,4056.3
972.147,4035.6
973.224,4024.2
974.3,4010.3
975.377,4003.9
976.453,4007.4
977.529,3994.2
978.605,3993.7
979.68,3975.3
980.756,3963.4
981.831,3963.1
982.907,3954.4
983.982,3945.7
985.057,3943.7
986.131,3944.8
987.206,3930.6
988.28,3924.2
989.355,3912.9
990.429,3909.8
991.503,3906.9
992.576,3905.2
993.65,3887.8
994.723,3888.7
995.797,3885.5
996.87,3883.0
997.943,3874.3
999.016,3867.4
1000.09,3870.6
1001.16,3859.0
1002.23,3863.4
1003.31,3856.9
1004.38,3849.8
1005.45,3844.9
1006.52,3845.9
1007.59,3839.8
1008.66,3833.1
1009.73,3833.0
1010.81,3828.3
1011.88,3825.6
1012.95,3827.0
1014.02,3821.2
1015.09,3815.7
1016.16,3817.3
1017.23,3815.0
1018.3,3807.6
1019.37,3807.8
1020.44,3809.8
1021.51,3812.1
1022.58,3814.8
1023.64,3811.9
1024.71,3805.8
1025.78,3798.8
1026.85,3796.3
1027.92,3791.9
1028.99,3789.3
1030.05,3785.3
1031.12,3785.8
1032.19,3783.8
1033.26,3784.1
1034.32,3787.5
1035.39,3786.1
1036.46,3786.4
1037.52,3781.7
1038.59,3778.0
1039.66,3775.9
1040.72,3775.1
1041.79,3774.1
1042.86,3772.8
1043.92,3771.9
1044.99,3769.0
1046.05,3771.2
1047.12,3770.1
1048.18,3769.2
1049.25,3769.3
1050.31,3767.2
1051.37,3768.1
1052.44,3767.4
1053.5,3766.3
1054.57,3767.1
1055.63,3765.2
1056.69,3766.9
1057.76,3763.5
1058.82,3763.6
1059.88,3764.9
1060.95,3765.6
1062.01,3764.5
1063.07,3763.3
1064.13,3763.9
1065.19,3762.2
1066.26,3761.8
1067.32,3762.1
1068.11,3762.9