File: spectra/VLFR_01-LDPE_nobio_Raman_ea17ea25.csv
nm,Intensity
528.65,1842.95
529.155,1842.1
529.66,1842.15
530.165,1842.9
530.67,1842.45
531.175,1843.0
531.68,1859.85
532.185,2464.45
532.69,1843.85
533.194,1843.15
533.699,1934.6
534.204,2136.0
534.708,2103.0
535.213,2065.3
535.717,2020.45
536.222,2004.25
536.726,1995.15
537.231,1989.1
537.735,2000.65
538.239,1988.2
538.743,1975.15
539.247,1968.55
539.751,1957.95
540.255,1955.5
540.759,1955.75
541.263,1958.4
541.767,1953.95
542.271,1950.75
542.775,1950.95
543.279,1955.6
543.782,1957.9
544.286,1957.75
544.789,1955.15
545.293,1948.7
545.796,1957.25
546.3,1950.5
546.803,1951.75
547.306,1955.4
547.81,1952.75
548.313,1952.9
548.816,1950.9
549.319,1951.15
549.822,1949.7
550.325,1946.85
550.828,1952.05
551.331,1947.15
551.834,1949.65
552.337,1952.55
552.839,1953.65
553.342,1969.05
553.844,1974.0
554.347,1972.7
554.849,1978.75
555.352,1974.2
555.854,1984.8
556.357,1992.45
556.859,1993.5
557.361,2004.9
557.863,2020.1
558.365,2024.9
558.867,2013.2
559.369,2003.05
559.871,1999.2
560.373,1995.65
560.875,1996.2
561.377,1997.4
561.878,2004.5
562.38,2017.15
562.881,2031.05
563.383,2051.9
563.884,2342.5
564.386,2166.9
564.887,2115.15
565.388,2080.8
565.89,2234.6
566.391,2207.6
566.892,2058.5
567.393,2087.55
567.894,2038.25
568.395,2035.75
568.896,2030.35
569.396,2046.9
569.897,2049.85
570.398,2079.15
570.898,2117.7
571.399,2582.3
571.9,2296.35
572.4,2167.8
572.9,2115.05
573.401,2128.8
573.901,2163.85
574.401,2139.05
574.901,2150.8
575.401,2328.55
575.901,2503.45
576.401,2854.05
576.901,2686.4
577.401,2468.45
577.901,2361.45
578.4,2385.1
578.9,2410.4
579.399,2475.55
579.899,2499.95
580.398,2569.65
580.898,2604.75
581.397,2688.4
581.896,2692.05
582.395,2785.9
582.895,2800.9
583.394,2860.45
583.893,2940.2
584.391,2960.9
584.89,3008.1
585.389,3027.9
585.888,3057.5
586.386,3153.1
586.885,3260.05
587.384,3279.15
587.882,3378.5
588.38,3525.35
588.879,3590.3
589.377,3634.65
589.875,3780.75
590.373,3819.75
590.871,3930.7
591.369,3984.4
591.867,4086.0
592.365,4126.3
592.863,4203.3
593.361,4264.55
593.858,4285.25
594.356,4279.15
594.853,4317.55
595.351,4397.95
595.848,4452.8
596.345,4527.35
596.843,4550.1
597.34,4647.9
597.837,4764.15
598.334,4757.75
598.831,4818.55
599.328,4875.85
599.824,4841.25
600.321,4976.75
600.818,4948.65
601.314,4981.85
601.811,4951.7
602.307,4822.95
602.804,4757.15
603.3,4756.2
603.796,4636.15
604.293,4514.05
604.789,4476.8
605.285,4278.85
605.781,4214.65
606.277,4122.7
606.772,4091.35
607.268,3965.1
607.764,3866.45
608.259,3812.0
608.755,3770.65
609.25,3652.85
609.746,3647.2
610.241,3519.1
610.736,3531.7
611.231,3463.2
611.727,3471.0
612.222,3398.7
612.716,3341.05
613.211,3316.05
613.706,3270.8
614.201,3246.75
614.695,3229.45
615.19,3201.3
615.684,3164.65
616.179,3147.15
616.673,3109.4
617.168,3100.45
617.662,3088.85
618.156,3052.35
618.65,3049.35
619.144,3008.65
619.638,3033.05
620.131,2996.7
620.625,2991.75
621.119,2996.65
621.612,3084.05
622.106,3110.0
622.599,3071.45
623.093,2972.4
623.586,2905.25
624.079,2884.0
624.572,2877.55
625.065,2890.45
625.558,2884.6
626.051,2969.4
626.544,3366.5
627.037,5734.5
627.529,5407.2
628.022,4913.0
628.514,6597.15
629.007,5167.45
629.499,4537.55
629.991,4158.65
630.483,4013.55
630.976,3503.1
631.468,3091.35
631.959,2980.85
632.451,2934.05
632.943,2879.65
633.435,2917.15
633.926,2898.3
634.418,2857.9
634.909,2896.1
635.401,2867.0
635.892,2898.0
636.383,2874.95
636.874,2895.85
637.365,2891.4
637.856,2899.45
638.347,2937.4
638.838,2942.35
639.329,2941.25
639.819,2988.5
640.31,3010.1
640.8,2982.7
641.291,3065.7
641.781,3044.2
642.271,3064.1
642.761,3068.85
643.251,3078.9
643.741,3144.05
644.231,3118.0
644.721,3126.3
645.211,3051.8
645.7,3119.75
646.19,3137.8
646.679,3118.7
647.169,3180.75
647.658,3162.05
648.147,3126.75
648.636,3128.25
649.125,3080.25
649.614,3115.95
650.103,3031.3
650.592,3108.05
651.08,3081.85
651.569,3033.4
652.058,3085.75
652.546,3052.8
653.034,3065.8
653.523,3054.85
654.011,3052.1
654.499,2971.45
654.987,2980.75
655.475,3006.7
655.963,2945.35
656.45,2918.85
656.938,2903.05
657.425,2871.5
657.913,2874.6
658.4,2805.9
658.888,2775.65
659.375,2752.0
659.862,2708.15
660.349,2656.5
660.836,2676.05
661.079,2643.55