File: spectra/VLFR_02-HDPE_nobio_Raman_6486f9c6.csv
nm,Intensity
526.5,829.6
527.047,828.0
527.594,828.3
528.14,828.3
528.687,828.9
529.233,828.2
529.779,828.7
530.325,827.2
530.871,828.0
531.417,828.1
531.962,837.3
532.508,832.5
533.053,829.5
533.599,828.8
534.144,893.9
534.689,880.6
535.234,872.0
535.778,857.7
536.323,851.4
536.867,850.8
537.412,850.1
537.956,847.5
538.5,847.2
539.044,846.5
539.588,843.1
540.132,843.1
540.675,840.6
541.219,839.0
541.762,839.7
542.305,839.7
542.848,841.6
543.391,840.7
543.934,839.0
544.477,841.1
545.02,840.1
545.562,840.5
546.105,840.7
546.647,841.0
547.189,838.4
547.731,837.5
548.273,838.0
548.815,838.5
549.356,840.7
549.898,839.1
550.439,838.1
550.981,839.4
551.522,839.9
552.063,842.0
552.604,839.4
553.145,840.4
553.686,841.8
554.226,843.7
554.767,843.7
555.307,841.7
555.848,845.1
556.388,846.7
556.928,848.0
557.468,851.6
558.008,849.8
558.547,852.3
559.087,849.6
559.626,850.1
560.166,851.3
560.705,846.8
561.244,847.7
561.783,848.8
562.322,851.3
562.861,852.2
563.4,859.0
563.939,954.6
564.477,877.8
565.015,871.6
565.554,867.0
566.092,1046.2
566.63,872.7
567.168,856.2
567.706,856.1
568.244,849.2
568.781,853.3
569.319,851.5
569.857,853.6
570.394,857.4
570.931,863.6
571.468,1009.7
572.005,885.4
572.542,855.7
573.079,850.1
573.616,851.5
574.153,859.7
574.689,848.7
575.226,862.6
575.762,957.4
576.298,962.3
576.834,920.9
577.371,889.2
577.907,857.1
578.442,851.9
578.978,852.0
579.514,849.5
580.049,849.7
580.585,850.0
581.12,850.6
581.656,849.9
582.191,848.9
582.726,850.6
583.261,850.0
583.796,850.8
584.331,851.9
584.865,850.8
585.4,851.5
585.935,852.9
586.469,851.8
587.004,851.7
587.538,856.1
588.072,855.0
588.606,854.9
589.14,851.8
589.674,855.6
590.208,857.1
590.742,858.6
591.275,855.6
591.809,859.5
592.342,859.4
592.876,861.8
593.409,860.4
593.942,861.1
594.476,864.0
595.009,868.5
595.542,867.4
596.075,868.2
596.607,872.4
597.14,870.8
597.673,871.5
598.205,872.4
598.738,879.5
599.27,882.3
599.803,885.2
600.335,882.0
600.867,884.9
601.399,882.9
601.931,889.3
602.463,886.5
602.995,884.0
603.527,885.1
604.058,889.8
604.59,889.7
605.122,890.5
605.653,888.8
606.184,885.4
606.716,890.8
607.247,889.7
607.778,884.8
608.309,884.4
608.84,888.2
609.371,888.1
609.902,886.9
610.433,887.7
610.964,890.8
611.494,889.3
612.025,886.5
612.556,886.1
613.086,885.2
613.616,884.5
614.147,886.0
614.677,884.6
615.207,882.8
615.737,882.9
616.267,881.9
616.797,882.0
617.327,887.0
617.857,884.2
618.387,886.2
618.917,883.9
619.446,883.4
619.976,885.7
620.505,886.3
621.035,886.0
621.564,893.5
622.093,908.9
622.623,902.8
623.152,889.2
623.681,881.8
624.21,882.2
624.739,882.1
625.268,885.6
625.797,889.8
626.326,910.6
626.855,1084.3
627.383,1482.6
627.912,1224.2
628.441,1328.0
628.969,1283.5
629.498,1194.2
630.026,1103.8
630.554,1077.0
631.083,967.3
631.611,901.4
632.139,884.5
632.667,875.8
633.195,871.8
633.724,870.6
634.252,865.0
634.779,866.9
635.307,863.2
635.835,863.3
636.363,863.3
636.891,859.9
637.418,856.7
637.946,855.0
638.474,857.1
639.001,855.9
639.529,854.4
640.056,853.8
640.583,853.8
641.111,856.3
641.638,855.5
642.165,855.1
642.692,852.7
643.22,855.6
643.747,852.5
644.274,853.9
644.801,852.8
645.328,851.1
645.854,854.7
646.381,852.7
646.908,855.2
647.435,853.7
647.962,853.7
648.488,855.3
649.015,856.2
649.542,854.3
650.068,855.3
650.595,856.0
651.121,853.4
651.648,854.4
652.174,852.7
652.7,853.6
653.227,853.0
653.753,855.4
654.279,855.1
654.805,854.0
655.331,854.2
655.858,852.7
656.384,854.5
656.91,854.6
657.436,853.4
657.962,854.3
658.488,851.5
659.013,854.5
659.539,855.2
660.065,854.9
660.591,855.4
661.117,852.6
661.642,854.1
662.168,851.9
662.694,850.8
663.088,850.1