File: spectra/VLFR_07-PET_nobio_Raman_f9c589ed.csv
nm,Intensity
791.377,12743.6
792.477,11754.8
793.576,11033.4
794.676,10765.2
795.775,10650.7
796.874,10544.8
797.973,10517.4
799.072,10467.6
800.171,10257.3
801.27,10299.8
802.368,10220.3
803.467,10020.2
804.565,9806.7
805.664,9824.24
806.762,9639.28
807.86,9524.32
808.958,9486.82
810.056,9385.28
811.153,9328.32
812.251,9308.36
813.349,9108.74
814.446,9063.68
815.543,9069.98
816.64,9001.98
817.737,8909.72
818.834,8803.64
819.931,8680.56
821.028,8692.86
822.125,8573.32
823.221,8472.14
824.317,8437.84
825.414,8490.62
826.51,8222.8
827.606,8165.0
828.702,8058.54
829.797,8040.54
830.893,8031.42
831.988,7785.48
833.084,7763.98
834.179,7675.06
835.274,7629.58
836.369,7597.52
837.464,7663.58
838.559,7652.38
839.654,7559.8
840.748,7722.52
841.843,7757.58
842.937,7409.02
844.031,7416.68
845.125,7148.44
846.219,7054.04
847.313,7020.6
848.407,7052.22
849.5,7057.6
850.593,6951.98
851.687,6953.64
852.78,6948.52
853.873,6850.1
854.966,6864.7
856.059,6741.24
857.151,6755.5
858.244,6767.54
859.336,6857.02
860.428,6917.3
861.52,6696.92
862.612,6553.92
863.704,6533.06
864.796,6596.02
865.888,6455.96
866.979,6338.38
868.07,6431.9
869.162,6370.66
870.253,6337.5
871.344,6533.22
872.434,6656.82
873.525,6643.12
874.615,6393.58
875.706,6212.02
876.796,6201.28
877.886,6166.06
878.976,6072.52
880.066,5992.64
881.156,6039.8
882.245,5954.26
883.335,5998.4
884.424,5881.78
885.513,5938.18
886.602,5874.38
887.691,5735.72
888.78,5764.08
889.868,5701.22
890.957,5622.84
892.045,5696.84
893.133,5612.84
894.221,5569.4
895.309,5548.24
896.397,5498.32
897.484,5731.2
898.571,6235.92
899.659,5781.9
900.746,5431.24
901.833,5307.58
902.92,5262.62
904.006,5260.94
905.093,5196.48
906.179,5325.18
907.266,5621.06
908.352,5699.6
909.438,5370.74
910.523,5104.82
911.609,5034.36
912.695,4932.52
913.78,4945.92
914.865,4909.78
915.95,4870.32
917.035,4839.0
918.12,4821.48
919.204,4813.82
920.289,4773.14
921.373,4773.04
922.457,4700.92
923.541,4721.72
924.625,4656.16
925.709,4627.42
926.792,4605.54
927.876,4591.58
928.959,4543.92
930.042,4524.68
931.125,4491.5
932.208,4472.98
933.29,4454.36
934.373,4431.06
935.455,4395.26
936.537,4384.52
937.619,4365.92
938.701,4360.98
939.782,4316.44
940.864,4318.22
941.945,4289.6
943.026,4298.54
944.107,4238.26
945.188,4248.68
946.269,4247.96
947.349,4213.8
948.43,4195.68
949.51,4179.62
950.59,4167.94
951.67,4158.44
952.75,4126.32
953.829,4132.86
954.909,4126.66
955.988,4093.9
957.067,4105.2
958.146,4068.88
959.224,4062.68
960.303,4058.26
961.381,4040.96
962.459,4047.74
963.537,4026.48
964.615,4016.7
965.693,4012.0
966.771,3998.42
967.848,3999.36
968.925,3984.62
970.002,3979.2
971.079,3959.26
972.156,3958.3
973.232,3951.34
974.309,3952.2
975.385,3933.2
976.461,3929.26
977.537,3918.44
978.612,3920.62
979.688,3906.24
980.763,3902.08
981.838,3896.02
982.913,3897.24
983.988,3887.82
985.063,3884.1
986.137,3873.48
987.211,3871.22
988.285,3870.74
989.359,3867.7
990.433,3856.1
991.506,3850.84
992.58,3847.38
993.653,3842.54
994.726,3839.28
995.799,3835.54
996.872,3829.24
997.944,3826.08
999.016,3819.12
1000.09,3819.96
1001.16,3815.84
1002.23,3809.76
1003.3,3811.04
1004.38,3806.02
1005.45,3802.58
1006.52,3799.9
1007.59,3794.5
1008.66,3792.76
1009.73,3787.74
1010.8,3786.24
1011.87,3786.9
1012.94,3783.2
1014.01,3780.5
1015.08,3783.2
1016.15,3779.88
1017.22,3774.24
1018.29,3773.92
1019.36,3771.66
1020.42,3771.0
1021.49,3777.12
1022.56,3779.36
1023.63,3775.88
1024.7,3771.84
1025.76,3766.46
1026.83,3763.22
1027.9,3759.92
1028.97,3757.58
1030.03,3753.66
1031.1,3750.88
1032.17,3752.22
1033.23,3752.68
1034.3,3755.36
1035.36,3755.94
1036.43,3754.36
1037.5,3750.52
1038.56,3746.52
1039.63,3744.96
1040.69,3742.22
1041.76,3741.9
1042.82,3740.78
1043.89,3740.18
1044.95,3737.86
1046.01,3736.9
1047.08,3738.18
1048.14,3737.18
1049.2,3736.78
1050.27,3736.08
1051.33,3736.78
1052.39,3735.36
1053.46,3735.04
1054.52,3734.8
1055.58,3734.64
1056.64,3734.34
1057.7,3733.28
1058.77,3734.18
1059.83,3732.34
1060.89,3732.58
1061.95,3732.72
1063.01,3732.42
1064.07,3732.92
1065.13,3731.9
1066.19,3731.24
1067.25,3730.52
1068.05,3729.8