File: spectra/VLFR_06-PET_bio_Raman_24a3b533.csv
nm,Intensity
528.637,1838.8
529.143,1839.9
529.648,1839.4
530.153,1840.4
530.659,1839.5
531.164,1844.4
531.669,1925.2
532.174,4201.9
532.679,1849.7
533.184,1873.2
533.689,5592.0
534.194,12633.8
534.699,9924.2
535.203,7212.4
535.708,5081.4
536.213,3850.3
536.717,3389.2
537.222,3174.7
537.726,3049.6
538.231,3107.1
538.735,3088.7
539.24,3087.5
539.744,3377.6
540.248,3109.0
540.752,2802.7
541.256,2652.0
541.761,2679.0
542.265,2662.9
542.769,2663.3
543.272,2633.4
543.776,2740.8
544.28,2674.6
544.784,2686.0
545.288,2688.2
545.791,2704.6
546.295,2702.3
546.798,2753.1
547.302,2775.1
547.805,2760.1
548.308,2781.7
548.812,2786.6
549.315,2789.2
549.818,2770.2
550.321,3087.8
550.824,3728.8
551.327,2908.7
551.83,2884.8
552.333,3001.1
552.836,3703.0
553.339,2994.5
553.842,2996.2
554.344,3072.4
554.847,3078.7
555.349,3460.0
555.852,3895.0
556.354,4053.8
556.857,4098.2
557.359,5872.4
557.861,4781.9
558.363,4369.1
558.866,3996.5
559.368,3426.5
559.87,3371.5
560.372,3358.5
560.873,3402.9
561.375,3490.0
561.877,3622.3
562.379,3679.2
562.88,3930.5
563.382,3878.8
563.883,3680.4
564.385,3834.4
564.886,4374.4
565.388,5194.2
565.889,5591.8
566.39,4343.6
566.891,3874.1
567.392,4334.1
567.893,4512.7
568.394,3968.3
568.895,3889.5
569.396,4076.8
569.897,4377.7
570.398,5271.3
570.898,6986.8
571.399,8175.5
571.899,6095.3
572.4,4790.8
572.9,4279.2
573.4,4227.7
573.901,4518.0
574.401,4425.5
574.901,4420.7
575.401,4960.4
575.901,4592.0
576.401,5017.8
576.901,4880.8
577.401,4524.8
577.9,4351.8
578.4,4488.2
578.9,4406.3
579.399,4455.2
579.899,4537.2
580.398,4643.3
580.897,4903.4
581.397,5313.5
581.896,12766.5
582.395,10502.0
582.894,5042.6
583.393,4704.8
583.892,4762.2
584.391,4934.8
584.889,5207.8
585.388,7282.2
585.887,12967.8
586.385,9786.5
586.884,5567.6
587.382,5007.3
587.881,4926.0
588.379,4932.1
588.877,4932.8
589.375,4792.9
589.874,4779.5
590.372,4843.1
590.87,4783.4
591.367,4842.3
591.865,4870.1
592.363,4909.9
592.861,4862.9
593.358,4910.1
593.856,4967.5
594.353,4911.4
594.851,4931.2
595.348,4979.6
595.845,5043.8
596.342,5032.4
596.84,5024.1
597.337,4988.2
597.833,5028.9
598.33,5065.2
598.827,5099.9
599.324,5039.4
599.821,5139.5
600.317,5166.1
600.814,5148.9
601.31,5114.4
601.807,5154.9
602.303,5153.7
602.799,5189.9
603.295,5059.6
603.791,5167.4
604.287,5171.5
604.783,5122.4
605.279,5185.7
605.775,5186.4
606.271,5265.3
606.766,5168.3
607.262,5178.5
607.757,5280.0
608.253,5226.2
608.748,5188.8
609.243,5195.4
609.738,5315.7
610.233,5235.3
610.729,5223.6
611.223,5212.6
611.718,5379.7
612.213,5185.5
612.708,5255.9
613.202,5242.8
613.697,5324.4
614.192,5362.2
614.686,5388.1
615.18,5287.9
615.675,5357.9
616.169,5445.5
616.663,5444.8
617.157,5464.9
617.651,5535.8
618.145,5554.0
618.638,5591.2
619.132,5559.3
619.626,5495.5
620.119,5509.0
620.613,5443.4
621.106,5457.1
621.599,5548.3
622.093,5605.3
622.586,5508.2
623.079,5606.3
623.572,5459.2
624.065,5648.6
624.558,5647.4
625.05,5798.8
625.543,5754.9
626.036,5629.1
626.528,5818.1
627.02,5689.2
627.513,5863.2
628.005,5972.9
628.497,6134.6
628.989,6393.8
629.481,6404.1
629.973,6274.6
630.465,6356.1
630.957,6913.1
631.449,8337.4
631.94,8719.5
632.432,7608.0
632.923,7323.3
633.414,7258.3
633.906,6924.7
634.397,6596.1
634.888,6530.0
635.379,6745.3
635.87,7603.5
636.361,9005.8
636.852,8369.8
637.342,6975.1
637.833,6723.5
638.323,6608.3
638.814,6465.1
639.304,6468.9
639.794,6568.3
640.285,6549.3
640.775,6636.0
641.265,6481.8
641.755,6571.0
642.244,6837.3
642.734,6591.9
643.224,6497.0
643.713,6720.2
644.203,6569.9
644.692,6550.3
645.181,6695.4
645.671,6627.2
646.16,6430.5
646.649,6541.9
647.138,6673.2
647.627,6671.1
648.115,6534.7
648.604,6451.8
649.093,6377.1
649.581,6653.2
650.07,6452.3
650.558,6480.7
651.046,6513.2
651.534,6501.8
652.023,6482.1
652.511,6326.5
652.998,6211.8
653.486,6257.3
653.974,6225.0
654.462,6126.7
654.949,6193.1
655.437,6102.4
655.924,6064.5
656.411,6031.6
656.898,6091.4
657.385,5951.1
657.872,6006.2
658.359,5965.4
658.846,5901.6
659.333,5737.8
659.82,5630.1
660.306,5851.0
660.793,5807.7
661.036,5611.7