File: spectra/VLFR_02-HDPE_bio_Raman_edd6a363.csv
nm,Intensity
526.495,831.6
527.042,828.7
527.589,829.3
528.136,831.0
528.682,827.8
529.229,828.2
529.775,829.3
530.321,829.6
530.867,831.1
531.413,828.4
531.959,830.8
532.505,830.2
533.051,829.5
533.596,829.9
534.141,864.1
534.687,861.8
535.232,853.5
535.777,851.4
536.321,846.0
536.866,848.1
537.41,845.2
537.955,845.5
538.499,845.5
539.043,843.7
539.587,843.7
540.131,842.4
540.675,839.7
541.219,841.0
541.762,841.3
542.305,841.6
542.849,841.6
543.392,841.2
543.935,840.1
544.478,840.3
545.02,838.3
545.563,840.2
546.106,842.0
546.648,841.0
547.19,837.5
547.732,837.7
548.274,838.9
548.816,838.6
549.358,838.0
549.9,837.9
550.441,839.0
550.983,839.1
551.524,838.3
552.065,840.0
552.606,838.0
553.147,841.3
553.688,840.1
554.229,842.8
554.769,839.8
555.31,841.9
555.85,842.1
556.391,844.0
556.931,842.9
557.471,844.2
558.011,847.4
558.551,845.2
559.09,845.2
559.63,843.3
560.169,843.4
560.709,843.5
561.248,844.6
561.787,844.3
562.326,847.3
562.865,847.0
563.404,848.5
563.943,871.4
564.481,858.0
565.02,852.8
565.558,852.3
566.096,873.8
566.634,852.2
567.172,851.6
567.71,852.3
568.248,850.6
568.786,852.0
569.324,852.6
569.861,852.6
570.399,853.0
570.936,859.6
571.473,892.2
572.01,868.8
572.547,862.2
573.084,859.7
573.621,859.6
574.158,861.9
574.694,862.9
575.231,865.4
575.767,879.5
576.303,928.6
576.84,902.5
577.376,891.8
577.912,878.9
578.448,881.0
578.984,881.8
579.519,886.5
580.055,890.2
580.59,895.6
581.126,897.1
581.661,901.7
582.196,902.5
582.731,912.6
583.267,914.6
583.801,918.3
584.336,929.9
584.871,930.2
585.406,938.0
585.94,945.7
586.475,950.0
587.009,958.6
587.543,961.8
588.078,969.4
588.612,975.0
589.146,986.6
589.68,986.1
590.214,1003.4
590.747,1001.2
591.281,1009.6
591.815,1011.5
592.348,1020.1
592.881,1027.5
593.415,1032.2
593.948,1040.2
594.481,1047.9
595.014,1053.2
595.547,1066.5
596.08,1067.9
596.613,1082.7
597.146,1087.0
597.678,1103.0
598.211,1114.8
598.743,1124.9
599.276,1136.8
599.808,1134.3
600.34,1138.8
600.872,1133.6
601.404,1133.0
601.936,1141.0
602.468,1129.6
603.0,1122.3
603.532,1118.9
604.064,1103.3
604.595,1094.3
605.127,1087.2
605.658,1066.5
606.189,1065.6
606.721,1043.8
607.252,1033.3
607.783,1031.8
608.314,1020.3
608.845,1018.7
609.376,1016.9
609.907,1010.4
610.438,997.9
610.968,996.6
611.499,998.7
612.029,989.2
612.56,987.3
613.09,985.4
613.621,984.1
614.151,978.6
614.681,971.7
615.211,971.5
615.741,968.9
616.271,961.2
616.801,966.5
617.331,965.9
617.861,962.8
618.39,960.7
618.92,958.2
619.45,953.1
619.979,955.6
620.509,951.0
621.038,953.7
621.567,955.4
622.096,964.1
622.626,967.8
623.155,948.0
623.684,947.0
624.213,945.1
624.742,942.6
625.271,941.5
625.799,948.7
626.328,956.7
626.857,1072.7
627.386,1282.5
627.914,1149.9
628.443,1237.8
628.971,1166.8
629.5,1125.1
630.028,1070.3
630.556,1056.8
631.084,994.0
631.613,961.3
632.141,947.1
632.669,942.8
633.197,939.6
633.725,937.2
634.253,933.8
634.781,940.3
635.308,940.7
635.836,942.8
636.364,940.6
636.891,941.4
637.419,942.1
637.947,943.4
638.474,947.6
639.002,942.2
639.529,946.5
640.056,948.6
640.584,954.8
641.111,953.2
641.638,957.0
642.165,954.8
642.692,959.7
643.219,959.9
643.746,961.1
644.273,961.4
644.8,958.1
645.327,963.8
645.854,963.1
646.381,965.7
646.908,968.3
647.434,968.4
647.961,970.8
648.488,967.2
649.014,972.7
649.541,971.6
650.067,976.2
650.594,971.7
651.12,974.5
651.646,980.2
652.173,976.1
652.699,977.3
653.225,982.3
653.752,986.9
654.278,987.7
654.804,979.9
655.33,979.1
655.856,978.7
656.382,975.5
656.908,974.8
657.434,976.6
657.96,967.6
658.486,969.3
659.012,965.2
659.538,962.7
660.064,955.6
660.589,952.7
661.115,950.9
661.641,942.9
662.166,941.9
662.692,933.8
663.086,933.2