File: spectra/VLFR_01-LDPE_nobio_Raman_9832ba7c.csv
nm,Intensity
526.486,829.1
527.033,828.8
527.579,829.1
528.126,828.2
528.672,828.2
529.219,829.1
529.765,828.3
530.311,828.3
530.857,828.6
531.403,828.4
531.948,829.4
532.494,830.6
533.039,829.9
533.585,829.3
534.13,866.3
534.675,866.0
535.22,857.6
535.764,854.3
536.309,852.5
536.854,851.1
537.398,849.3
537.942,851.7
538.486,847.9
539.03,849.4
539.574,846.4
540.118,845.9
540.662,843.6
541.205,843.6
541.749,844.0
542.292,845.1
542.835,844.9
543.378,845.4
543.921,844.6
544.464,844.6
545.006,844.4
545.549,843.6
546.091,841.5
546.634,841.9
547.176,843.6
547.718,843.3
548.26,840.2
548.802,842.0
549.343,842.5
549.885,841.7
550.426,841.5
550.968,843.6
551.509,840.3
552.05,841.9
552.591,842.8
553.132,844.6
553.673,843.9
554.214,843.7
554.754,842.0
555.295,842.5
555.835,844.6
556.375,843.3
556.915,846.0
557.455,848.3
557.995,847.7
558.535,846.5
559.075,845.3
559.614,845.7
560.154,843.9
560.693,843.6
561.232,845.2
561.772,844.8
562.311,844.7
562.85,849.6
563.388,849.0
563.927,867.0
564.466,858.0
565.004,853.8
565.543,853.2
566.081,874.0
566.619,854.0
567.157,851.7
567.695,852.8
568.233,849.0
568.771,848.5
569.309,847.7
569.846,852.5
570.384,851.8
570.921,851.7
571.458,880.7
571.995,868.4
572.532,856.2
573.069,853.9
573.606,851.8
574.143,854.1
574.68,850.5
575.216,851.0
575.753,870.8
576.289,904.9
576.825,885.9
577.361,872.9
577.897,854.2
578.433,852.8
578.969,855.2
579.505,854.7
580.041,856.0
580.576,853.8
581.112,854.3
581.647,855.7
582.183,856.6
582.718,859.3
583.253,855.4
583.788,859.8
584.323,862.5
584.858,866.0
585.392,867.5
585.927,870.6
586.462,872.7
586.996,878.8
587.53,881.2
588.065,882.3
588.599,888.9
589.133,892.6
589.667,893.8
590.201,897.8
590.735,900.9
591.268,908.3
591.802,910.2
592.335,912.8
592.869,908.3
593.402,909.0
593.936,911.6
594.469,913.7
595.002,911.3
595.535,914.7
596.068,913.3
596.601,915.4
597.133,919.7
597.666,916.7
598.199,917.8
598.731,918.9
599.264,921.5
599.796,922.7
600.328,918.8
600.86,920.7
601.393,919.3
601.925,920.2
602.457,916.8
602.988,919.1
603.52,914.3
604.052,910.1
604.583,906.7
605.115,903.5
605.646,904.2
606.178,895.6
606.709,895.9
607.24,894.3
607.771,894.2
608.302,889.8
608.833,888.1
609.364,886.9
609.895,884.5
610.426,886.0
610.957,881.0
611.487,885.1
612.018,880.0
612.548,882.3
613.078,882.7
613.609,879.5
614.139,875.8
614.669,874.6
615.199,879.6
615.729,873.8
616.259,873.7
616.789,876.7
617.319,875.2
617.849,874.9
618.378,874.2
618.908,872.3
619.437,874.2
619.967,876.2
620.496,875.0
621.025,876.4
621.555,875.8
622.084,886.6
622.613,886.2
623.142,874.2
623.671,870.7
624.2,871.1
624.729,869.2
625.258,872.5
625.786,872.7
626.315,886.6
626.844,970.1
627.372,1186.9
627.901,1063.5
628.429,1138.1
628.957,1099.7
629.486,1051.1
630.014,1001.7
630.542,990.5
631.07,933.6
631.598,891.0
632.126,879.5
632.654,871.7
633.182,867.6
633.71,867.9
634.237,865.5
634.765,865.7
635.293,864.4
635.82,865.2
636.348,864.0
636.875,864.8
637.403,863.5
637.93,864.8
638.458,865.3
638.985,865.0
639.512,866.0
640.039,866.3
640.566,869.1
641.093,869.2
641.62,870.8
642.147,869.1
642.674,871.3
643.201,868.3
643.728,872.6
644.255,868.9
644.781,874.1
645.308,872.7
645.835,870.7
646.361,870.9
646.888,872.8
647.414,871.8
647.941,869.9
648.467,872.8
648.993,871.2
649.52,868.5
650.046,871.6
650.572,870.1
651.098,870.1
651.625,871.3
652.151,869.0
652.677,869.4
653.203,871.4
653.729,866.4
654.255,868.6
654.78,868.0
655.306,871.1
655.832,869.7
656.358,868.5
656.884,867.7
657.409,867.5
657.935,866.1
658.461,863.7
658.986,865.8
659.512,862.0
660.037,863.4
660.563,859.7
661.088,858.6
661.614,860.7
662.139,859.1
662.664,857.9
663.058,853.5