File: spectra/VLFR_06-PET_nobio_Raman_f9918620.csv
cm-1,Intensity
-123.878,1853.3
-105.821,1853.75
-87.8007,1853.05
-69.8161,1853.9
-51.8675,1854.65
-33.9547,1857.3
-16.0776,1896.3
1.76388,3889.4
19.5698,1859.65
37.3403,1866.25
55.0755,3176.1
72.7754,6089.4
90.4402,5026.8
108.07,4134.2
125.665,3432.15
143.225,3041.1
160.75,2856.25
178.241,2821.35
195.697,2819.3
213.119,2844.8
230.506,2859.25
247.859,2923.6
265.178,2976.6
282.463,2873.25
299.713,2807.3
316.93,2757.0
334.113,2760.85
351.263,2756.1
368.379,2790.25
385.461,2792.5
402.51,2816.85
419.526,2798.3
436.508,2836.2
453.458,2799.05
470.374,2821.7
487.257,2859.6
504.107,2879.4
520.925,2873.15
537.71,2895.25
554.462,2900.2
571.182,2937.7
587.87,2919.25
604.525,2931.25
621.148,3035.25
637.739,3304.4
654.297,2986.9
670.824,3015.75
687.319,3008.1
703.782,3268.1
720.213,2997.65
736.613,3048.55
752.981,2999.35
769.317,3050.9
785.623,3166.15
801.897,3317.55
818.139,3386.55
834.351,3442.6
850.532,4009.9
866.681,3724.65
882.8,3544.2
898.888,3389.2
914.945,3211.85
930.972,3184.85
946.968,3216.4
962.934,3242.6
978.869,3240.5
994.774,3314.05
1010.65,3378.15
1026.49,3448.45
1042.31,3448.15
1058.09,3375.95
1073.85,3426.1
1089.57,3684.95
1105.27,3985.7
1120.93,4180.4
1136.57,3701.5
1152.18,3540.05
1167.75,3706.75
1183.3,3834.0
1198.82,3620.7
1214.31,3675.5
1229.77,3730.05
1245.2,3863.65
1260.6,4233.3
1275.97,4963.55
1291.32,5489.0
1306.63,4682.55
1321.92,4175.15
1337.18,3925.75
1352.41,3940.55
1367.61,4050.0
1382.78,3974.9
1397.93,4116.35
1413.05,4276.7
1428.14,4112.1
1443.2,4333.6
1458.23,4263.7
1473.23,4173.05
1488.21,4126.15
1503.16,4143.6
1518.08,4151.3
1532.97,4201.5
1547.84,4192.75
1562.68,4273.45
1577.49,4355.5
1592.27,4584.6
1607.03,7645.35
1621.76,6834.45
1636.46,4448.45
1651.14,4338.9
1665.78,4367.65
1680.41,4465.85
1695.0,4516.8
1709.57,5460.0
1724.11,7873.9
1738.62,6434.7
1753.11,4782.35
1767.57,4483.3
1782.01,4465.3
1796.41,4495.6
1810.8,4467.4
1825.15,4363.0
1839.48,4484.25
1853.79,4393.05
1868.06,4440.15
1882.31,4485.5
1896.54,4479.95
1910.74,4479.7
1924.91,4468.8
1939.06,4460.5
1953.19,4506.2
1967.28,4530.55
1981.35,4463.05
1995.4,4503.35
2009.42,4586.3
2023.42,4598.3
2037.39,4542.2
2051.33,4547.15
2065.25,4555.05
2079.15,4574.15
2093.01,4580.85
2106.86,4633.85
2120.68,4694.05
2134.47,4609.85
2148.24,4681.6
2161.99,4717.65
2175.71,4547.45
2189.41,4720.6
2203.08,4693.95
2216.73,4711.25
2230.35,4630.6
2243.95,4703.55
2257.52,4727.25
2271.07,4688.0
2284.6,4746.95
2298.1,4789.95
2311.58,4826.4
2325.03,4773.0
2338.46,4798.95
2351.87,4660.0
2365.25,4806.05
2378.61,4770.35
2391.94,4763.3
2405.26,4872.7
2418.54,4786.9
2431.81,4895.6
2445.05,4841.65
2458.27,4912.05
2471.46,4830.55
2484.63,4854.15
2497.78,4870.25
2510.9,4957.7
2524.0,4873.55
2537.08,4877.35
2550.14,4878.5
2563.17,4926.7
2576.18,4890.15
2589.17,4948.0
2602.13,4940.8
2615.07,5131.2
2627.99,5009.0
2640.89,4963.05
2653.76,5043.55
2666.61,4961.6
2679.44,4966.75
2692.25,5107.65
2705.03,5016.0
2717.79,5049.05
2730.53,4987.25
2743.25,5057.2
2755.94,5164.6
2768.61,5010.75
2781.27,5135.95
2793.89,5213.2
2806.5,5259.35
2819.09,5231.4
2831.65,5244.5
2844.19,5189.6
2856.71,5335.95
2869.21,5357.85
2881.69,5440.1
2894.14,5483.9
2906.58,5674.85
2918.99,5440.65
2931.38,5438.8
2943.75,5818.7
2956.1,6718.9
2968.42,6750.65
2980.73,6227.3
2993.01,6054.35
3005.28,6031.75
3017.52,5893.45
3029.74,5835.1
3041.94,5790.85
3054.12,5803.85
3066.28,6279.15
3078.42,7085.9
3090.54,6641.2
3102.63,5968.3
3114.71,5803.5
3126.77,5720.85
3138.8,5704.9
3150.82,5777.05
3162.81,5811.25
3174.78,5747.7
3186.74,5736.85
3198.67,5681.0
3210.58,5722.25
3222.47,5840.55
3234.35,5768.6
3246.2,5735.8
3258.03,5763.85
3269.84,5748.15
3281.64,5699.95
3293.41,5723.95
3305.16,5672.5
3316.89,5772.45
3328.61,5639.0
3340.3,5710.25
3351.97,5705.85
3363.63,5719.95
3375.26,5668.3
3386.88,5626.35
3398.47,5629.8
3410.05,5637.45
3421.6,5644.5
3433.14,5605.95
3444.66,5493.2
3456.15,5730.1
3467.63,5474.85
3479.09,5467.8
3490.53,5444.35
3501.96,5537.8
3513.36,5411.85
3524.74,5366.65
3536.11,5445.35
3547.45,5341.15
3558.78,5382.05
3570.09,5281.95
3581.37,5308.2
3592.64,5179.15
3603.9,5203.05
3615.13,5116.25
3626.34,5075.0
3637.54,5082.75
3648.72,5070.3
3659.87,5089.1
3665.45,4952.7