File: spectra/VLFR_08-PLA_bio_Raman_27fbbdc9.csv
nm,Intensity
528.626,1862.0
529.132,1862.8
529.637,1863.8
530.143,1864.3
530.648,1862.7
531.153,1867.3
531.658,1933.4
532.164,4616.1
532.669,1866.0
533.174,1867.3
533.679,2075.4
534.184,2660.6
534.689,2521.7
535.194,2422.2
535.699,2375.6
536.203,2336.2
536.708,2373.3
537.213,2325.7
537.717,2342.7
538.222,2295.3
538.726,2272.6
539.231,2277.2
539.735,2232.0
540.239,2291.5
540.744,2352.3
541.248,2323.3
541.752,2293.2
542.256,2273.1
542.76,2297.1
543.264,2379.1
543.768,2427.5
544.272,2371.9
544.776,2292.5
545.28,2275.0
545.784,2285.1
546.287,2276.5
546.791,2284.0
547.294,2289.8
547.798,2289.3
548.301,2312.4
548.805,2316.4
549.308,2328.6
549.811,2326.0
550.315,2331.0
550.818,2358.2
551.321,2356.6
551.824,2393.4
552.327,2394.7
552.83,2387.7
553.333,2385.8
553.835,2439.6
554.338,2419.8
554.841,2391.6
555.343,2387.3
555.846,2355.5
556.349,2354.4
556.851,2373.1
557.353,2447.5
557.856,2877.3
558.358,2738.1
558.86,2458.2
559.362,2459.4
559.864,2420.0
560.366,2425.0
560.868,2413.2
561.37,2410.0
561.872,2406.5
562.374,2415.0
562.876,2488.3
563.377,2635.2
563.879,2526.7
564.38,2482.0
564.882,2572.9
565.383,2585.7
565.885,2677.9
566.386,2656.4
566.887,2497.6
567.388,2456.0
567.889,2536.3
568.391,2496.9
568.892,2535.2
569.392,2528.9
569.893,2491.8
570.394,2495.2
570.895,2508.5
571.395,2621.5
571.896,2634.8
572.397,2599.9
572.897,2602.1
573.397,2620.7
573.898,2607.9
574.398,2641.7
574.898,2551.9
575.398,2524.1
575.898,2548.3
576.398,2748.3
576.898,2911.6
577.398,2610.3
577.898,2545.4
578.398,2534.1
578.897,2536.7
579.397,2543.4
579.896,2531.0
580.396,2519.5
580.895,2524.9
581.395,2526.4
581.894,2525.4
582.393,2545.8
582.892,2532.1
583.391,2535.3
583.89,2543.1
584.389,2519.7
584.888,2528.3
585.387,2539.6
585.886,2529.1
586.384,2608.5
586.883,2784.4
587.381,2908.7
587.88,2765.1
588.378,2582.5
588.876,2519.0
589.375,2530.0
589.873,2538.6
590.371,2553.0
590.869,2560.8
591.367,2547.0
591.865,2534.5
592.363,2559.8
592.86,2565.8
593.358,2561.3
593.856,2520.0
594.353,2545.8
594.851,2532.3
595.348,2565.5
595.845,2553.8
596.342,2580.4
596.84,2554.4
597.337,2574.5
597.834,2544.6
598.331,2573.3
598.828,2572.1
599.324,2579.8
599.821,2579.2
600.318,2584.6
600.814,2585.2
601.311,2586.5
601.807,2586.2
602.304,2577.2
602.8,2620.3
603.296,2589.1
603.792,2624.7
604.288,2605.0
604.784,2630.5
605.28,2607.9
605.776,2620.9
606.272,2638.2
606.767,2630.3
607.263,2637.6
607.759,2616.0
608.254,2632.3
608.749,2640.5
609.245,2649.0
609.74,2647.6
610.235,2664.3
610.73,2652.0
611.225,2688.8
611.72,2664.1
612.215,2683.3
612.71,2676.2
613.204,2674.6
613.699,2682.9
614.194,2691.1
614.688,2697.1
615.182,2682.2
615.677,2734.5
616.171,2704.0
616.665,2712.8
617.159,2710.0
617.653,2725.1
618.147,2703.6
618.641,2692.5
619.135,2727.3
619.628,2731.1
620.122,2702.6
620.615,2739.8
621.109,2692.7
621.602,2698.1
622.095,2718.2
622.589,2793.9
623.082,2784.3
623.575,2766.4
624.068,2731.1
624.561,2723.2
625.053,2721.6
625.546,2701.9
626.039,2724.9
626.531,2701.1
627.024,2715.5
627.516,2722.4
628.008,2867.9
628.501,3199.2
628.993,3078.8
629.485,3134.0
629.977,3150.1
630.469,3472.9
630.96,5633.1
631.452,4686.4
631.944,3579.6
632.435,3359.7
632.927,3660.0
633.418,3931.8
633.91,3394.1
634.401,2929.2
634.892,2752.8
635.383,2696.8
635.874,2627.3
636.365,2609.4
636.856,2622.3
637.346,2602.1
637.837,2592.3
638.327,2584.5
638.818,2559.4
639.308,2558.9
639.799,2569.0
640.289,2569.9
640.779,2527.3
641.269,2525.6
641.759,2510.6
642.249,2545.7
642.738,2529.7
643.228,2498.9
643.718,2476.3
644.207,2488.0
644.697,2467.7
645.186,2463.1
645.675,2451.3
646.164,2454.6
646.653,2458.5
647.142,2444.7
647.631,2423.5
648.12,2442.3
648.609,2412.9
649.098,2398.5
649.586,2405.0
650.075,2397.7
650.563,2382.3
651.051,2405.6
651.539,2346.8
652.027,2357.1
652.515,2378.0
653.003,2362.3
653.491,2358.2
653.979,2337.6
654.467,2332.2
654.954,2312.9
655.442,2320.0
655.929,2315.5
656.416,2291.4
656.904,2295.4
657.391,2316.3
657.878,2277.9
658.365,2294.5
658.851,2265.2
659.338,2249.7
659.825,2281.3
660.311,2258.9
660.798,2234.2
661.041,2255.9