File: spectra/VLFR_01-LDPE_nobio_Raman_2902faad.csv
nm,Intensity
526.486,830.7
527.033,830.5
527.579,830.9
528.126,830.8
528.672,829.8
529.219,830.7
529.765,830.5
530.311,830.3
530.857,828.9
531.403,830.6
531.948,832.2
532.494,832.1
533.039,829.9
533.585,830.2
534.13,926.5
534.675,919.8
535.22,902.2
535.764,882.6
536.309,871.7
536.854,870.0
537.398,866.7
537.942,865.7
538.486,864.7
539.03,857.1
539.574,856.7
540.118,854.2
540.662,854.3
541.205,851.6
541.749,850.7
542.292,851.7
542.835,852.7
543.378,848.5
543.921,849.6
544.464,850.2
545.006,847.9
545.549,848.9
546.091,847.9
546.634,845.9
547.176,848.1
547.718,846.3
548.26,847.0
548.802,846.6
549.343,846.8
549.885,846.0
550.426,844.2
550.968,845.7
551.509,845.6
552.05,844.1
552.591,846.7
553.132,848.0
553.673,849.4
554.214,849.1
554.754,850.6
555.295,851.9
555.835,852.3
556.375,854.6
556.915,860.0
557.455,860.4
557.995,863.7
558.535,863.5
559.075,862.2
559.614,857.6
560.154,856.5
560.693,855.7
561.232,856.2
561.772,859.8
562.311,864.3
562.85,864.9
563.388,872.3
563.927,928.2
564.466,896.0
565.004,889.9
565.543,878.4
566.081,950.4
566.619,888.6
567.157,875.4
567.695,884.9
568.233,871.6
568.771,875.0
569.309,879.9
569.846,878.3
570.384,884.8
570.921,895.9
571.458,994.7
571.995,939.3
572.532,908.7
573.069,905.8
573.606,910.5
574.143,923.3
574.68,917.5
575.216,930.6
575.753,991.7
576.289,1123.4
576.825,1063.1
577.361,1039.6
577.897,987.6
578.433,1003.2
578.969,1016.9
579.505,1026.4
580.041,1044.5
580.576,1062.1
581.112,1080.9
581.647,1091.4
582.183,1111.7
582.718,1124.3
583.253,1142.2
583.788,1148.4
584.323,1166.6
584.858,1173.7
585.392,1186.3
585.927,1199.2
586.462,1213.7
586.996,1217.3
587.53,1234.7
588.065,1246.7
588.599,1246.4
589.133,1272.8
589.667,1266.8
590.201,1285.2
590.735,1290.3
591.268,1289.9
591.802,1303.2
592.335,1298.8
592.869,1296.4
593.402,1300.2
593.936,1303.3
594.469,1301.7
595.002,1318.9
595.535,1322.9
596.068,1330.8
596.601,1339.1
597.133,1362.6
597.666,1359.9
598.199,1388.5
598.731,1402.3
599.264,1417.4
599.796,1418.6
600.328,1428.2
600.86,1416.1
601.393,1423.0
601.925,1415.6
602.457,1418.0
602.988,1399.5
603.52,1388.8
604.052,1361.4
604.583,1345.2
605.115,1320.5
605.646,1297.5
606.178,1271.2
606.709,1247.2
607.24,1234.3
607.771,1214.3
608.302,1205.1
608.833,1195.8
609.364,1177.3
609.895,1175.6
610.426,1161.4
610.957,1153.2
611.487,1141.2
612.018,1132.4
612.548,1123.5
613.078,1130.8
613.609,1122.5
614.139,1106.4
614.669,1105.0
615.199,1093.3
615.729,1090.1
616.259,1079.9
616.789,1076.8
617.319,1086.2
617.849,1079.6
618.378,1078.7
618.908,1073.3
619.437,1076.0
619.967,1069.6
620.496,1064.6
621.025,1071.1
621.555,1083.3
622.084,1114.4
622.613,1117.9
623.142,1075.7
623.671,1064.9
624.2,1065.0
624.729,1062.4
625.258,1070.1
625.786,1074.9
626.315,1118.5
626.844,1406.3
627.372,2068.6
627.901,1683.4
628.429,1925.2
628.957,1734.8
629.486,1592.4
630.014,1449.1
630.542,1408.6
631.07,1250.4
631.598,1132.0
632.126,1105.5
632.654,1088.0
633.182,1079.0
633.71,1078.3
634.237,1080.5
634.765,1071.5
635.293,1075.9
635.82,1078.4
636.348,1074.0
636.875,1080.2
637.403,1077.4
637.93,1072.5
638.458,1079.8
638.985,1074.7
639.512,1083.7
640.039,1082.5
640.566,1083.7
641.093,1082.1
641.62,1087.6
642.147,1093.8
642.674,1094.6
643.201,1084.9
643.728,1089.8
644.255,1089.9
644.781,1090.8
645.308,1086.1
645.835,1091.3
646.361,1090.1
646.888,1085.1
647.414,1087.6
647.941,1086.8
648.467,1090.9
648.993,1089.4
649.52,1092.1
650.046,1092.0
650.572,1085.8
651.098,1087.7
651.625,1090.0
652.151,1083.7
652.677,1088.3
653.203,1095.2
653.729,1090.3
654.255,1098.3
654.78,1085.7
655.306,1093.0
655.832,1090.4
656.358,1082.3
656.884,1076.9
657.409,1074.1
657.935,1076.6
658.461,1063.9
658.986,1059.7
659.512,1051.1
660.037,1048.6
660.563,1037.0
661.088,1027.7
661.614,1021.8
662.139,1009.9
662.664,1006.2
663.058,999.7