File: spectra/VLFR_01-LDPE_bio_Raman_0fbf0413.csv
nm,Intensity
528.65,1855.0
529.155,1855.85
529.66,1856.05
530.165,1855.85
530.67,1855.9
531.175,1855.25
531.68,1878.15
532.185,2956.85
532.69,1855.85
533.194,1857.0
533.699,1959.55
534.204,2239.95
534.708,2206.3
535.213,2170.3
535.717,2127.2
536.222,2105.05
536.726,2079.15
537.231,2092.5
537.735,2100.05
538.239,2087.95
538.743,2085.4
539.247,2073.4
539.751,2063.35
540.255,2055.85
540.759,2047.55
541.263,2046.7
541.767,2044.65
542.271,2048.9
542.775,2050.5
543.279,2050.75
543.782,2045.85
544.286,2049.45
544.789,2036.15
545.293,2045.95
545.796,2042.55
546.3,2043.15
546.803,2040.45
547.306,2042.8
547.81,2031.1
548.313,2042.85
548.816,2039.0
549.319,2030.05
549.822,2043.45
550.325,2043.95
550.828,2044.0
551.331,2040.2
551.834,2044.35
552.337,2048.8
552.839,2041.7
553.342,2066.0
553.844,2067.85
554.347,2066.7
554.849,2068.45
555.352,2065.15
555.854,2076.25
556.357,2096.35
556.859,2099.3
557.361,2114.6
557.863,2124.6
558.365,2134.25
558.867,2120.55
559.369,2102.85
559.871,2113.1
560.373,2100.55
560.875,2107.55
561.377,2109.75
561.878,2118.55
562.38,2136.15
562.881,2163.35
563.383,2177.25
563.884,2490.2
564.386,2289.25
564.887,2253.55
565.388,2204.45
565.89,2377.25
566.391,2347.6
566.892,2185.0
567.393,2230.0
567.894,2175.4
568.395,2171.95
568.896,2171.1
569.396,2183.8
569.897,2196.5
570.398,2222.2
570.898,2261.9
571.399,2750.7
571.9,2452.45
572.4,2308.15
572.9,2253.35
573.401,2249.75
573.901,2294.15
574.401,2249.15
574.901,2264.5
575.401,2435.65
575.901,2634.45
576.401,3016.4
576.901,2786.1
577.401,2540.0
577.901,2433.2
578.4,2428.25
578.9,2439.25
579.399,2449.8
579.899,2484.05
580.398,2546.55
580.898,2550.65
581.397,2589.4
581.896,2618.8
582.395,2628.05
582.895,2656.5
583.394,2686.25
583.893,2696.25
584.391,2724.25
584.89,2730.95
585.389,2724.65
585.888,2779.15
586.386,2781.15
586.885,2791.8
587.384,2835.1
587.882,2866.5
588.38,2874.25
588.879,2876.2
589.377,2927.25
589.875,2907.45
590.373,2957.45
590.871,2981.5
591.369,2972.9
591.867,3036.75
592.365,3059.3
592.863,3071.9
593.361,3095.05
593.858,3087.2
594.356,3105.4
594.853,3155.85
595.351,3127.75
595.848,3220.5
596.345,3238.05
596.843,3265.1
597.34,3333.25
597.837,3354.2
598.334,3404.3
598.831,3447.6
599.328,3481.3
599.824,3480.45
600.321,3504.3
600.818,3524.65
601.314,3532.35
601.811,3529.8
602.307,3504.55
602.804,3510.9
603.3,3433.25
603.796,3454.4
604.293,3418.2
604.789,3312.85
605.285,3322.85
605.781,3269.65
606.277,3213.1
606.772,3166.35
607.268,3151.7
607.764,3069.6
608.259,3018.45
608.755,3017.3
609.25,2999.55
609.746,2989.05
610.241,2935.05
610.736,2905.0
611.231,2896.55
611.727,2906.25
612.222,2866.65
612.716,2839.4
613.211,2806.75
613.706,2807.2
614.201,2782.05
614.695,2782.65
615.19,2774.2
615.684,2758.5
616.179,2761.5
616.673,2723.5
617.168,2722.95
617.662,2738.45
618.156,2727.6
618.65,2722.05
619.144,2719.45
619.638,2717.4
620.131,2719.1
620.625,2713.85
621.119,2731.75
621.612,2843.4
622.106,2929.25
622.599,2880.65
623.093,2718.05
623.586,2650.8
624.079,2650.3
624.572,2639.8
625.065,2662.4
625.558,2708.9
626.051,2771.1
626.544,3282.6
627.037,6169.05
627.529,6043.7
628.022,5145.85
628.514,6888.85
629.007,5431.7
629.499,4772.5
629.991,4258.8
630.483,4179.9
630.976,3418.8
631.468,2947.6
631.959,2790.15
632.451,2734.15
632.943,2660.8
633.435,2680.15
633.926,2603.0
634.418,2594.4
634.909,2616.15
635.401,2581.5
635.892,2580.45
636.383,2595.4
636.874,2587.65
637.365,2543.4
637.856,2529.85
638.347,2563.25
638.838,2545.25
639.329,2544.0
639.819,2517.5
640.31,2523.8
640.8,2533.15
641.291,2543.4
641.781,2543.65
642.271,2533.7
642.761,2530.55
643.251,2512.9
643.741,2527.35
644.231,2510.45
644.721,2536.45
645.211,2517.0
645.7,2499.15
646.19,2520.75
646.679,2532.75
647.169,2545.05
647.658,2517.95
648.147,2517.15
648.636,2506.45
649.125,2514.1
649.614,2508.8
650.103,2487.8
650.592,2504.55
651.08,2527.8
651.569,2507.2
652.058,2519.0
652.546,2491.45
653.034,2508.65
653.523,2466.4
654.011,2490.8
654.499,2516.15
654.987,2466.45
655.475,2484.15
655.963,2469.2
656.45,2453.4
656.938,2448.5
657.425,2417.9
657.913,2407.2
658.4,2403.95
658.888,2393.45
659.375,2366.25
659.862,2361.35
660.349,2324.65
660.836,2310.8
661.079,2306.75