File: spectra/VLFR_01-LDPE_nobio_Raman_7a3e1d6b.csv
nm,Intensity
526.5,829.2
527.047,829.6
527.594,829.5
528.14,828.8
528.687,830.5
529.233,828.6
529.779,828.6
530.325,828.5
530.871,828.8
531.417,828.8
531.962,839.4
532.508,833.5
533.053,829.0
533.599,829.9
534.144,966.8
534.689,980.9
535.234,976.1
535.778,976.4
536.323,985.4
536.867,987.4
537.412,984.0
537.956,995.5
538.5,995.2
539.044,992.2
539.588,994.2
540.132,1001.1
540.675,999.0
541.219,1001.3
541.762,1007.3
542.305,1002.0
542.848,1012.5
543.391,1006.7
543.934,1008.5
544.477,1011.2
545.02,1010.8
545.562,1015.1
546.105,1021.0
546.647,1012.7
547.189,1017.7
547.731,1020.9
548.273,1022.6
548.815,1020.3
549.356,1024.8
549.898,1027.9
550.439,1024.8
550.981,1024.3
551.522,1028.7
552.063,1032.9
552.604,1027.5
553.145,1027.3
553.686,1029.1
554.226,1032.9
554.767,1038.6
555.307,1029.4
555.848,1029.8
556.388,1031.1
556.928,1029.1
557.468,1036.6
558.008,1031.0
558.547,1030.5
559.087,1031.8
559.626,1032.2
560.166,1039.8
560.705,1042.4
561.244,1043.4
561.783,1041.4
562.322,1037.3
562.861,1047.4
563.4,1050.3
563.939,1065.6
564.477,1058.3
565.015,1064.5
565.554,1065.3
566.092,1075.9
566.63,1065.0
567.168,1062.1
567.706,1065.8
568.244,1061.4
568.781,1068.1
569.319,1068.9
569.857,1071.4
570.394,1076.3
570.931,1076.0
571.468,1099.6
572.005,1093.2
572.542,1090.7
573.079,1092.8
573.616,1099.6
574.153,1105.8
574.689,1116.7
575.226,1117.3
575.762,1132.2
576.298,1154.0
576.834,1144.7
577.371,1148.7
577.907,1151.0
578.442,1168.2
578.978,1167.6
579.514,1176.0
580.049,1177.1
580.585,1186.2
581.12,1194.2
581.656,1206.1
582.191,1217.5
582.726,1223.7
583.261,1244.2
583.796,1255.4
584.331,1246.6
584.865,1261.1
585.4,1274.8
585.935,1284.1
586.469,1289.8
587.004,1300.4
587.538,1298.5
588.072,1311.5
588.606,1324.2
589.14,1320.9
589.674,1331.6
590.208,1341.8
590.742,1348.6
591.275,1359.9
591.809,1363.8
592.342,1371.9
592.876,1376.7
593.409,1369.7
593.942,1383.3
594.476,1391.8
595.009,1409.1
595.542,1409.5
596.075,1428.0
596.607,1430.0
597.14,1442.0
597.673,1450.4
598.205,1474.4
598.738,1488.5
599.27,1505.5
599.803,1501.1
600.335,1504.5
600.867,1495.8
601.399,1490.6
601.931,1501.7
602.463,1488.8
602.995,1482.1
603.527,1471.3
604.058,1464.8
604.59,1439.7
605.122,1425.7
605.653,1402.2
606.184,1383.7
606.716,1368.0
607.247,1372.9
607.778,1358.4
608.309,1359.5
608.84,1343.1
609.371,1330.9
609.902,1318.4
610.433,1311.7
610.964,1302.4
611.494,1306.8
612.025,1304.3
612.556,1309.5
613.086,1299.5
613.616,1302.6
614.147,1293.1
614.677,1291.0
615.207,1279.8
615.737,1282.4
616.267,1274.2
616.797,1264.3
617.327,1273.1
617.857,1262.5
618.387,1268.5
618.917,1257.1
619.446,1254.9
619.976,1260.9
620.505,1249.4
621.035,1249.3
621.564,1250.9
622.093,1251.0
622.623,1262.3
623.152,1254.2
623.681,1248.3
624.21,1253.9
624.739,1251.5
625.268,1249.8
625.797,1242.2
626.326,1253.8
626.855,1300.1
627.383,1396.8
627.912,1338.6
628.441,1367.4
628.969,1358.0
629.498,1344.7
630.026,1319.3
630.554,1321.6
631.083,1281.8
631.611,1263.6
632.139,1262.5
632.667,1255.7
633.195,1268.3
633.724,1256.6
634.252,1258.2
634.779,1259.9
635.307,1258.2
635.835,1257.6
636.363,1255.8
636.891,1268.4
637.418,1260.5
637.946,1256.3
638.474,1261.3
639.001,1261.5
639.529,1261.6
640.056,1263.6
640.583,1267.6
641.111,1265.6
641.638,1273.0
642.165,1260.1
642.692,1260.6
643.22,1269.5
643.747,1270.8
644.274,1261.0
644.801,1258.5
645.328,1263.7
645.854,1260.5
646.381,1260.5
646.908,1265.1
647.435,1270.7
647.962,1265.6
648.488,1263.7
649.015,1254.6
649.542,1259.4
650.068,1255.4
650.595,1253.2
651.121,1256.4
651.648,1258.5
652.174,1260.9
652.7,1263.3
653.227,1254.5
653.753,1257.8
654.279,1263.0
654.805,1256.8
655.331,1253.6
655.858,1247.7
656.384,1247.5
656.91,1250.1
657.436,1243.7
657.962,1240.0
658.488,1236.6
659.013,1231.1
659.539,1224.5
660.065,1219.5
660.591,1213.7
661.117,1204.0
661.642,1196.4
662.168,1182.3
662.694,1186.0
663.088,1178.0