File: spectra/VLFR_09-PET_bio_Raman_22dec369.csv
nm,Intensity
526.508,830.2
527.055,830.1
527.602,829.5
528.149,830.6
528.695,831.0
529.241,830.9
529.787,829.5
530.334,829.0
530.879,829.9
531.425,829.9
531.971,832.3
532.516,831.7
533.062,829.9
533.607,828.6
534.152,925.1
534.697,925.6
535.242,918.7
535.786,912.5
536.331,914.6
536.876,912.1
537.42,917.9
537.964,916.1
538.508,918.1
539.052,917.7
539.596,924.2
540.14,919.6
540.683,925.6
541.227,926.6
541.77,924.7
542.313,928.2
542.856,929.9
543.399,932.6
543.942,939.1
544.485,938.7
545.027,942.3
545.57,940.3
546.112,944.8
546.654,945.5
547.196,946.2
547.738,938.9
548.28,944.3
548.822,948.5
549.363,953.7
549.905,950.4
550.446,958.0
550.988,953.9
551.529,954.4
552.07,958.3
552.611,958.6
553.152,958.3
553.692,957.6
554.233,963.3
554.773,964.9
555.314,962.4
555.854,966.1
556.394,966.9
556.934,966.7
557.474,974.5
558.014,971.2
558.553,971.3
559.093,971.8
559.632,969.3
560.172,975.4
560.711,978.5
561.25,976.8
561.789,982.5
562.328,1011.0
562.867,991.4
563.406,986.5
563.944,986.1
564.483,989.2
565.021,994.7
565.559,992.8
566.098,993.5
566.636,994.9
567.174,990.5
567.711,998.8
568.249,993.2
568.787,997.0
569.324,998.9
569.862,1000.1
570.399,1002.5
570.936,1003.4
571.474,1014.3
572.011,1007.3
572.548,1006.7
573.084,1010.9
573.621,1010.2
574.158,1016.1
574.694,1013.2
575.231,1014.3
575.767,1017.0
576.303,1015.6
576.84,1021.0
577.376,1019.6
577.912,1020.9
578.447,1025.3
578.983,1025.6
579.519,1026.5
580.054,1030.8
580.59,1025.8
581.125,1027.9
581.661,1035.5
582.196,1075.2
582.731,1034.9
583.266,1036.0
583.801,1034.9
584.336,1036.3
584.87,1037.9
585.405,1041.5
585.94,1064.4
586.474,1064.9
587.008,1047.5
587.543,1041.3
588.077,1043.6
588.611,1043.0
589.145,1038.8
589.679,1043.7
590.213,1041.9
590.747,1050.8
591.28,1053.4
591.814,1047.9
592.347,1050.3
592.881,1045.9
593.414,1058.1
593.947,1046.4
594.48,1053.9
595.014,1058.5
595.547,1054.6
596.079,1053.1
596.612,1059.9
597.145,1054.9
597.678,1065.0
598.21,1059.4
598.743,1063.2
599.275,1068.5
599.807,1062.6
600.34,1062.1
600.872,1066.5
601.404,1062.7
601.936,1067.6
602.468,1070.1
603.0,1068.8
603.532,1069.6
604.063,1068.4
604.595,1072.3
605.126,1066.6
605.658,1066.9
606.189,1065.3
606.721,1069.0
607.252,1068.7
607.783,1075.0
608.314,1073.1
608.845,1077.9
609.376,1075.8
609.907,1077.5
610.438,1077.9
610.968,1078.7
611.499,1085.9
612.03,1087.0
612.56,1093.9
613.091,1092.4
613.621,1097.9
614.151,1098.2
614.681,1102.2
615.212,1105.5
615.742,1104.5
616.272,1102.0
616.802,1111.4
617.332,1105.0
617.861,1108.8
618.391,1117.8
618.921,1113.0
619.45,1113.4
619.98,1109.7
620.509,1123.3
621.039,1113.1
621.568,1120.9
622.097,1129.4
622.627,1124.6
623.156,1133.2
623.685,1132.8
624.214,1137.3
624.743,1141.6
625.272,1146.2
625.801,1139.9
626.33,1143.2
626.858,1142.7
627.387,1145.4
627.916,1154.8
628.444,1157.2
628.973,1158.7
629.501,1156.7
630.029,1163.9
630.558,1158.0
631.086,1167.8
631.614,1169.5
632.142,1175.2
632.67,1169.5
633.198,1182.6
633.726,1168.4
634.254,1176.6
634.782,1184.8
635.31,1179.9
635.838,1186.0
636.365,1186.6
636.893,1198.9
637.421,1199.9
637.948,1187.1
638.476,1194.1
639.003,1192.3
639.531,1197.3
640.058,1198.9
640.585,1189.0
641.113,1197.8
641.64,1200.2
642.167,1199.1
642.694,1197.8
643.221,1203.9
643.748,1197.6
644.275,1199.0
644.802,1196.7
645.329,1193.1
645.856,1198.0
646.382,1200.2
646.909,1198.7
647.436,1203.7
647.962,1199.7
648.489,1201.5
649.016,1199.6
649.542,1204.9
650.069,1200.7
650.595,1201.6
651.121,1198.4
651.648,1202.4
652.174,1200.0
652.7,1202.7
653.227,1211.1
653.753,1203.6
654.279,1205.9
654.805,1213.6
655.331,1210.6
655.857,1205.0
656.383,1206.3
656.909,1215.1
657.435,1212.9
657.961,1208.1
658.487,1211.1
659.013,1216.2
659.538,1214.7
660.064,1213.6
660.59,1211.5
661.116,1207.2
661.641,1198.4
662.167,1206.1
662.692,1211.7
663.087,1204.2