File: spectra/VLFR_02-HDPE_bio_Raman_cb08cfa3.csv
nm,Intensity
528.626,1862.8
529.132,1863.4
529.637,1864.1
530.143,1862.0
530.648,1863.9
531.153,1865.3
531.658,1885.8
532.164,3143.4
532.669,1865.9
533.174,1864.1
533.679,1943.8
534.184,2241.8
534.689,2235.3
535.194,2256.5
535.699,2252.6
536.203,2230.8
536.708,2211.1
537.213,2215.5
537.717,2241.9
538.222,2226.7
538.726,2230.3
539.231,2224.8
539.735,2225.7
540.239,2228.6
540.744,2233.0
541.248,2247.4
541.752,2255.3
542.256,2249.5
542.76,2258.2
543.264,2240.5
543.768,2268.2
544.272,2277.5
544.776,2256.8
545.28,2281.3
545.784,2279.0
546.287,2271.5
546.791,2283.4
547.294,2281.6
547.798,2283.3
548.301,2280.0
548.805,2287.6
549.308,2303.4
549.811,2297.4
550.315,2286.5
550.818,2306.1
551.321,2306.4
551.824,2335.9
552.327,2325.8
552.83,2309.0
553.333,2329.6
553.835,2344.5
554.338,2335.2
554.841,2363.8
555.343,2347.6
555.846,2357.8
556.349,2370.8
556.851,2362.4
557.353,2376.4
557.856,2412.6
558.358,2397.9
558.86,2382.1
559.362,2417.7
559.864,2409.5
560.366,2403.0
560.868,2438.5
561.37,2437.8
561.872,2438.8
562.374,2459.2
562.876,2482.4
563.377,2487.5
563.879,2653.1
564.38,2565.2
564.882,2541.0
565.383,2533.0
565.885,2629.2
566.386,2671.0
566.887,2506.9
567.388,2534.4
567.889,2526.0
568.391,2513.0
568.892,2501.2
569.392,2536.2
569.893,2537.8
570.394,2557.2
570.895,2560.1
571.395,2883.6
571.896,2682.4
572.397,2605.7
572.897,2590.7
573.397,2611.4
573.898,2616.0
574.398,2588.2
574.898,2661.4
575.398,2740.3
575.898,2783.6
576.398,2980.2
576.898,2934.1
577.398,2819.6
577.898,2783.6
578.398,2750.1
578.897,2815.9
579.397,2859.5
579.896,2871.7
580.396,2916.2
580.895,2956.1
581.395,3001.6
581.894,3065.9
582.393,3098.2
582.892,3087.4
583.391,3113.9
583.89,3185.7
584.389,3255.7
584.888,3293.1
585.387,3323.2
585.886,3328.9
586.384,3432.1
586.883,3474.5
587.381,3487.9
587.88,3577.0
588.378,3651.1
588.876,3671.4
589.375,3673.2
589.873,3746.6
590.371,3854.7
590.869,3938.3
591.367,4001.9
591.865,4040.8
592.363,4102.5
592.86,4161.2
593.358,4169.7
593.856,4148.6
594.353,4227.3
594.851,4317.5
595.348,4355.6
595.845,4445.7
596.342,4478.3
596.84,4540.4
597.337,4563.7
597.834,4657.6
598.331,4700.0
598.828,4656.9
599.324,4749.4
599.821,4808.1
600.318,4792.8
600.814,4877.8
601.311,4847.3
601.807,4815.4
602.304,4797.6
602.8,4749.7
603.296,4779.6
603.792,4729.6
604.288,4614.3
604.784,4649.0
605.28,4606.9
605.776,4539.5
606.272,4459.7
606.767,4382.6
607.263,4317.9
607.759,4302.4
608.254,4218.8
608.749,4240.7
609.245,4139.9
609.74,4130.2
610.235,4072.4
610.73,4108.6
611.225,4026.4
611.72,3998.0
612.215,3916.1
612.71,3812.0
613.204,3825.7
613.699,3835.5
614.194,3790.9
614.688,3787.3
615.182,3748.6
615.677,3689.5
616.171,3703.7
616.665,3630.5
617.159,3598.0
617.653,3581.2
618.147,3578.3
618.641,3485.5
619.135,3438.6
619.628,3486.8
620.122,3457.1
620.615,3426.3
621.109,3442.7
621.602,3453.2
622.095,3443.3
622.589,3406.7
623.082,3301.4
623.575,3293.7
624.068,3275.9
624.561,3224.7
625.053,3269.9
625.546,3230.3
626.039,3256.0
626.531,3410.2
627.024,4423.6
627.516,4314.7
628.008,4014.5
628.501,4721.4
628.993,4000.2
629.485,3840.0
629.977,3570.6
630.469,3516.1
630.96,3282.0
631.452,3134.2
631.944,3069.7
632.435,3092.6
632.927,3064.0
633.418,3047.0
633.91,2993.9
634.401,3012.5
634.892,3031.8
635.383,3009.8
635.874,3020.7
636.365,3031.8
636.856,3009.2
637.346,3007.3
637.837,3026.5
638.327,3007.1
638.818,3005.4
639.308,3000.5
639.799,3028.9
640.289,3009.3
640.779,2982.2
641.269,3027.1
641.759,2977.7
642.249,3001.0
642.738,3017.0
643.228,2970.4
643.718,2992.4
644.207,3036.4
644.697,2954.7
645.186,3019.1
645.675,2999.3
646.164,3009.0
646.653,2984.1
647.142,2974.3
647.631,2942.3
648.12,2972.6
648.609,2951.8
649.098,2953.7
649.586,2939.9
650.075,2940.8
650.563,2945.0
651.051,2938.9
651.539,2875.2
652.027,2905.9
652.515,2899.7
653.003,2918.2
653.491,2877.2
653.979,2888.0
654.467,2829.7
654.954,2849.5
655.442,2835.0
655.929,2812.7
656.416,2773.1
656.904,2768.0
657.391,2731.8
657.878,2750.6
658.365,2717.2
658.851,2720.1
659.338,2670.4
659.825,2673.2
660.311,2684.1
660.798,2601.5
661.041,2628.8