File: spectra/VLFR_07-PET_nobio_Raman_e0a7b624.csv
nm,Intensity
791.75,14544.6
792.846,13493.1
793.942,13033.0
795.037,13045.3
796.133,12716.3
797.228,12644.0
798.324,12874.8
799.419,12927.1
800.514,12756.3
801.61,12642.3
802.705,12337.8
803.8,12322.0
804.894,12167.2
805.989,12078.8
807.084,11754.8
808.178,11736.8
809.273,11583.2
810.367,11601.0
811.461,11540.0
812.556,11254.5
813.65,11312.5
814.744,11149.5
815.837,11097.8
816.931,10913.3
818.025,10927.3
819.118,10775.8
820.212,10805.5
821.305,10702.3
822.398,10482.7
823.491,10568.3
824.585,10385.5
825.677,10596.4
826.77,10050.5
827.863,10034.5
828.956,9951.55
830.048,9994.8
831.14,9801.15
832.233,9678.5
833.325,9426.1
834.417,9608.35
835.509,9374.05
836.601,9498.45
837.692,9356.8
838.784,9249.5
839.876,9179.1
840.967,9692.3
842.058,9080.95
843.149,9125.1
844.24,8807.6
845.331,8629.85
846.422,8561.05
847.513,8444.5
848.604,8461.6
849.694,8294.1
850.784,8339.1
851.875,8347.95
852.965,8368.65
854.055,8187.95
855.145,8119.8
856.235,7995.4
857.324,8064.4
858.414,8142.15
859.503,8244.5
860.593,8062.6
861.682,7905.6
862.771,7802.8
863.86,7852.6
864.949,7763.25
866.038,7608.8
867.126,7471.55
868.215,7626.9
869.303,7548.5
870.391,7653.4
871.479,7775.45
872.567,7915.0
873.655,7801.45
874.743,7510.3
875.831,7355.75
876.918,7175.95
878.006,7182.75
879.093,7108.1
880.18,7060.7
881.267,7097.6
882.354,7101.4
883.441,6950.85
884.527,6922.5
885.614,6955.85
886.7,6691.15
887.786,6734.95
888.872,6664.15
889.958,6639.2
891.044,6631.95
892.13,6525.7
893.216,6459.25
894.301,6360.55
895.386,6312.85
896.472,6452.2
897.557,7068.85
898.642,6994.75
899.726,6344.65
900.811,6088.25
901.896,6000.6
902.98,6042.95
904.064,5894.6
905.148,5977.2
906.232,6238.25
907.316,6473.45
908.4,6176.9
909.484,5868.1
910.567,5698.55
911.65,5637.35
912.734,5559.95
913.817,5475.0
914.9,5437.55
915.982,5428.5
917.065,5340.15
918.147,5303.05
919.23,5279.3
920.312,5307.75
921.394,5197.3
922.476,5187.35
923.558,5099.15
924.639,5067.05
925.721,5059.05
926.802,4993.15
927.884,4960.2
928.965,4920.2
930.046,4887.6
931.126,4852.1
932.207,4822.15
933.288,4809.65
934.368,4766.0
935.448,4712.9
936.528,4702.1
937.608,4699.7
938.688,4635.15
939.767,4616.0
940.847,4580.55
941.926,4563.65
943.005,4533.4
944.084,4487.45
945.163,4504.2
946.242,4465.9
947.321,4441.4
948.399,4411.15
949.477,4424.15
950.556,4350.85
951.634,4345.45
952.711,4320.7
953.789,4312.65
954.867,4301.35
955.944,4281.15
957.021,4264.2
958.098,4245.45
959.175,4241.5
960.252,4211.75
961.328,4196.8
962.405,4165.35
963.481,4172.8
964.557,4143.9
965.633,4135.6
966.709,4127.1
967.785,4119.55
968.86,4090.5
969.936,4087.6
971.011,4068.3
972.086,4070.75
973.161,4046.55
974.235,4033.4
975.31,4019.05
976.384,4012.9
977.459,4001.3
978.533,3993.15
979.607,3987.9
980.68,3970.65
981.754,3965.95
982.827,3958.15
983.901,3948.9
984.974,3947.1
986.047,3928.05
987.119,3920.9
988.192,3919.6
989.264,3907.4
990.337,3896.95
991.409,3894.9
992.481,3888.55
993.553,3873.7
994.624,3869.3
995.696,3862.35
996.767,3857.55
997.838,3854.95
998.909,3846.0
999.98,3838.0
1001.05,3841.3
1002.12,3831.65
1003.19,3827.1
1004.26,3818.85
1005.33,3816.15
1006.4,3811.55
1007.47,3808.0
1008.54,3803.35
1009.61,3793.0
1010.68,3794.4
1011.75,3790.9
1012.82,3782.75
1013.88,3786.65
1014.95,3781.45
1016.02,3779.5
1017.09,3775.2
1018.16,3772.7
1019.22,3772.25
1020.29,3774.3
1021.36,3775.95
1022.43,3779.25
1023.49,3774.4
1024.56,3765.45
1025.63,3756.95
1026.69,3753.75
1027.76,3748.2
1028.83,3745.45
1029.89,3741.2
1030.96,3743.25
1032.02,3739.8
1033.09,3743.65
1034.15,3746.0
1035.22,3745.1
1036.28,3740.6
1037.35,3734.7
1038.41,3730.1
1039.48,3727.9
1040.54,3728.25
1041.6,3726.9
1042.67,3725.15
1043.73,3723.45
1044.79,3723.35
1045.86,3719.5
1046.92,3720.3
1047.98,3719.9
1049.05,3719.2
1050.11,3717.6
1051.17,3718.6
1052.23,3717.45
1053.29,3718.3
1054.36,3715.55
1055.42,3717.8
1056.48,3714.05
1057.54,3714.75
1058.6,3714.45
1059.66,3716.25
1060.72,3712.6
1061.78,3712.7
1062.84,3711.85
1063.9,3713.5
1064.96,3712.25
1066.02,3713.65
1067.08,3712.15
1067.88,3711.35