File: spectra/VLFR_01-LDPE_nobio_Raman_a235e122.csv
nm,Intensity
526.5,829.6
527.047,829.5
527.594,828.8
528.14,828.2
528.687,830.1
529.233,829.0
529.779,828.0
530.325,829.3
530.871,827.9
531.417,828.7
531.962,834.9
532.508,828.7
533.053,828.4
533.599,829.3
534.144,885.6
534.689,879.6
535.234,871.4
535.778,863.1
536.323,858.6
536.867,853.6
537.412,854.2
537.956,852.3
538.5,851.9
539.044,853.8
539.588,852.2
540.132,847.4
540.675,849.0
541.219,848.6
541.762,847.8
542.305,849.4
542.848,849.6
543.391,849.9
543.934,848.8
544.477,845.8
545.02,851.0
545.562,849.0
546.105,847.3
546.647,850.7
547.189,851.0
547.731,849.8
548.273,849.2
548.815,851.2
549.356,850.4
549.898,848.1
550.439,853.1
550.981,851.2
551.522,850.2
552.063,851.1
552.604,853.0
553.145,852.4
553.686,852.2
554.226,850.5
554.767,850.3
555.307,849.9
555.848,851.7
556.388,851.3
556.928,853.8
557.468,854.6
558.008,853.7
558.547,853.4
559.087,852.4
559.626,852.5
560.166,854.5
560.705,855.2
561.244,855.2
561.783,855.9
562.322,854.7
562.861,858.5
563.4,859.0
563.939,866.0
564.477,859.8
565.015,858.6
565.554,862.2
566.092,869.0
566.63,861.5
567.168,861.3
567.706,861.2
568.244,859.4
568.781,864.5
569.319,863.1
569.857,867.7
570.394,867.0
570.931,872.3
571.468,884.0
572.005,876.4
572.542,875.2
573.079,875.9
573.616,877.8
574.153,877.7
574.689,875.4
575.226,877.2
575.762,886.5
576.298,898.0
576.834,893.2
577.371,892.7
577.907,887.5
578.442,892.0
578.978,894.9
579.514,902.2
580.049,905.7
580.585,907.4
581.12,917.0
581.656,918.9
582.191,923.6
582.726,924.6
583.261,929.5
583.796,933.6
584.331,937.3
584.865,950.6
585.4,947.2
585.935,956.4
586.469,962.2
587.004,965.1
587.538,974.1
588.072,975.6
588.606,984.1
589.14,995.0
589.674,996.9
590.208,1004.5
590.742,1006.0
591.275,1013.4
591.809,1022.6
592.342,1020.7
592.876,1027.7
593.409,1029.8
593.942,1040.7
594.476,1038.2
595.009,1049.8
595.542,1055.4
596.075,1065.9
596.607,1071.9
597.14,1079.2
597.673,1084.6
598.205,1094.8
598.738,1102.4
599.27,1099.2
599.803,1113.5
600.335,1114.9
600.867,1110.1
601.399,1110.9
601.931,1111.6
602.463,1102.1
602.995,1098.7
603.527,1086.2
604.058,1086.4
604.59,1075.0
605.122,1063.2
605.653,1049.7
606.184,1037.5
606.716,1031.6
607.247,1030.5
607.778,1019.5
608.309,1015.3
608.84,1006.2
609.371,1007.0
609.902,997.0
610.433,990.2
610.964,994.9
611.494,988.6
612.025,987.3
612.556,987.3
613.086,982.3
613.616,981.8
614.147,973.7
614.677,974.7
615.207,970.4
615.737,966.2
616.267,971.0
616.797,966.9
617.327,965.1
617.857,960.9
618.387,963.3
618.917,960.9
619.446,956.7
619.976,955.3
620.505,949.7
621.035,954.9
621.564,950.0
622.093,951.8
622.623,953.4
623.152,951.7
623.681,947.5
624.21,948.2
624.739,948.2
625.268,949.2
625.797,948.3
626.326,948.1
626.855,971.0
627.383,1032.0
627.912,1003.8
628.441,1025.8
628.969,1021.9
629.498,1007.0
630.026,1006.8
630.554,1003.2
631.083,990.1
631.611,971.7
632.139,962.0
632.667,961.5
633.195,950.5
633.724,952.6
634.252,952.7
634.779,950.7
635.307,953.2
635.835,955.8
636.363,952.5
636.891,958.0
637.418,957.4
637.946,958.3
638.474,957.9
639.001,962.0
639.529,965.0
640.056,965.1
640.583,964.7
641.111,968.8
641.638,968.4
642.165,975.9
642.692,969.7
643.22,976.4
643.747,970.9
644.274,976.3
644.801,975.1
645.328,976.1
645.854,974.5
646.381,976.1
646.908,980.1
647.435,979.6
647.962,980.9
648.488,982.0
649.015,979.8
649.542,977.3
650.068,984.0
650.595,978.9
651.121,980.2
651.648,984.5
652.174,984.0
652.7,985.0
653.227,985.5
653.753,978.8
654.279,980.0
654.805,983.9
655.331,982.7
655.858,980.2
656.384,972.5
656.91,977.9
657.436,972.8
657.962,969.4
658.488,969.8
659.013,967.2
659.539,961.1
660.065,959.9
660.591,958.5
661.117,947.8
661.642,949.5
662.168,943.5
662.694,941.4
663.088,935.8