File: spectra/VLFR_02-HDPE_bio_Raman_660a7cd8.csv
nm,Intensity
526.495,828.3
527.042,829.6
527.589,828.4
528.136,828.9
528.682,828.2
529.229,829.6
529.775,829.7
530.321,830.5
530.867,829.1
531.413,829.4
531.959,831.3
532.505,827.8
533.051,829.4
533.596,830.7
534.141,980.2
534.687,988.9
535.232,992.2
535.777,996.3
536.321,1003.7
536.866,1002.1
537.41,1006.7
537.955,1009.9
538.499,1010.9
539.043,1006.9
539.587,1020.0
540.131,1021.8
540.675,1023.2
541.219,1027.1
541.762,1029.3
542.305,1027.8
542.849,1038.1
543.392,1037.1
543.935,1039.8
544.478,1040.8
545.02,1050.9
545.563,1055.2
546.106,1051.5
546.648,1054.8
547.19,1058.7
547.732,1060.7
548.274,1060.9
548.816,1068.8
549.358,1072.2
549.9,1080.0
550.441,1073.8
550.983,1076.6
551.524,1077.8
552.065,1086.3
552.606,1089.0
553.147,1094.5
553.688,1092.0
554.229,1097.6
554.769,1100.9
555.31,1092.7
555.85,1102.6
556.391,1106.3
556.931,1109.3
557.471,1106.7
558.011,1112.0
558.551,1112.2
559.09,1117.8
559.63,1127.6
560.169,1123.6
560.709,1132.0
561.248,1136.7
561.787,1134.4
562.326,1129.6
562.865,1140.0
563.404,1141.7
563.943,1153.2
564.481,1153.4
565.02,1154.7
565.558,1164.2
566.096,1172.8
566.634,1168.4
567.172,1167.9
567.71,1167.5
568.248,1178.3
568.786,1189.2
569.324,1190.3
569.861,1195.3
570.399,1205.7
570.936,1212.2
571.473,1207.9
572.01,1208.8
572.547,1220.2
573.084,1229.2
573.621,1234.7
574.158,1229.8
574.694,1230.9
575.231,1242.0
575.767,1242.9
576.303,1247.1
576.84,1241.1
577.376,1246.6
577.912,1250.1
578.448,1257.4
578.984,1265.9
579.519,1260.3
580.055,1265.2
580.59,1270.9
581.126,1278.8
581.661,1285.4
582.196,1279.7
582.731,1270.3
583.267,1263.7
583.801,1273.8
584.336,1269.2
584.871,1273.2
585.406,1279.2
585.94,1286.8
586.475,1293.6
587.009,1288.7
587.543,1288.8
588.078,1290.6
588.612,1302.1
589.146,1292.0
589.68,1292.5
590.214,1293.0
590.747,1299.3
591.281,1300.9
591.815,1302.8
592.348,1298.7
592.881,1290.5
593.415,1306.2
593.948,1297.9
594.481,1308.4
595.014,1315.8
595.547,1321.8
596.08,1317.9
596.613,1324.4
597.146,1320.8
597.678,1325.0
598.211,1328.8
598.743,1334.8
599.276,1340.2
599.808,1336.9
600.34,1332.4
600.872,1338.4
601.404,1329.5
601.936,1333.3
602.468,1324.7
603.0,1334.9
603.532,1337.6
604.064,1326.7
604.595,1338.4
605.127,1343.2
605.658,1327.7
606.189,1329.2
606.721,1317.8
607.252,1329.4
607.783,1339.1
608.314,1334.5
608.845,1347.7
609.376,1344.1
609.907,1342.0
610.438,1335.4
610.968,1344.7
611.499,1336.0
612.029,1345.5
612.56,1344.9
613.09,1367.7
613.621,1365.2
614.151,1359.1
614.681,1360.6
615.211,1367.2
615.741,1369.8
616.271,1362.4
616.801,1365.3
617.331,1373.5
617.861,1371.2
618.39,1365.6
618.92,1372.0
619.45,1377.4
619.979,1364.2
620.509,1374.8
621.038,1376.0
621.567,1372.6
622.096,1373.6
622.626,1375.9
623.155,1381.9
623.684,1378.5
624.213,1393.4
624.742,1375.7
625.271,1384.2
625.799,1384.7
626.328,1382.8
626.857,1375.7
627.386,1373.9
627.914,1374.1
628.443,1382.3
628.971,1381.5
629.5,1379.3
630.028,1390.8
630.556,1383.8
631.084,1389.3
631.613,1381.3
632.141,1385.1
632.669,1375.9
633.197,1384.1
633.725,1378.0
634.253,1375.3
634.781,1377.2
635.308,1373.7
635.836,1379.8
636.364,1381.8
636.891,1384.4
637.419,1381.3
637.947,1369.2
638.474,1385.9
639.002,1367.4
639.529,1379.3
640.056,1378.9
640.584,1377.2
641.111,1373.3
641.638,1369.7
642.165,1370.9
642.692,1370.4
643.219,1368.3
643.746,1367.8
644.273,1350.5
644.8,1352.4
645.327,1346.3
645.854,1353.6
646.381,1348.9
646.908,1355.9
647.434,1357.7
647.961,1354.8
648.488,1355.6
649.014,1351.8
649.541,1358.1
650.067,1360.5
650.594,1362.8
651.12,1355.1
651.646,1353.2
652.173,1348.8
652.699,1357.7
653.225,1354.0
653.752,1355.0
654.278,1356.5
654.804,1351.2
655.33,1358.2
655.856,1357.4
656.382,1361.2
656.908,1355.8
657.434,1355.1
657.96,1353.2
658.486,1358.6
659.012,1355.7
659.538,1359.6
660.064,1354.4
660.589,1359.4
661.115,1353.9
661.641,1343.7
662.166,1344.9
662.692,1354.2
663.086,1344.9