File: spectra/VLFR_06-PET_bio_Raman_f1022002.csv
nm,Intensity
526.508,829.4
527.055,829.5
527.602,829.6
528.149,829.9
528.695,829.9
529.241,829.5
529.787,828.9
530.334,829.6
530.879,829.9
531.425,830.3
531.971,831.0
532.516,830.5
533.062,830.2
533.607,833.6
534.152,1505.8
534.697,1321.8
535.242,1126.0
535.786,1012.6
536.331,949.2
536.876,915.5
537.42,909.6
537.964,903.1
538.508,906.3
539.052,903.9
539.596,912.1
540.14,916.5
540.683,895.5
541.227,890.1
541.77,883.7
542.313,882.5
542.856,881.6
543.399,882.5
543.942,891.7
544.485,885.7
545.027,888.6
545.57,887.5
546.112,894.2
546.654,911.9
547.196,890.2
547.738,891.6
548.28,893.0
548.822,891.1
549.363,894.4
549.905,896.6
550.446,903.8
550.988,908.2
551.529,896.0
552.07,897.6
552.611,901.6
553.152,910.3
553.692,900.3
554.233,902.5
554.773,903.4
555.314,908.9
555.854,939.5
556.394,939.0
556.934,946.8
557.474,1016.9
558.014,960.3
558.553,953.3
559.093,929.1
559.632,914.3
560.172,921.8
560.711,921.3
561.25,924.7
561.789,924.7
562.328,1027.4
562.867,941.2
563.406,938.9
563.944,931.8
564.483,938.1
565.021,965.7
565.559,1003.9
566.098,1008.3
566.636,957.1
567.174,943.2
567.711,990.2
568.249,948.5
568.787,945.7
569.324,953.4
569.862,964.7
570.399,987.9
570.936,1065.9
571.474,1129.6
572.011,1044.5
572.548,984.8
573.084,968.3
573.621,964.4
574.158,984.6
574.694,983.0
575.231,989.0
575.767,977.4
576.303,990.8
576.84,999.9
577.376,984.8
577.912,971.8
578.447,977.9
578.983,975.3
579.519,976.9
580.054,981.5
580.59,989.8
581.125,1004.8
581.661,1046.6
582.196,1712.6
582.731,1028.3
583.266,994.9
583.801,992.8
584.336,997.0
584.87,1005.4
585.405,1060.7
585.94,1360.8
586.474,1216.6
587.008,1033.3
587.543,1007.3
588.077,1005.7
588.611,1001.2
589.145,999.3
589.679,996.6
590.213,1001.1
590.747,998.4
591.28,1004.4
591.814,1001.9
592.347,1006.0
592.881,1009.2
593.414,1011.2
593.947,1005.4
594.48,1007.0
595.014,1012.7
595.547,1012.0
596.079,1013.0
596.612,1007.3
597.145,1012.9
597.678,1009.6
598.21,1014.3
598.743,1011.9
599.275,1020.7
599.807,1017.7
600.34,1016.3
600.872,1016.0
601.404,1019.5
601.936,1020.8
602.468,1015.5
603.0,1012.8
603.532,1021.9
604.063,1020.8
604.595,1023.5
605.126,1020.8
605.658,1018.4
606.189,1013.4
606.721,1018.2
607.252,1017.5
607.783,1025.9
608.314,1020.9
608.845,1014.2
609.376,1021.8
609.907,1025.0
610.438,1021.0
610.968,1021.4
611.499,1027.8
612.03,1023.0
612.56,1030.4
613.091,1037.5
613.621,1035.1
614.151,1037.8
614.681,1039.0
615.212,1038.7
615.742,1039.9
616.272,1043.4
616.802,1043.2
617.332,1042.6
617.861,1048.4
618.391,1049.8
618.921,1048.8
619.45,1051.8
619.98,1046.7
620.509,1040.6
621.039,1046.0
621.568,1048.6
622.097,1056.0
622.627,1050.9
623.156,1059.6
623.685,1053.0
624.214,1063.3
624.743,1064.5
625.272,1065.8
625.801,1063.4
626.33,1071.9
626.858,1063.0
627.387,1067.3
627.916,1075.0
628.444,1082.4
628.973,1093.1
629.501,1094.2
630.029,1095.6
630.558,1093.7
631.086,1133.3
631.614,1211.2
632.142,1201.6
632.67,1150.3
633.198,1141.5
633.726,1128.3
634.254,1119.9
634.782,1109.0
635.31,1110.9
635.838,1149.0
636.365,1218.2
636.893,1216.2
637.421,1140.0
637.948,1121.5
638.476,1118.8
639.003,1117.8
639.531,1119.4
640.058,1119.4
640.585,1122.4
641.113,1119.6
641.64,1131.4
642.167,1133.7
642.694,1134.7
643.221,1130.9
643.748,1126.1
644.275,1128.1
644.802,1129.7
645.329,1131.6
645.856,1137.9
646.382,1134.1
646.909,1136.6
647.436,1137.8
647.962,1143.5
648.489,1147.1
649.016,1142.7
649.542,1144.4
650.069,1136.7
650.595,1140.8
651.121,1143.4
651.648,1138.2
652.174,1155.7
652.7,1144.2
653.227,1151.1
653.753,1150.9
654.279,1150.5
654.805,1151.9
655.331,1161.2
655.857,1161.5
656.383,1154.1
656.909,1155.3
657.435,1164.6
657.961,1162.4
658.487,1156.9
659.013,1161.7
659.538,1164.6
660.064,1162.5
660.59,1164.4
661.116,1162.8
661.641,1159.5
662.167,1159.4
662.692,1164.3
663.087,1153.9