File: spectra/VLFR_08-PLA_nobio_Raman_b3bcdb80.csv
nm,Intensity
526.5,830.5
527.047,829.5
527.594,829.3
528.14,829.1
528.687,827.5
529.233,830.1
529.779,830.9
530.325,829.3
530.871,828.5
531.417,828.9
531.962,834.7
532.508,829.2
533.053,830.0
533.599,835.0
534.144,1348.5
534.689,1385.5
535.234,1372.7
535.778,1405.3
536.323,1412.4
536.867,1420.5
537.412,1428.2
537.956,1442.8
538.5,1444.6
539.044,1455.0
539.588,1467.0
540.132,1472.8
540.675,1471.5
541.219,1485.1
541.762,1495.3
542.305,1498.1
542.848,1513.6
543.391,1527.9
543.934,1534.1
544.477,1542.6
545.02,1563.2
545.562,1568.5
546.105,1579.6
546.647,1586.3
547.189,1599.4
547.731,1593.1
548.273,1601.6
548.815,1626.9
549.356,1624.9
549.898,1643.7
550.439,1638.5
550.981,1650.1
551.522,1661.3
552.063,1687.8
552.604,1688.3
553.145,1686.0
553.686,1687.9
554.226,1703.1
554.767,1716.4
555.307,1712.9
555.848,1710.8
556.388,1727.7
556.928,1728.2
557.468,1745.5
558.008,1742.6
558.547,1753.7
559.087,1756.2
559.626,1777.1
560.166,1787.0
560.705,1795.9
561.244,1801.3
561.783,1804.0
562.322,1815.5
562.861,1836.7
563.4,1846.1
563.939,1871.5
564.477,1878.8
565.015,1879.3
565.554,1902.4
566.092,1903.6
566.63,1903.7
567.168,1912.1
567.706,1912.1
568.244,1932.4
568.781,1942.7
569.319,1968.6
569.857,1979.6
570.394,1984.3
570.931,1993.1
571.468,1985.5
572.005,2000.0
572.542,2025.4
573.079,2023.9
573.616,2043.5
574.153,2047.1
574.689,2069.5
575.226,2065.5
575.762,2064.3
576.298,2088.1
576.834,2081.6
577.371,2094.9
577.907,2110.8
578.442,2120.0
578.978,2134.1
579.514,2153.5
580.049,2157.4
580.585,2160.7
581.12,2154.5
581.656,2165.6
582.191,2151.6
582.726,2174.3
583.261,2155.2
583.796,2178.1
584.331,2166.4
584.865,2177.4
585.4,2190.6
585.935,2171.1
586.469,2204.1
587.004,2210.1
587.538,2226.5
588.072,2213.3
588.606,2207.0
589.14,2213.0
589.674,2227.5
590.208,2224.8
590.742,2248.0
591.275,2244.8
591.809,2250.3
592.342,2250.0
592.876,2242.0
593.409,2246.4
593.942,2250.4
594.476,2265.7
595.009,2287.5
595.542,2293.2
596.075,2289.9
596.607,2294.3
597.14,2310.5
597.673,2309.5
598.205,2333.6
598.738,2339.2
599.27,2362.9
599.803,2343.6
600.335,2343.8
600.867,2346.9
601.399,2337.3
601.931,2358.6
602.463,2342.2
602.995,2372.4
603.527,2368.3
604.058,2369.3
604.59,2363.9
605.122,2343.8
605.653,2342.5
606.184,2349.4
606.716,2338.9
607.247,2354.9
607.778,2367.9
608.309,2378.4
608.84,2392.5
609.371,2390.2
609.902,2385.6
610.433,2393.5
610.964,2404.5
611.494,2398.0
612.025,2429.1
612.556,2429.6
613.086,2457.2
613.616,2468.3
614.147,2475.6
614.677,2484.4
615.207,2488.3
615.737,2480.3
616.267,2481.6
616.797,2506.0
617.327,2512.1
617.857,2519.9
618.387,2516.4
618.917,2517.3
619.446,2511.7
619.976,2517.7
620.505,2512.1
621.035,2529.2
621.564,2522.6
622.093,2526.3
622.623,2540.8
623.152,2569.3
623.681,2574.1
624.21,2569.5
624.739,2577.7
625.268,2557.2
625.797,2573.4
626.326,2572.9
626.855,2567.1
627.383,2571.6
627.912,2588.4
628.441,2588.6
628.969,2586.4
629.498,2593.9
630.026,2587.2
630.554,2616.5
631.083,2599.2
631.611,2614.4
632.139,2600.0
632.667,2609.0
633.195,2602.6
633.724,2586.9
634.252,2603.1
634.779,2602.6
635.307,2587.2
635.835,2613.1
636.363,2622.5
636.891,2615.6
637.418,2603.4
637.946,2629.3
638.474,2612.4
639.001,2619.6
639.529,2622.2
640.056,2623.9
640.583,2630.7
641.111,2632.5
641.638,2624.7
642.165,2613.8
642.692,2617.0
643.22,2604.9
643.747,2601.2
644.274,2588.2
644.801,2584.9
645.328,2596.4
645.854,2575.2
646.381,2585.3
646.908,2586.2
647.435,2593.9
647.962,2589.8
648.488,2601.9
649.015,2582.1
649.542,2578.4
650.068,2580.9
650.595,2572.4
651.121,2597.3
651.648,2590.3
652.174,2602.6
652.7,2595.5
653.227,2609.6
653.753,2607.8
654.279,2611.6
654.805,2609.7
655.331,2623.4
655.858,2627.6
656.384,2622.5
656.91,2628.5
657.436,2642.0
657.962,2636.7
658.488,2665.8
659.013,2659.5
659.539,2647.0
660.065,2675.2
660.591,2666.7
661.117,2667.0
661.642,2641.4
662.168,2646.5
662.694,2674.7
663.088,2656.0