File: spectra/VLFR_01-LDPE_bio_Raman_cbaa2979.csv
nm,Intensity
528.625,1843.9
529.13,1841.3
529.636,1843.5
530.141,1843.7
530.646,1844.1
531.152,1844.4
531.657,1868.2
532.162,2978.7
532.667,1846.1
533.172,1846.2
533.677,2009.2
534.182,2350.9
534.687,2279.1
535.192,2215.3
535.697,2146.1
536.201,2102.9
536.706,2079.5
537.211,2096.3
537.715,2094.4
538.22,2069.7
538.724,2051.1
539.229,2053.3
539.733,2040.0
540.238,2034.8
540.742,2036.2
541.246,2021.3
541.75,2031.0
542.254,2025.4
542.758,2030.4
543.262,2020.9
543.766,2023.7
544.27,2022.6
544.774,2027.0
545.278,2014.7
545.781,2021.8
546.285,2017.5
546.789,2030.4
547.292,2021.4
547.796,2031.1
548.299,2029.5
548.803,2019.9
549.306,2022.1
549.809,2014.1
550.312,2024.8
550.816,2015.1
551.319,2027.3
551.822,2029.5
552.325,2034.6
552.828,2042.8
553.33,2065.3
553.833,2057.8
554.336,2066.6
554.839,2075.6
555.341,2092.9
555.844,2106.5
556.346,2100.2
556.849,2128.8
557.351,2153.6
557.854,2184.0
558.356,2190.8
558.858,2171.5
559.36,2139.8
559.862,2142.7
560.364,2132.1
560.866,2138.1
561.368,2139.8
561.87,2156.7
562.372,2191.9
562.874,2193.1
563.375,2261.6
563.877,2804.1
564.378,2451.0
564.88,2367.5
565.381,2319.6
565.883,2704.8
566.384,2595.8
566.885,2270.1
567.386,2311.0
567.888,2237.7
568.389,2241.9
568.89,2233.2
569.391,2247.9
569.891,2267.9
570.392,2319.0
570.893,2385.7
571.394,3249.7
571.894,2686.5
572.395,2463.4
572.895,2395.8
573.396,2407.0
573.896,2492.3
574.396,2455.6
574.897,2454.6
575.397,2874.3
575.897,3119.4
576.397,3635.5
576.897,3361.5
577.397,3060.8
577.897,2885.9
578.396,2930.8
578.896,2982.4
579.396,3084.4
579.895,3201.4
580.395,3196.4
580.894,3301.0
581.393,3344.2
581.893,3512.4
582.392,3397.5
582.891,3533.3
583.39,3567.0
583.889,3599.6
584.388,3651.8
584.887,3672.3
585.386,3685.6
585.885,3760.3
586.383,3799.8
586.882,3845.4
587.381,3921.2
587.879,3964.8
588.377,4067.0
588.876,4146.8
589.374,4228.5
589.872,4296.1
590.37,4402.4
590.869,4600.9
591.367,4592.9
591.864,4706.4
592.362,4766.5
592.86,4873.6
593.358,4923.3
593.855,5015.1
594.353,4965.0
594.851,5096.1
595.348,5177.3
595.845,5238.8
596.343,5395.0
596.84,5453.1
597.337,5471.0
597.834,5593.1
598.331,5604.5
598.828,5758.1
599.325,5772.8
599.822,5955.1
600.318,5909.1
600.815,5855.7
601.311,5846.3
601.808,5783.3
602.304,5794.7
602.801,5785.1
603.297,5581.7
603.793,5421.9
604.289,5396.4
604.785,5237.8
605.281,5120.3
605.777,4893.9
606.273,4733.4
606.769,4721.3
607.265,4594.7
607.76,4598.9
608.256,4371.2
608.751,4365.5
609.246,4250.2
609.742,4223.8
610.237,4152.8
610.732,4083.8
611.227,4048.5
611.722,4029.7
612.217,3945.3
612.712,3859.1
613.207,3787.1
613.701,3816.7
614.196,3748.6
614.691,3728.5
615.185,3657.1
615.679,3651.6
616.174,3609.9
616.668,3573.4
617.162,3552.0
617.656,3520.5
618.15,3519.7
618.644,3468.7
619.138,3499.0
619.632,3471.6
620.125,3399.1
620.619,3438.4
621.112,3477.6
621.606,3537.4
622.099,3649.7
622.592,3550.1
623.086,3385.0
623.579,3289.7
624.072,3273.5
624.565,3305.2
625.058,3347.6
625.55,3325.6
626.043,3440.7
626.536,4215.9
627.028,8256.4
627.521,7868.9
628.013,6928.3
628.505,9132.6
628.998,7107.0
629.49,6373.2
629.982,5621.8
630.474,5454.9
630.966,4331.2
631.458,3650.3
631.949,3399.5
632.441,3293.7
632.933,3239.5
633.424,3213.6
633.915,3224.9
634.407,3175.0
634.898,3140.1
635.389,3119.8
635.88,3113.9
636.371,3122.1
636.862,3148.1
637.353,3089.4
637.844,3093.9
638.334,3073.6
638.825,3114.6
639.315,3083.3
639.806,3128.6
640.296,3064.3
640.786,3076.1
641.276,3072.4
641.766,3122.9
642.256,3112.7
642.746,3170.8
643.236,3099.1
643.726,3135.6
644.215,3152.8
644.705,3127.7
645.194,3143.5
645.684,3191.3
646.173,3166.2
646.662,3174.0
647.151,3170.1
647.64,3165.4
648.129,3176.7
648.618,3179.1
649.107,3138.9
649.595,3142.2
650.084,3111.3
650.572,3106.9
651.061,3107.9
651.549,3137.5
652.037,3120.9
652.526,3154.4
653.014,3055.2
653.502,3106.2
653.989,3039.2
654.477,3044.1
654.965,3054.6
655.452,3092.5
655.94,3015.0
656.427,2984.2
656.915,2982.2
657.402,2950.5
657.889,2907.6
658.376,2863.4
658.863,2816.1
659.35,2821.1
659.837,2743.3
660.323,2785.4
660.81,2674.5
661.053,2630.9