File: spectra/VLFR_06-PET_nobio_Raman_da5ef05d.csv
nm,Intensity
526.508,829.7
527.055,829.75
527.602,830.75
528.149,830.45
528.695,831.45
529.241,830.6
529.787,830.6
530.334,830.7
530.879,830.3
531.425,830.1
531.971,833.6
532.516,830.9
533.062,829.8
533.607,830.4
534.152,895.95
534.697,897.3
535.242,884.55
535.786,879.85
536.331,876.9
536.876,875.95
537.42,877.05
537.964,876.1
538.508,876.6
539.052,879.05
539.596,881.25
540.14,883.05
540.683,883.3
541.227,886.15
541.77,892.75
542.313,896.65
542.856,898.7
543.399,906.2
543.942,896.45
544.485,900.95
545.027,907.7
545.57,908.15
546.112,901.95
546.654,906.05
547.196,914.65
547.738,908.7
548.28,908.6
548.822,912.55
549.363,913.3
549.905,916.3
550.446,919.9
550.988,921.2
551.529,923.8
552.07,927.3
552.611,925.55
553.152,928.15
553.692,929.95
554.233,931.65
554.773,937.5
555.314,937.0
555.854,940.05
556.394,943.7
556.934,945.45
557.474,947.2
558.014,948.5
558.553,949.5
559.093,956.95
559.632,954.75
560.172,961.85
560.711,962.95
561.25,968.1
561.789,963.3
562.328,971.55
562.867,975.4
563.406,981.65
563.944,984.5
564.483,988.55
565.021,1011.4
565.559,1009.2
566.098,1013.1
566.636,1001.1
567.174,1000.85
567.711,993.2
568.249,999.5
568.787,998.15
569.324,1002.45
569.862,1004.4
570.399,1001.45
570.936,1011.5
571.474,1018.3
572.011,1012.35
572.548,1014.65
573.084,1019.4
573.621,1024.05
574.158,1029.25
574.694,1030.15
575.231,1024.85
575.767,1023.15
576.303,1024.75
576.84,1028.85
577.376,1028.75
577.912,1028.95
578.447,1026.05
578.983,1028.0
579.519,1026.4
580.054,1027.55
580.59,1031.1
581.125,1031.25
581.661,1033.05
582.196,1047.2
582.731,1033.2
583.266,1037.15
583.801,1034.3
584.336,1034.65
584.87,1037.9
585.405,1041.65
585.94,1046.75
586.474,1045.9
587.008,1044.5
587.543,1042.35
588.077,1038.15
588.611,1038.45
589.145,1038.0
589.679,1037.35
590.213,1039.15
590.747,1041.15
591.28,1036.25
591.814,1038.45
592.347,1034.55
592.881,1035.8
593.414,1034.35
593.947,1041.85
594.48,1037.0
595.014,1036.9
595.547,1038.65
596.079,1041.75
596.612,1040.4
597.145,1042.95
597.678,1043.25
598.21,1045.7
598.743,1048.65
599.275,1041.55
599.807,1045.05
600.34,1045.75
600.872,1045.95
601.404,1047.45
601.936,1049.25
602.468,1042.7
603.0,1047.85
603.532,1047.85
604.063,1049.3
604.595,1046.5
605.126,1047.9
605.658,1048.5
606.189,1042.15
606.721,1041.05
607.252,1042.65
607.783,1045.9
608.314,1042.1
608.845,1052.75
609.376,1051.15
609.907,1048.7
610.438,1049.0
610.968,1048.2
611.499,1046.8
612.03,1054.55
612.56,1054.95
613.091,1056.35
613.621,1055.1
614.151,1060.8
614.681,1059.4
615.212,1057.05
615.742,1060.95
616.272,1062.45
616.802,1064.95
617.332,1063.45
617.861,1068.4
618.391,1059.65
618.921,1067.1
619.45,1070.2
619.98,1065.9
620.509,1069.75
621.039,1067.5
621.568,1067.9
622.097,1070.25
622.627,1072.25
623.156,1074.65
623.685,1074.75
624.214,1069.9
624.743,1076.2
625.272,1075.05
625.801,1079.65
626.33,1078.95
626.858,1087.3
627.387,1092.25
627.916,1103.5
628.444,1119.45
628.973,1136.3
629.501,1134.85
630.029,1116.6
630.558,1110.75
631.086,1099.65
631.614,1093.85
632.142,1093.9
632.67,1083.8
633.198,1076.7
633.726,1072.45
634.254,1072.6
634.782,1073.75
635.31,1075.05
635.838,1074.7
636.365,1077.7
636.893,1077.3
637.421,1070.75
637.948,1074.5
638.476,1078.65
639.003,1075.05
639.531,1076.7
640.058,1076.05
640.585,1079.3
641.113,1079.8
641.64,1079.85
642.167,1076.75
642.694,1076.0
643.221,1078.95
643.748,1078.3
644.275,1080.05
644.802,1080.8
645.329,1080.6
645.856,1080.8
646.382,1077.65
646.909,1078.05
647.436,1083.4
647.962,1077.5
648.489,1075.95
649.016,1074.85
649.542,1077.6
650.069,1078.65
650.595,1070.65
651.121,1071.0
651.648,1072.65
652.174,1070.5
652.7,1072.65
653.227,1071.45
653.753,1069.55
654.279,1070.5
654.805,1064.3
655.331,1069.8
655.857,1065.1
656.383,1066.8
656.909,1065.1
657.435,1063.6
657.961,1065.45
658.487,1069.0
659.013,1067.65
659.538,1066.75
660.064,1066.15
660.59,1070.1
661.116,1069.25
661.641,1064.15
662.167,1058.25
662.692,1061.65
663.087,1059.4