File: spectra/VLFR_08-PLA_nobio_Raman_a41dd254.csv
cm-1,Intensity
-123.878,1855.05
-105.821,1856.95
-87.8007,1855.6
-69.8161,1855.7
-51.8675,1856.3
-33.9547,1857.3
-16.0776,1898.05
1.76388,3237.8
19.5698,1858.4
37.3403,1857.4
55.0755,2092.25
72.7754,2644.2
90.4402,2513.4
108.07,2434.1
125.665,2365.3
143.225,2356.45
160.75,2351.6
178.241,2317.35
195.697,2321.15
213.119,2277.3
230.506,2276.85
247.859,2294.6
265.178,2251.4
282.463,2297.65
299.713,2343.9
316.93,2350.15
334.113,2311.85
351.263,2293.5
368.379,2333.85
385.461,2391.55
402.51,2455.35
419.526,2387.1
436.508,2330.95
453.458,2306.7
470.374,2304.1
487.257,2314.05
504.107,2319.6
520.925,2314.0
537.71,2322.9
554.462,2333.9
571.182,2330.25
587.87,2367.15
604.525,2340.7
621.148,2355.85
637.739,2359.95
654.297,2394.55
670.824,2408.9
687.319,2413.0
703.782,2427.7
720.213,2406.15
736.613,2448.7
752.981,2440.2
769.317,2442.0
785.623,2404.7
801.897,2412.0
818.139,2415.65
834.351,2428.35
850.532,2508.2
866.681,3043.45
882.8,2800.1
898.888,2536.9
914.945,2498.2
930.972,2495.95
946.968,2480.5
962.934,2468.95
978.869,2460.65
994.774,2486.15
1010.65,2499.95
1026.49,2562.3
1042.31,2706.25
1058.09,2597.2
1073.85,2545.75
1089.57,2637.4
1105.27,2660.15
1120.93,2718.15
1136.57,2698.6
1152.18,2533.85
1167.75,2539.95
1183.3,2574.5
1198.82,2555.5
1214.31,2568.05
1229.77,2557.15
1245.2,2566.95
1260.6,2535.2
1275.97,2563.7
1291.32,2668.0
1306.63,2665.7
1321.92,2626.85
1337.18,2645.7
1352.41,2651.75
1367.61,2657.05
1382.78,2664.85
1397.93,2597.7
1413.05,2563.5
1428.14,2597.85
1443.2,2810.9
1458.23,2915.65
1473.23,2655.5
1488.21,2592.1
1503.16,2572.45
1518.08,2560.9
1532.97,2570.05
1547.84,2579.85
1562.68,2573.7
1577.49,2591.7
1592.27,2579.95
1607.03,2564.35
1621.76,2584.7
1636.46,2578.25
1651.14,2590.05
1665.78,2588.85
1680.41,2596.75
1695.0,2605.5
1709.57,2601.7
1724.11,2574.65
1738.62,2684.25
1753.11,2831.65
1767.57,2980.65
1782.01,2805.75
1796.41,2633.65
1810.8,2613.65
1825.15,2593.55
1839.48,2574.45
1853.79,2580.4
1868.06,2569.5
1882.31,2565.0
1896.54,2567.1
1910.74,2577.05
1924.91,2577.95
1939.06,2577.5
1953.19,2573.4
1967.28,2564.35
1981.35,2573.25
1995.4,2569.55
2009.42,2580.3
2023.42,2574.9
2037.39,2564.6
2051.33,2578.85
2065.25,2572.9
2079.15,2569.95
2093.01,2569.4
2106.86,2567.9
2120.68,2568.4
2134.47,2561.3
2148.24,2559.15
2161.99,2563.35
2175.71,2555.45
2189.41,2563.3
2203.08,2558.85
2216.73,2549.65
2230.35,2543.85
2243.95,2553.3
2257.52,2529.7
2271.07,2536.45
2284.6,2553.75
2298.1,2529.85
2311.58,2531.1
2325.03,2532.15
2338.46,2539.1
2351.87,2550.05
2365.25,2502.1
2378.61,2514.75
2391.94,2494.8
2405.26,2515.8
2418.54,2503.05
2431.81,2505.75
2445.05,2503.7
2458.27,2496.2
2471.46,2499.3
2484.63,2506.45
2497.78,2500.45
2510.9,2494.8
2524.0,2504.2
2537.08,2491.1
2550.14,2497.9
2563.17,2476.7
2576.18,2502.1
2589.17,2483.85
2602.13,2491.55
2615.07,2490.85
2627.99,2467.65
2640.89,2470.15
2653.76,2470.65
2666.61,2475.95
2679.44,2471.4
2692.25,2459.0
2705.03,2476.95
2717.79,2479.45
2730.53,2509.8
2743.25,2535.6
2755.94,2510.1
2768.61,2479.65
2781.27,2478.8
2793.89,2449.8
2806.5,2467.35
2819.09,2429.35
2831.65,2447.75
2844.19,2436.55
2856.71,2469.15
2869.21,2599.6
2881.69,2904.5
2894.14,2793.7
2906.58,2800.25
2918.99,2848.5
2931.38,3212.3
2943.75,5133.0
2956.1,4203.2
2968.42,3243.45
2980.73,3093.9
2993.01,3412.8
3005.28,3581.1
3017.52,3079.35
3029.74,2689.45
3041.94,2513.45
3054.12,2425.2
3066.28,2394.6
3078.42,2397.65
3090.54,2390.75
3102.63,2382.5
3114.71,2375.55
3126.77,2374.4
3138.8,2359.85
3150.82,2349.55
3162.81,2354.1
3174.78,2361.2
3186.74,2349.3
3198.67,2356.05
3210.58,2356.9
3222.47,2327.95
3234.35,2330.85
3246.2,2335.55
3258.03,2320.2
3269.84,2307.25
3281.64,2316.6
3293.41,2323.8
3305.16,2290.7
3316.89,2279.0
3328.61,2273.7
3340.3,2275.55
3351.97,2277.15
3363.63,2280.75
3375.26,2261.9
3386.88,2261.45
3398.47,2255.0
3410.05,2248.15
3421.6,2245.15
3433.14,2247.35
3444.66,2228.15
3456.15,2222.95
3467.63,2216.7
3479.09,2232.1
3490.53,2213.9
3501.96,2213.4
3513.36,2203.8
3524.74,2196.1
3536.11,2196.1
3547.45,2191.55
3558.78,2188.55
3570.09,2190.85
3581.37,2177.4
3592.64,2173.5
3603.9,2173.7
3615.13,2155.1
3626.34,2153.0
3637.54,2143.6
3648.72,2145.65
3659.87,2154.9
3665.45,2133.95