File: spectra/VLFR_01-LDPE_bio_Raman_4d1a7bd8.csv
nm,Intensity
526.508,830.4
527.055,830.2
527.602,829.7
528.149,829.4
528.695,831.5
529.241,829.7
529.787,828.6
530.334,830.1
530.879,831.3
531.425,830.9
531.971,834.5
532.516,832.3
533.062,830.0
533.607,831.2
534.152,963.9
534.697,951.2
535.242,936.5
535.786,923.5
536.331,913.7
536.876,909.8
537.42,911.2
537.964,910.7
538.508,907.5
539.052,906.9
539.596,902.4
540.14,902.3
540.683,901.0
541.227,899.1
541.77,903.5
542.313,902.8
542.856,903.4
543.399,904.1
543.942,902.8
544.485,901.6
545.027,901.9
545.57,903.7
546.112,904.2
546.654,905.0
547.196,901.2
547.738,905.4
548.28,903.8
548.822,907.5
549.363,907.8
549.905,904.0
550.446,910.3
550.988,907.1
551.529,912.5
552.07,908.1
552.611,908.4
553.152,910.8
553.692,915.9
554.233,916.0
554.773,915.5
555.314,918.7
555.854,915.5
556.394,923.4
556.934,927.3
557.474,925.0
558.014,932.3
558.553,931.0
559.093,934.8
559.632,930.2
560.172,927.8
560.711,930.7
561.25,930.6
561.789,932.7
562.328,935.4
562.867,935.9
563.406,945.1
563.944,992.4
564.483,961.2
565.021,963.2
565.559,956.2
566.098,1009.8
566.636,964.5
567.174,963.7
567.711,960.1
568.249,956.8
568.787,951.2
569.324,956.5
569.862,961.7
570.399,963.4
570.936,968.1
571.474,1055.9
572.011,1004.6
572.548,983.3
573.084,978.5
573.621,985.4
574.158,991.7
574.694,994.9
575.231,998.3
575.767,1041.0
576.303,1136.9
576.84,1096.5
577.376,1072.7
577.912,1040.9
578.447,1046.8
578.983,1064.7
579.519,1070.4
580.054,1077.5
580.59,1082.2
581.125,1094.8
581.661,1110.6
582.196,1123.2
582.731,1130.5
583.266,1155.5
583.801,1180.0
584.336,1185.5
584.87,1202.6
585.405,1232.4
585.94,1237.6
586.474,1260.5
587.008,1292.6
587.543,1315.7
588.077,1334.5
588.611,1362.5
589.145,1370.6
589.679,1399.5
590.213,1435.5
590.747,1446.9
591.28,1463.2
591.814,1479.7
592.347,1491.0
592.881,1497.3
593.414,1493.9
593.947,1498.6
594.48,1520.4
595.014,1546.4
595.547,1550.5
596.079,1563.6
596.612,1573.2
597.145,1595.1
597.678,1613.7
598.21,1641.2
598.743,1647.2
599.275,1671.7
599.807,1686.8
600.34,1695.2
600.872,1689.9
601.404,1677.1
601.936,1670.9
602.468,1659.2
603.0,1640.6
603.532,1626.8
604.063,1619.2
604.595,1582.3
605.126,1549.6
605.658,1509.6
606.189,1486.0
606.721,1470.4
607.252,1447.6
607.783,1437.2
608.314,1426.8
608.845,1409.4
609.376,1378.3
609.907,1375.2
610.438,1363.8
610.968,1343.9
611.499,1339.6
612.03,1342.0
612.56,1339.0
613.091,1330.4
613.621,1326.7
614.151,1311.0
614.681,1302.9
615.212,1286.5
615.742,1274.6
616.272,1272.4
616.802,1263.5
617.332,1266.3
617.861,1249.9
618.391,1252.6
618.921,1246.6
619.45,1243.5
619.98,1232.0
620.509,1231.9
621.039,1229.5
621.568,1232.1
622.097,1256.7
622.627,1254.7
623.156,1219.0
623.685,1217.8
624.214,1203.9
624.743,1202.4
625.272,1211.4
625.801,1206.7
626.33,1230.3
626.858,1441.0
627.387,1871.6
627.916,1602.8
628.444,1811.8
628.973,1651.0
629.501,1542.2
630.029,1440.4
630.558,1427.3
631.086,1310.0
631.614,1236.7
632.142,1209.3
632.67,1198.3
633.198,1189.1
633.726,1189.6
634.254,1188.4
634.782,1184.8
635.31,1180.6
635.838,1190.3
636.365,1187.4
636.893,1199.5
637.421,1197.7
637.948,1193.0
638.476,1197.3
639.003,1202.6
639.531,1209.0
640.058,1213.2
640.585,1222.6
641.113,1224.1
641.64,1228.7
642.167,1224.8
642.694,1234.2
643.221,1229.6
643.748,1229.0
644.275,1225.1
644.802,1239.9
645.329,1227.5
645.856,1229.6
646.382,1234.8
646.909,1234.5
647.436,1235.1
647.962,1238.8
648.489,1239.2
649.016,1235.7
649.542,1235.1
650.069,1234.9
650.595,1235.5
651.121,1232.8
651.648,1240.2
652.174,1235.3
652.7,1228.4
653.227,1238.8
653.753,1243.9
654.279,1240.5
654.805,1245.2
655.331,1243.1
655.857,1236.4
656.383,1228.5
656.909,1230.8
657.435,1224.8
657.961,1221.0
658.487,1214.9
659.013,1208.3
659.538,1193.4
660.064,1182.6
660.59,1183.8
661.116,1174.3
661.641,1163.4
662.167,1157.4
662.692,1145.5
663.087,1138.1