File: spectra/VLFR_08-PLA_nobio_Raman_34860665.csv
cm-1,Intensity
-123.878,1853.15
-105.821,1855.2
-87.8007,1853.55
-69.8161,1853.95
-51.8675,1853.2
-33.9547,1857.3
-16.0776,1886.35
1.76388,3284.7
19.5698,1855.8
37.3403,1855.3
55.0755,2009.7
72.7754,2407.75
90.4402,2361.1
108.07,2340.7
125.665,2298.35
143.225,2305.45
160.75,2333.2
178.241,2304.25
195.697,2324.9
213.119,2318.8
230.506,2308.95
247.859,2313.4
265.178,2308.4
282.463,2337.15
299.713,2353.7
316.93,2369.4
334.113,2345.3
351.263,2345.05
368.379,2371.6
385.461,2419.8
402.51,2457.0
419.526,2405.65
436.508,2395.7
453.458,2386.25
470.374,2396.05
487.257,2415.3
504.107,2437.8
520.925,2431.4
537.71,2431.3
554.462,2454.05
571.182,2473.1
587.87,2472.85
604.525,2483.0
621.148,2471.0
637.739,2530.4
654.297,2511.75
670.824,2550.7
687.319,2557.75
703.782,2533.6
720.213,2525.75
736.613,2581.65
752.981,2550.85
769.317,2551.1
785.623,2551.85
801.897,2536.65
818.139,2554.75
834.351,2572.15
850.532,2590.6
866.681,2864.1
882.8,2781.1
898.888,2642.5
914.945,2630.35
930.972,2617.0
946.968,2625.45
962.934,2630.15
978.869,2603.7
994.774,2628.15
1010.65,2623.85
1026.49,2696.65
1042.31,2761.85
1058.09,2693.95
1073.85,2651.75
1089.57,2752.85
1105.27,2757.4
1120.93,2816.6
1136.57,2796.3
1152.18,2712.75
1167.75,2694.25
1183.3,2730.8
1198.82,2737.05
1214.31,2738.7
1229.77,2715.5
1245.2,2724.15
1260.6,2747.6
1275.97,2732.65
1291.32,2825.45
1306.63,2855.4
1321.92,2794.8
1337.18,2803.45
1352.41,2813.75
1367.61,2794.5
1382.78,2818.75
1397.93,2795.3
1413.05,2788.2
1428.14,2820.45
1443.2,2922.7
1458.23,2980.45
1473.23,2842.45
1488.21,2795.35
1503.16,2780.3
1518.08,2764.45
1532.97,2789.3
1547.84,2768.5
1562.68,2795.6
1577.49,2771.0
1592.27,2777.2
1607.03,2780.4
1621.76,2791.6
1636.46,2771.95
1651.14,2756.35
1665.78,2790.8
1680.41,2773.75
1695.0,2766.85
1709.57,2727.45
1724.11,2751.55
1738.62,2797.75
1753.11,2914.85
1767.57,2949.45
1782.01,2876.65
1796.41,2769.15
1810.8,2771.6
1825.15,2715.75
1839.48,2762.25
1853.79,2728.8
1868.06,2749.1
1882.31,2757.6
1896.54,2749.85
1910.74,2751.25
1924.91,2727.0
1939.06,2722.3
1953.19,2708.95
1967.28,2738.65
1981.35,2722.1
1995.4,2748.85
2009.42,2738.35
2023.42,2753.5
2037.39,2724.15
2051.33,2720.4
2065.25,2750.7
2079.15,2720.65
2093.01,2717.35
2106.86,2737.05
2120.68,2731.55
2134.47,2719.15
2148.24,2716.2
2161.99,2732.1
2175.71,2742.65
2189.41,2708.95
2203.08,2712.85
2216.73,2728.35
2230.35,2714.45
2243.95,2737.45
2257.52,2721.05
2271.07,2704.35
2284.6,2718.55
2298.1,2701.05
2311.58,2712.5
2325.03,2671.2
2338.46,2708.35
2351.87,2711.9
2365.25,2700.35
2378.61,2683.55
2391.94,2706.9
2405.26,2704.7
2418.54,2709.7
2431.81,2725.9
2445.05,2675.7
2458.27,2711.0
2471.46,2697.75
2484.63,2703.65
2497.78,2667.4
2510.9,2683.05
2524.0,2686.1
2537.08,2682.4
2550.14,2663.7
2563.17,2663.95
2576.18,2659.75
2589.17,2656.3
2602.13,2656.9
2615.07,2666.8
2627.99,2663.55
2640.89,2675.8
2653.76,2636.1
2666.61,2631.65
2679.44,2651.45
2692.25,2650.35
2705.03,2666.1
2717.79,2625.85
2730.53,2705.15
2743.25,2687.2
2755.94,2655.55
2768.61,2644.6
2781.27,2628.8
2793.89,2609.8
2806.5,2619.95
2819.09,2610.55
2831.65,2639.1
2844.19,2603.15
2856.71,2655.55
2869.21,2708.1
2881.69,2908.4
2894.14,2888.25
2906.58,2871.9
2918.99,2904.65
2931.38,3192.55
2943.75,4641.7
2956.1,3920.85
2968.42,3177.75
2980.73,2991.5
2993.01,3241.85
3005.28,3398.1
3017.52,3043.5
3029.74,2751.3
3041.94,2599.05
3054.12,2539.8
3066.28,2499.3
3078.42,2521.45
3090.54,2500.0
3102.63,2473.65
3114.71,2492.35
3126.77,2467.25
3138.8,2455.75
3150.82,2458.9
3162.81,2459.35
3174.78,2464.6
3186.74,2429.35
3198.67,2452.7
3210.58,2438.0
3222.47,2442.25
3234.35,2418.35
3246.2,2412.15
3258.03,2422.45
3269.84,2375.9
3281.64,2381.2
3293.41,2383.2
3305.16,2368.65
3316.89,2369.05
3328.61,2367.8
3340.3,2356.7
3351.97,2353.2
3363.63,2348.55
3375.26,2329.05
3386.88,2335.85
3398.47,2326.85
3410.05,2322.9
3421.6,2312.0
3433.14,2315.75
3444.66,2305.85
3456.15,2306.05
3467.63,2283.2
3479.09,2280.0
3490.53,2258.75
3501.96,2270.15
3513.36,2267.9
3524.74,2270.3
3536.11,2249.7
3547.45,2249.45
3558.78,2246.5
3570.09,2231.6
3581.37,2242.55
3592.64,2220.05
3603.9,2209.15
3615.13,2195.35
3626.34,2184.05
3637.54,2191.65
3648.72,2205.7
3659.87,2188.95
3665.45,2183.95