File: spectra/VLFR_08-PLA_bio_Raman_0569915a.csv
nm,Intensity
528.626,1864.6
529.132,1864.5
529.637,1864.8
530.143,1865.37
530.648,1866.0
531.153,1868.73
531.658,1924.37
532.164,5057.13
532.669,1868.43
533.174,1868.0
533.679,2173.97
534.184,3151.47
534.689,3203.2
535.194,3282.87
535.699,3303.93
536.203,3326.47
536.708,3319.2
537.213,3353.73
537.717,3430.83
538.222,3450.73
538.726,3440.37
539.231,3444.37
539.735,3499.27
540.239,3506.33
540.744,3526.1
541.248,3607.0
541.752,3572.37
542.256,3629.3
542.76,3661.8
543.264,3674.9
543.768,3741.03
544.272,3702.17
544.776,3747.53
545.28,3780.7
545.784,3808.5
546.287,3859.4
546.791,3858.63
547.294,3905.97
547.798,3949.03
548.301,4005.57
548.805,4015.13
549.308,4017.67
549.811,4063.53
550.315,4095.7
550.818,4169.67
551.321,4163.87
551.824,4253.73
552.327,4232.2
552.83,4227.03
553.333,4224.77
553.835,4339.0
554.338,4268.97
554.841,4332.37
555.343,4317.13
555.846,4342.43
556.349,4358.2
556.851,4374.6
557.353,4409.87
557.856,4508.3
558.358,4519.2
558.86,4495.93
559.362,4512.23
559.864,4506.47
560.366,4555.57
560.868,4564.87
561.37,4644.47
561.872,4621.77
562.374,4669.77
562.876,4704.8
563.377,4755.07
563.879,4770.43
564.38,4760.63
564.882,4850.93
565.383,4861.43
565.885,4861.77
566.386,4961.3
566.887,4906.7
567.388,4935.93
567.889,5005.33
568.391,4990.2
568.892,5016.67
569.392,5144.27
569.893,5158.23
570.394,5168.33
570.895,5146.27
571.395,5271.0
571.896,5229.03
572.397,5384.43
572.897,5342.13
573.397,5364.77
573.898,5313.97
574.398,5303.63
574.898,5321.57
575.398,5401.2
575.898,5379.9
576.398,5472.33
576.898,5433.67
577.398,5498.63
577.898,5416.1
578.398,5453.87
578.897,5524.73
579.397,5428.23
579.896,5586.6
580.396,5596.5
580.895,5598.9
581.395,5598.17
581.894,5617.5
582.393,5528.4
582.892,5553.6
583.391,5492.3
583.89,5476.8
584.389,5381.33
584.888,5418.43
585.387,5359.7
585.886,5388.07
586.384,5390.17
586.883,5399.2
587.381,5462.03
587.88,5463.63
588.378,5445.83
588.876,5268.13
589.375,5357.2
589.873,5415.0
590.371,5439.0
590.869,5389.4
591.367,5459.17
591.865,5388.43
592.363,5457.87
592.86,5453.17
593.358,5421.27
593.856,5399.0
594.353,5377.97
594.851,5377.47
595.348,5460.47
595.845,5414.27
596.342,5498.47
596.84,5433.37
597.337,5451.43
597.834,5476.5
598.331,5502.2
598.828,5486.7
599.324,5567.2
599.821,5456.33
600.318,5470.33
600.814,5553.6
601.311,5554.53
601.807,5481.37
602.304,5503.1
602.8,5583.97
603.296,5488.73
603.792,5584.57
604.288,5449.27
604.784,5485.77
605.28,5481.57
605.776,5461.63
606.272,5526.63
606.767,5471.87
607.263,5493.03
607.759,5501.63
608.254,5483.47
608.749,5466.67
609.245,5463.2
609.74,5448.7
610.235,5483.97
610.73,5445.4
611.225,5448.2
611.72,5451.13
612.215,5423.17
612.71,5471.4
613.204,5383.33
613.699,5402.33
614.194,5530.27
614.688,5494.6
615.182,5443.1
615.677,5434.37
616.171,5445.93
616.665,5371.67
617.159,5484.3
617.653,5450.5
618.147,5408.77
618.641,5474.33
619.135,5406.77
619.628,5410.83
620.122,5543.87
620.615,5472.1
621.109,5372.87
621.602,5333.17
622.095,5292.8
622.589,5341.6
623.082,5331.7
623.575,5403.33
624.068,5409.63
624.561,5340.4
625.053,5293.23
625.546,5265.5
626.039,5272.97
626.531,5320.97
627.024,5238.93
627.516,5239.4
628.008,5256.0
628.501,5339.53
628.993,5269.43
629.485,5303.6
629.977,5221.93
630.469,5283.7
630.96,5420.37
631.452,5381.0
631.944,5194.03
632.435,5206.27
632.927,5198.0
633.418,5225.3
633.91,5189.1
634.401,5111.57
634.892,5130.97
635.383,4997.03
635.874,4961.53
636.365,4994.27
636.856,5003.43
637.346,4955.8
637.837,4879.23
638.327,4867.5
638.818,4885.07
639.308,4922.83
639.799,4885.83
640.289,4903.97
640.779,4795.1
641.269,4719.33
641.759,4642.17
642.249,4674.2
642.738,4747.5
643.228,4634.27
643.718,4626.73
644.207,4712.67
644.697,4637.33
645.186,4608.33
645.675,4550.3
646.164,4645.77
646.653,4553.47
647.142,4598.3
647.631,4557.83
648.12,4539.8
648.609,4487.5
649.098,4397.77
649.586,4441.27
650.075,4438.37
650.563,4471.6
651.051,4474.87
651.539,4377.2
652.027,4387.27
652.515,4262.17
653.003,4269.4
653.491,4171.27
653.979,4252.8
654.467,4177.5
654.954,4129.3
655.442,4087.5
655.929,4057.27
656.416,4057.17
656.904,3963.0
657.391,3978.6
657.878,3912.27
658.365,3915.87
658.851,3881.57
659.338,3807.0
659.825,3914.07
660.311,3895.57
660.798,3806.03
661.041,3749.17