File: spectra/VLFR_08-PLA_bio_Raman_f77e1032.csv
nm,Intensity
526.495,829.467
527.042,829.067
527.589,829.367
528.136,829.533
528.682,829.867
529.229,829.267
529.775,829.9
530.321,829.1
530.867,828.433
531.413,829.3
531.959,832.9
532.505,829.533
533.051,830.333
533.596,829.567
534.141,981.733
534.687,947.0
535.232,918.467
535.777,906.033
536.321,900.433
536.866,899.067
537.41,894.2
537.955,892.9
538.499,884.167
539.043,882.633
539.587,879.333
540.131,874.367
540.675,888.6
541.219,889.4
541.762,882.0
542.305,878.367
542.849,878.6
543.392,897.433
543.935,903.567
544.478,887.433
545.02,877.433
545.563,874.733
546.106,876.367
546.648,874.233
547.19,876.3
547.732,877.733
548.274,878.067
548.816,877.533
549.358,879.5
549.9,878.8
550.441,880.133
550.983,883.4
551.524,883.067
552.065,887.967
552.606,885.9
553.147,886.267
553.688,885.167
554.229,891.4
554.769,885.067
555.31,882.2
555.85,878.167
556.391,881.333
556.931,881.8
557.471,893.833
558.011,979.367
558.551,906.433
559.09,892.0
559.63,891.233
560.169,885.467
560.709,886.133
561.248,884.367
561.787,881.067
562.326,884.533
562.865,890.733
563.404,915.3
563.943,899.7
564.481,891.867
565.02,908.833
565.558,905.1
566.096,928.3
566.634,902.8
567.172,887.433
567.71,891.633
568.248,894.667
568.786,895.167
569.324,894.8
569.861,893.033
570.399,894.1
570.936,893.833
571.473,904.7
572.01,907.533
572.547,904.033
573.084,903.2
573.621,906.733
574.158,903.567
574.694,911.467
575.231,897.667
575.767,897.467
576.303,907.433
576.84,950.267
577.376,911.833
577.912,897.7
578.448,895.3
578.984,896.367
579.519,896.367
580.055,895.533
580.59,895.233
581.126,894.7
581.661,897.3
582.196,896.633
582.731,897.6
583.267,897.133
583.801,898.533
584.336,897.433
584.871,898.533
585.406,896.567
585.94,899.033
586.475,906.867
587.009,931.533
587.543,951.333
588.078,913.9
588.612,899.9
589.146,897.267
589.68,899.733
590.214,897.233
590.747,897.167
591.281,897.033
591.815,898.633
592.348,897.133
592.881,898.667
593.415,896.733
593.948,895.433
594.481,896.567
595.014,897.133
595.547,897.067
596.08,896.8
596.613,896.2
597.146,897.833
597.678,896.633
598.211,898.733
598.743,899.567
599.276,896.667
599.808,897.967
600.34,898.133
600.872,896.7
601.404,898.0
601.936,898.167
602.468,895.767
603.0,897.4
603.532,897.367
604.064,898.067
604.595,896.3
605.127,895.0
605.658,893.067
606.189,894.967
606.721,893.7
607.252,894.367
607.783,894.567
608.314,894.7
608.845,896.133
609.376,894.533
609.907,895.0
610.438,893.767
610.968,894.367
611.499,894.433
612.029,895.1
612.56,896.467
613.09,896.2
613.621,897.533
614.151,897.2
614.681,897.967
615.211,897.6
615.741,894.7
616.271,896.5
616.801,897.767
617.331,895.933
617.861,897.833
618.39,898.067
618.92,894.167
619.45,897.233
619.979,898.4
620.509,896.733
621.038,893.8
621.567,896.0
622.096,895.467
622.626,901.467
623.155,903.3
623.684,903.0
624.213,899.5
624.742,897.5
625.271,897.5
625.799,896.667
626.328,896.033
626.857,896.567
627.386,895.967
627.914,902.833
628.443,946.967
628.971,936.467
629.5,934.333
630.028,938.2
630.556,974.633
631.084,1213.0
631.613,1057.5
632.141,975.8
632.669,965.867
633.197,1021.4
633.725,999.133
634.253,939.433
634.781,907.0
635.308,897.267
635.836,895.367
636.364,894.067
636.891,892.733
637.419,889.167
637.947,887.733
638.474,888.933
639.002,888.933
639.529,887.833
640.056,889.933
640.584,888.033
641.111,889.4
641.638,887.7
642.165,888.567
642.692,888.7
643.219,886.533
643.746,884.667
644.273,882.467
644.8,883.433
645.327,881.533
645.854,882.433
646.381,883.467
646.908,881.667
647.434,881.4
647.961,881.1
648.488,880.867
649.014,880.167
649.541,880.8
650.067,878.9
650.594,879.967
651.12,880.0
651.646,878.733
652.173,880.233
652.699,879.067
653.225,880.433
653.752,879.0
654.278,878.667
654.804,879.933
655.33,876.133
655.856,876.733
656.382,878.0
656.908,878.233
657.434,879.6
657.96,877.0
658.486,876.933
659.012,876.3
659.538,877.4
660.064,874.467
660.589,875.7
661.115,875.533
661.641,874.633
662.166,872.933
662.692,874.167
663.086,873.567