File: spectra/VLFR_07-PET_nobio_Raman_a67ef11d.csv
nm,Intensity
791.75,14968.3
792.846,13957.0
793.942,13290.5
795.037,12989.8
796.133,12858.3
797.228,12799.5
798.324,12918.0
799.419,12913.8
800.514,12862.0
801.61,12830.5
802.705,12907.3
803.8,12562.0
804.894,12334.8
805.989,12479.4
807.084,12144.5
808.178,12208.5
809.273,11984.3
810.367,12000.2
811.461,11740.6
812.556,11897.3
813.65,11319.0
814.744,11622.5
815.837,11324.9
816.931,11233.2
818.025,11010.2
819.118,11058.2
820.212,10921.3
821.305,10599.1
822.398,10553.0
823.491,10517.5
824.585,10294.3
825.677,10600.9
826.77,10297.0
827.863,10105.6
828.956,10097.5
830.048,10004.7
831.14,9974.65
832.233,9774.25
833.325,9914.85
834.417,9558.5
835.509,9507.05
836.601,9619.55
837.692,9554.1
838.784,9469.45
839.876,9479.5
840.967,9971.75
842.058,9399.2
843.149,9358.7
844.24,9110.95
845.331,8790.2
846.422,8715.25
847.513,8640.7
848.604,8528.25
849.694,8516.6
850.784,8457.8
851.875,8415.5
852.965,8463.15
854.055,8360.0
855.145,8149.4
856.235,8078.15
857.324,8172.7
858.414,8223.0
859.503,8336.25
860.593,8012.85
861.682,7879.4
862.771,7791.95
863.86,7816.15
864.949,7902.25
866.038,7601.9
867.126,7573.85
868.215,7577.65
869.303,7533.4
870.391,7543.45
871.479,7733.75
872.567,7940.2
873.655,7607.3
874.743,7541.4
875.831,7384.4
876.918,7226.9
878.006,7195.7
879.093,7120.25
880.18,7125.65
881.267,7150.6
882.354,6983.75
883.441,6971.1
884.527,7022.95
885.614,6943.2
886.7,6771.55
887.786,6758.85
888.872,6687.7
889.958,6778.65
891.044,6657.8
892.13,6652.9
893.216,6519.35
894.301,6549.1
895.386,6381.1
896.472,6589.7
897.557,7212.45
898.642,7204.3
899.726,6455.15
900.811,6217.4
901.896,6146.9
902.98,6128.85
904.064,6115.6
905.148,6073.65
906.232,6455.45
907.316,6657.1
908.4,6495.1
909.484,6024.2
910.567,5874.35
911.65,5766.0
912.734,5693.35
913.817,5639.5
914.9,5628.25
915.982,5561.85
917.065,5482.75
918.147,5489.45
919.23,5407.95
920.312,5397.8
921.394,5305.4
922.476,5279.5
923.558,5273.65
924.639,5178.75
925.721,5174.65
926.802,5097.3
927.884,5112.55
928.965,5012.0
930.046,4958.45
931.126,4940.65
932.207,4874.5
933.288,4854.9
934.368,4820.35
935.448,4764.25
936.528,4767.2
937.608,4715.65
938.688,4698.6
939.767,4648.05
940.847,4644.65
941.926,4597.1
943.005,4573.15
944.084,4542.25
945.163,4518.35
946.242,4484.95
947.321,4481.35
948.399,4451.5
949.477,4420.65
950.556,4401.55
951.634,4350.0
952.711,4343.95
953.789,4329.6
954.867,4302.35
955.944,4292.6
957.021,4266.65
958.098,4263.3
959.175,4246.55
960.252,4216.7
961.328,4195.7
962.405,4206.4
963.481,4173.8
964.557,4140.5
965.633,4150.1
966.709,4128.15
967.785,4114.05
968.86,4091.2
969.936,4084.55
971.011,4071.1
972.086,4052.85
973.161,4052.7
974.235,4045.7
975.31,4031.4
976.384,4005.85
977.459,4006.45
978.533,3992.5
979.607,3996.85
980.68,3966.15
981.754,3965.35
982.827,3963.8
983.901,3949.6
984.974,3949.5
986.047,3933.2
987.119,3927.0
988.192,3924.95
989.264,3909.85
990.337,3906.5
991.409,3893.1
992.481,3892.05
993.553,3881.25
994.624,3875.9
995.696,3867.25
996.767,3868.0
997.838,3859.05
998.909,3845.55
999.98,3847.75
1001.05,3843.0
1002.12,3839.1
1003.19,3837.2
1004.26,3822.4
1005.33,3818.85
1006.4,3813.85
1007.47,3811.45
1008.54,3799.9
1009.61,3803.7
1010.68,3800.95
1011.75,3797.6
1012.82,3791.55
1013.88,3790.15
1014.95,3790.2
1016.02,3785.2
1017.09,3782.55
1018.16,3775.7
1019.22,3775.95
1020.29,3775.15
1021.36,3786.4
1022.43,3781.9
1023.49,3775.3
1024.56,3770.95
1025.63,3760.75
1026.69,3759.05
1027.76,3751.35
1028.83,3747.0
1029.89,3745.7
1030.96,3742.4
1032.02,3742.6
1033.09,3745.25
1034.15,3749.55
1035.22,3747.45
1036.28,3742.4
1037.35,3736.05
1038.41,3731.75
1039.48,3729.75
1040.54,3728.2
1041.6,3726.4
1042.67,3724.35
1043.73,3723.45
1044.79,3723.4
1045.86,3719.9
1046.92,3719.0
1047.98,3718.05
1049.05,3719.8
1050.11,3717.75
1051.17,3716.9
1052.23,3717.45
1053.29,3716.75
1054.36,3716.25
1055.42,3715.65
1056.48,3713.9
1057.54,3713.25
1058.6,3711.85
1059.66,3713.65
1060.72,3712.55
1061.78,3712.3
1062.84,3713.85
1063.9,3713.0
1064.96,3711.3
1066.02,3710.65
1067.08,3712.0
1067.88,3710.7