File: spectra/VLFR_07-PET_bio_Raman_ce6691d9.csv
nm,Intensity
791.588,9991.4
792.685,9491.3
793.781,9218.4
794.878,9060.4
795.975,8963.2
797.071,9017.0
798.168,9005.8
799.264,9030.8
800.36,9023.0
801.456,9007.8
802.552,8983.4
803.648,8816.4
804.744,8780.1
805.84,8749.9
806.936,8611.9
808.031,8525.3
809.127,8445.0
810.222,8268.8
811.317,8301.4
812.412,8201.0
813.507,8083.9
814.602,8117.8
815.697,7955.6
816.792,7864.6
817.887,7843.4
818.981,7767.2
820.076,7799.1
821.17,7718.3
822.265,7683.5
823.359,7575.6
824.453,7634.8
825.547,7551.2
826.641,7578.5
827.735,7476.9
828.828,7407.7
829.922,7353.2
831.016,7316.2
832.109,7281.4
833.202,7193.9
834.295,7149.2
835.388,7037.1
836.481,7090.3
837.574,7037.2
838.667,7025.2
839.76,7014.8
840.852,7026.6
841.945,7067.8
843.037,6904.4
844.129,6782.1
845.221,6690.2
846.314,6602.0
847.405,6543.1
848.497,6447.4
849.589,6481.4
850.68,6378.6
851.772,6440.0
852.863,6397.6
853.955,6305.9
855.046,6293.3
856.137,6243.2
857.228,6220.2
858.318,6278.8
859.409,6289.0
860.5,6261.3
861.59,6190.0
862.681,6141.8
863.771,6109.5
864.861,6158.6
865.951,6011.5
867.041,6022.1
868.131,5999.1
869.22,5961.1
870.31,6023.5
871.399,5990.7
872.488,6144.0
873.578,6180.2
874.667,5999.6
875.756,5936.9
876.845,5842.2
877.933,5824.6
879.022,5769.6
880.11,5791.1
881.199,5768.6
882.287,5762.2
883.375,5693.1
884.463,5697.9
885.551,5684.4
886.639,5604.9
887.726,5598.4
888.814,5564.8
889.901,5565.4
890.988,5501.2
892.075,5480.4
893.162,5457.3
894.249,5410.1
895.336,5382.4
896.423,5318.9
897.509,5520.2
898.595,5692.3
899.682,5429.6
900.768,5220.9
901.854,5157.7
902.94,5157.2
904.025,5136.0
905.111,5096.3
906.196,5169.9
907.282,5276.6
908.367,5280.8
909.452,5090.9
910.537,4965.6
911.622,4892.0
912.706,4892.0
913.791,4847.7
914.875,4824.9
915.959,4765.4
917.044,4756.2
918.128,4736.1
919.211,4688.1
920.295,4680.8
921.379,4657.5
922.462,4616.3
923.546,4582.3
924.629,4563.0
925.712,4543.6
926.795,4533.1
927.877,4463.6
928.96,4460.0
930.043,4434.7
931.125,4421.5
932.207,4384.5
933.289,4363.9
934.371,4365.4
935.453,4332.2
936.535,4306.3
937.616,4294.8
938.697,4279.5
939.779,4262.4
940.86,4256.4
941.941,4231.8
943.022,4211.4
944.102,4194.6
945.183,4176.5
946.263,4167.8
947.343,4155.0
948.423,4152.5
949.503,4121.7
950.583,4106.8
951.663,4114.0
952.742,4087.8
953.822,4086.3
954.901,4074.9
955.98,4064.8
957.059,4052.9
958.137,4044.4
959.216,4042.2
960.294,4034.1
961.373,4013.5
962.451,4005.3
963.529,3995.8
964.607,3995.7
965.684,3982.1
966.762,3972.3
967.839,3977.4
968.917,3972.9
969.994,3957.8
971.071,3950.6
972.147,3944.5
973.224,3939.1
974.3,3928.1
975.377,3920.9
976.453,3920.5
977.529,3916.2
978.605,3912.3
979.68,3895.8
980.756,3901.0
981.831,3894.8
982.907,3890.3
983.982,3882.2
985.057,3876.4
986.131,3869.9
987.206,3871.5
988.28,3867.9
989.355,3872.4
990.429,3863.5
991.503,3853.3
992.576,3847.1
993.65,3846.8
994.723,3844.6
995.797,3837.4
996.87,3835.5
997.943,3830.7
999.016,3826.2
1000.09,3824.5
1001.16,3823.3
1002.23,3823.9
1003.31,3816.9
1004.38,3811.1
1005.45,3810.8
1006.52,3805.8
1007.59,3803.3
1008.66,3795.2
1009.73,3796.4
1010.81,3794.5
1011.88,3795.8
1012.95,3792.4
1014.02,3788.9
1015.09,3789.7
1016.16,3789.6
1017.23,3785.8
1018.3,3786.2
1019.37,3779.3
1020.44,3779.7
1021.51,3784.4
1022.58,3781.2
1023.64,3779.8
1024.71,3778.7
1025.78,3774.5
1026.85,3765.3
1027.92,3770.0
1028.99,3765.5
1030.05,3765.7
1031.12,3765.2
1032.19,3762.3
1033.26,3762.9
1034.32,3763.8
1035.39,3762.6
1036.46,3764.0
1037.52,3761.9
1038.59,3757.3
1039.66,3756.2
1040.72,3756.1
1041.79,3755.6
1042.86,3755.6
1043.92,3753.5
1044.99,3752.7
1046.05,3752.3
1047.12,3751.9
1048.18,3750.8
1049.25,3750.5
1050.31,3750.1
1051.37,3747.4
1052.44,3748.6
1053.5,3749.9
1054.57,3748.8
1055.63,3748.5
1056.69,3747.7
1057.76,3748.8
1058.82,3748.8
1059.88,3747.6
1060.95,3747.4
1062.01,3747.6
1063.07,3747.4
1064.13,3747.4
1065.19,3746.6
1066.26,3746.6
1067.32,3743.3
1068.11,3744.8