File: spectra/VLFR_08-PLA_bio_Raman_1f8536ac.csv
nm,Intensity
526.495,826.1
527.042,827.8
527.589,828.2
528.136,827.5
528.682,826.4
529.229,827.9
529.775,828.4
530.321,826.1
530.867,826.5
531.413,828.0
531.959,834.2
532.505,829.3
533.051,827.1
533.596,830.6
534.141,1064.7
534.687,1012.6
535.232,970.7
535.777,940.7
536.321,933.4
536.866,938.5
537.41,925.3
537.955,928.0
538.499,907.0
539.043,906.4
539.587,906.5
540.131,893.8
540.675,913.3
541.219,922.0
541.762,903.4
542.305,901.2
542.849,903.9
543.392,929.3
543.935,943.2
544.478,911.7
545.02,899.6
545.563,894.2
546.106,894.0
546.648,894.9
547.19,899.3
547.732,901.2
548.274,898.2
548.816,900.0
549.358,901.2
549.9,899.8
550.441,902.7
550.983,907.1
551.524,907.0
552.065,912.1
552.606,912.3
553.147,916.4
553.688,911.0
554.229,918.8
554.769,907.4
555.31,903.3
555.85,897.9
556.391,899.5
556.931,906.6
557.471,922.8
558.011,1064.3
558.551,944.8
559.09,921.8
559.63,917.6
560.169,912.7
560.709,910.4
561.248,904.7
561.787,907.6
562.326,906.8
562.865,915.9
563.404,958.7
563.943,928.5
564.481,919.0
565.02,948.5
565.558,941.8
566.096,979.2
566.634,936.9
567.172,911.6
567.71,919.6
568.248,920.4
568.786,922.0
569.324,923.4
569.861,915.9
570.399,921.6
570.936,922.1
571.473,945.1
572.01,939.8
572.547,932.4
573.084,936.3
573.621,942.4
574.158,938.6
574.694,947.8
575.231,922.3
575.767,927.6
576.303,943.6
576.84,1016.1
577.376,948.4
577.912,929.9
578.448,926.6
578.984,920.5
579.519,924.6
580.055,924.4
580.59,921.1
581.126,925.7
581.661,924.4
582.196,921.7
582.731,925.4
583.267,925.4
583.801,926.8
584.336,927.1
584.871,932.0
585.406,929.3
585.94,930.1
586.475,944.5
587.009,990.1
587.543,1013.6
588.078,956.6
588.612,933.3
589.146,925.6
589.68,928.1
590.214,926.3
590.747,925.5
591.281,930.0
591.815,927.7
592.348,928.4
592.881,924.7
593.415,926.0
593.948,927.9
594.481,922.7
595.014,928.7
595.547,929.1
596.08,928.0
596.613,926.4
597.146,929.5
597.678,926.8
598.211,931.1
598.743,929.3
599.276,933.6
599.808,931.7
600.34,931.6
600.872,926.4
601.404,932.3
601.936,931.2
602.468,927.2
603.0,931.6
603.532,929.9
604.064,928.0
604.595,928.2
605.127,929.2
605.658,923.7
606.189,925.0
606.721,923.9
607.252,929.7
607.783,927.8
608.314,930.6
608.845,929.3
609.376,930.9
609.907,929.8
610.438,927.7
610.968,926.8
611.499,927.9
612.029,926.5
612.56,925.0
613.09,934.3
613.621,934.8
614.151,934.5
614.681,932.9
615.211,930.7
615.741,932.0
616.271,930.8
616.801,932.8
617.331,933.2
617.861,933.7
618.39,930.1
618.92,931.3
619.45,928.6
619.979,928.9
620.509,930.0
621.038,932.6
621.567,931.7
622.096,933.6
622.626,946.2
623.155,946.5
623.684,944.1
624.213,937.2
624.742,933.1
625.271,929.0
625.799,929.5
626.328,932.0
626.857,935.8
627.386,934.5
627.914,946.7
628.443,1025.2
628.971,1008.3
629.5,1004.9
630.028,1007.7
630.556,1082.7
631.084,1544.1
631.613,1248.3
632.141,1088.5
632.669,1061.8
633.197,1171.4
633.725,1127.5
634.253,1014.3
634.781,956.3
635.308,937.3
635.836,929.5
636.364,929.7
636.891,922.3
637.419,926.0
637.947,918.2
638.474,921.8
639.002,922.8
639.529,919.7
640.056,920.6
640.584,918.9
641.111,920.0
641.638,924.7
642.165,923.8
642.692,922.4
643.219,915.7
643.746,911.6
644.273,914.2
644.8,908.8
645.327,912.5
645.854,908.3
646.381,909.6
646.908,912.5
647.434,909.8
647.961,909.2
648.488,908.3
649.014,913.4
649.541,907.7
650.067,910.0
650.594,906.6
651.12,903.6
651.646,906.8
652.173,905.8
652.699,906.6
653.225,904.4
653.752,903.9
654.278,905.7
654.804,903.4
655.33,901.4
655.856,901.1
656.382,904.7
656.908,903.0
657.434,907.9
657.96,905.7
658.486,903.5
659.012,903.3
659.538,901.5
660.064,901.1
660.589,902.9
661.115,897.9
661.641,898.3
662.166,899.3
662.692,896.7
663.086,899.9