File: spectra/VLFR_02-HDPE_bio_Raman_9f3aff18.csv
nm,Intensity
528.629,1852.7
529.134,1852.85
529.639,1851.4
530.145,1853.4
530.65,1852.45
531.155,1853.85
531.66,1875.1
532.165,2573.5
532.67,1853.75
533.175,1852.3
533.68,1865.15
534.185,1900.75
534.69,1896.85
535.195,1893.2
535.699,1882.6
536.204,1881.85
536.709,1880.0
537.213,1877.05
537.718,1878.8
538.222,1877.2
538.727,1877.45
539.231,1874.25
539.735,1876.2
540.239,1877.95
540.744,1873.6
541.248,1872.35
541.752,1877.15
542.256,1876.75
542.76,1875.85
543.264,1875.9
543.768,1873.55
544.271,1877.75
544.775,1875.9
545.279,1876.4
545.783,1874.6
546.286,1876.85
546.79,1876.5
547.293,1876.25
547.797,1879.2
548.3,1876.45
548.803,1881.35
549.306,1878.25
549.81,1878.15
550.313,1878.4
550.816,1880.35
551.319,1878.35
551.822,1880.05
552.325,1882.05
552.828,1879.25
553.33,1881.0
553.833,1879.6
554.336,1880.35
554.838,1881.35
555.341,1884.2
555.843,1883.45
556.346,1883.0
556.848,1885.15
557.35,1885.95
557.853,1886.2
558.355,1887.05
558.857,1887.45
559.359,1892.6
559.861,1887.45
560.363,1888.25
560.865,1887.5
561.367,1888.3
561.869,1886.35
562.37,1891.35
562.872,1891.3
563.374,1897.2
563.875,1968.65
564.376,1915.35
564.878,1904.1
565.379,1904.6
565.881,1963.8
566.382,1964.5
566.883,1897.8
567.384,1902.05
567.885,1896.5
568.386,1895.15
568.887,1895.3
569.388,1896.8
569.888,1899.9
570.389,1899.75
570.89,1901.5
571.39,2033.65
571.891,1923.55
572.391,1905.05
572.892,1895.8
573.392,1898.95
573.892,1908.9
574.393,1897.6
574.893,1899.75
575.393,1973.9
575.893,1957.25
576.393,1986.85
576.893,1960.95
577.392,1920.95
577.892,1901.1
578.392,1895.25
578.891,1896.9
579.391,1896.25
579.89,1898.3
580.39,1896.85
580.889,1899.05
581.388,1897.9
581.888,1898.85
582.387,1896.15
582.886,1891.6
583.385,1894.15
583.884,1895.1
584.383,1896.6
584.881,1892.65
585.38,1893.55
585.879,1893.4
586.377,1894.45
586.876,1893.25
587.374,1894.1
587.873,1894.35
588.371,1893.65
588.869,1895.9
589.368,1894.7
589.866,1894.05
590.364,1895.3
590.862,1894.0
591.36,1896.35
591.857,1892.25
592.355,1899.8
592.853,1895.05
593.35,1897.1
593.848,1894.1
594.345,1898.0
594.843,1893.95
595.34,1901.0
595.837,1900.95
596.335,1897.65
596.832,1894.45
597.329,1898.8
597.826,1898.75
598.323,1899.65
598.819,1900.5
599.316,1901.7
599.813,1902.6
600.309,1901.2
600.806,1900.45
601.302,1899.75
601.799,1903.6
602.295,1904.8
602.791,1900.15
603.288,1900.2
603.784,1900.2
604.28,1897.0
604.776,1899.05
605.272,1894.85
605.767,1898.55
606.263,1895.05
606.759,1897.25
607.254,1897.3
607.75,1897.65
608.245,1898.2
608.74,1897.25
609.236,1895.15
609.731,1894.3
610.226,1894.85
610.721,1901.35
611.216,1899.15
611.711,1900.25
612.206,1896.55
612.7,1896.8
613.195,1893.6
613.69,1895.0
614.184,1892.35
614.679,1896.3
615.173,1894.6
615.667,1896.25
616.161,1895.35
616.656,1895.2
617.15,1903.4
617.644,1899.25
618.137,1902.6
618.631,1901.85
619.125,1902.25
619.619,1903.8
620.112,1904.6
620.606,1909.55
621.099,1908.4
621.592,1928.6
622.086,1942.9
622.579,1930.35
623.072,1911.45
623.565,1905.2
624.058,1906.45
624.551,1906.15
625.043,1905.65
625.536,1910.95
626.029,1931.45
626.521,2033.6
627.014,2513.75
627.506,2425.8
627.998,2304.25
628.49,2563.2
628.983,2269.8
629.475,2198.2
629.966,2100.55
630.458,2099.5
630.95,1987.95
631.442,1928.65
631.933,1917.95
632.425,1908.2
632.916,1905.65
633.408,1900.35
633.899,1898.45
634.39,1891.45
634.881,1893.8
635.372,1889.3
635.863,1889.75
636.354,1892.1
636.845,1889.35
637.336,1886.1
637.826,1882.9
638.317,1886.5
638.807,1884.75
639.298,1886.25
639.788,1883.9
640.278,1885.25
640.768,1882.5
641.258,1884.3
641.748,1883.05
642.238,1881.5
642.728,1882.5
643.217,1880.25
643.707,1880.55
644.197,1883.95
644.686,1883.15
645.175,1880.75
645.664,1880.2
646.154,1880.9
646.643,1877.6
647.132,1877.95
647.621,1880.7
648.109,1883.15
648.598,1883.25
649.087,1878.55
649.575,1879.75
650.064,1879.05
650.552,1880.9
651.04,1877.45
651.528,1875.6
652.017,1877.75
652.505,1877.2
652.992,1878.65
653.48,1877.55
653.968,1874.5
654.456,1879.2
654.943,1879.35
655.431,1875.35
655.918,1876.55
656.405,1874.45
656.893,1873.5
657.38,1877.05
657.867,1874.1
658.354,1876.7
658.84,1874.55
659.327,1871.65
659.814,1873.85
660.3,1872.65
660.787,1873.05
661.03,1873.85