File: spectra/VLFR_01-LDPE_bio_Raman_19c45736.csv
nm,Intensity
528.626,1864.5
529.132,1865.8
529.637,1863.0
530.143,1865.7
530.648,1864.8
531.153,1867.5
531.658,1908.0
532.164,4360.9
532.669,1866.8
533.174,1865.9
533.679,2000.3
534.184,2450.9
534.689,2440.9
535.194,2384.9
535.699,2361.2
536.203,2274.2
536.708,2278.5
537.213,2269.9
537.717,2304.1
538.222,2267.4
538.726,2271.7
539.231,2237.0
539.735,2224.0
540.239,2246.2
540.744,2232.4
541.248,2247.2
541.752,2241.3
542.256,2228.6
542.76,2263.8
543.264,2227.0
543.768,2264.2
544.272,2245.9
544.776,2236.7
545.28,2247.9
545.784,2257.9
546.287,2240.8
546.791,2267.4
547.294,2258.5
547.798,2232.9
548.301,2272.9
548.805,2261.9
549.308,2271.8
549.811,2243.8
550.315,2254.5
550.818,2274.5
551.321,2271.0
551.824,2287.4
552.327,2265.7
552.83,2255.4
553.333,2300.1
553.835,2287.9
554.338,2293.4
554.841,2321.3
555.343,2321.0
555.846,2327.2
556.349,2332.4
556.851,2352.8
557.353,2352.7
557.856,2373.2
558.358,2384.6
558.86,2335.9
559.362,2359.9
559.864,2340.7
560.366,2357.8
560.868,2386.6
561.37,2369.4
561.872,2410.4
562.374,2400.4
562.876,2460.0
563.377,2469.0
563.879,2772.9
564.38,2611.5
564.882,2566.7
565.383,2509.6
565.885,2660.6
566.386,2723.7
566.887,2536.6
567.388,2604.0
567.889,2556.9
568.391,2538.7
568.892,2579.8
569.392,2592.6
569.893,2634.9
570.394,2674.6
570.895,2706.7
571.395,3307.6
571.896,3042.1
572.397,2911.1
572.897,2891.1
573.397,2947.1
573.898,3009.7
574.398,3039.1
574.898,3145.7
575.398,3396.4
575.898,3765.1
576.398,4452.9
576.898,4281.0
577.398,4129.0
577.898,4015.0
578.398,4122.0
578.897,4305.5
579.397,4516.2
579.896,4855.8
580.396,5064.2
580.895,5191.6
581.395,5464.6
581.894,5644.1
582.393,5977.9
582.892,6037.3
583.391,6450.9
583.89,6483.0
584.389,6636.4
584.888,6706.3
585.387,6902.4
585.886,7145.5
586.384,7157.7
586.883,7464.3
587.381,7489.3
587.88,7862.1
588.378,7886.8
588.876,8166.0
589.375,8306.6
589.873,8490.9
590.371,8620.1
590.869,8995.1
591.367,9198.1
591.865,9138.4
592.363,9335.4
592.86,9340.0
593.358,9313.5
593.856,9411.4
594.353,9334.3
594.851,9465.5
595.348,9606.8
595.845,9937.0
596.342,9953.6
596.84,10142.5
597.337,10305.5
597.834,10296.9
598.331,10526.8
598.828,10714.9
599.324,10783.3
599.821,11054.3
600.318,10902.9
600.814,11219.1
601.311,10940.9
601.807,10981.9
602.304,10751.6
602.8,10775.5
603.296,10466.2
603.792,10320.2
604.288,9744.3
604.784,9574.3
605.28,9423.8
605.776,8970.0
606.272,8634.7
606.767,8578.3
607.263,8391.1
607.759,7978.7
608.254,7753.7
608.749,7564.3
609.245,7330.5
609.74,7171.8
610.235,7024.0
610.73,6901.2
611.225,6846.8
611.72,6695.5
612.215,6421.0
612.71,6577.5
613.204,6470.6
613.699,6122.3
614.194,6159.2
614.688,5994.7
615.182,6003.2
615.677,5818.7
616.171,5682.1
616.665,5652.7
617.159,5621.4
617.653,5499.9
618.147,5525.4
618.641,5303.4
619.135,5354.0
619.628,5364.3
620.122,5269.6
620.615,5324.2
621.109,5278.6
621.602,5282.5
622.095,5538.7
622.589,5561.3
623.082,5275.4
623.575,5171.0
624.068,5162.1
624.561,5005.2
625.053,5120.6
625.546,5247.9
626.039,5375.8
626.531,5827.8
627.024,9954.5
627.516,9911.9
628.008,8557.1
628.501,11827.1
628.993,9114.0
629.485,8268.6
629.977,7515.8
630.469,7204.9
630.96,6360.3
631.452,5732.8
631.944,5598.0
632.435,5493.3
632.927,5473.7
633.418,5545.7
633.91,5511.3
634.401,5436.3
634.892,5655.3
635.383,5498.9
635.874,5475.9
636.365,5602.3
636.856,5417.0
637.346,5515.0
637.837,5604.1
638.327,5584.7
638.818,5560.3
639.308,5566.6
639.799,5615.2
640.289,5681.3
640.779,5652.6
641.269,5626.4
641.759,5653.4
642.249,5607.0
642.738,5626.4
643.228,5748.0
643.718,5648.1
644.207,5564.9
644.697,5599.4
645.186,5753.1
645.675,5585.9
646.164,5545.6
646.653,5559.3
647.142,5483.8
647.631,5420.7
648.12,5444.6
648.609,5378.5
649.098,5503.6
649.586,5303.4
650.075,5293.5
650.563,5287.8
651.051,5316.1
651.539,5214.2
652.027,5106.0
652.515,5162.8
653.003,5199.6
653.491,4962.7
653.979,5024.7
654.467,4969.4
654.954,4909.2
655.442,4787.5
655.929,4872.4
656.416,4724.8
656.904,4651.8
657.391,4629.6
657.878,4478.7
658.365,4346.4
658.851,4275.2
659.338,4264.5
659.825,4168.1
660.311,4051.1
660.798,3985.4
661.041,4028.2