File: spectra/VLFR_07-PET_bio_Raman_71e31127.csv
nm,Intensity
791.75,11514.0
792.846,10890.8
793.942,10612.3
795.037,10587.8
796.133,10446.0
797.228,10500.0
798.324,10466.2
799.419,10386.1
800.514,10345.7
801.61,10286.5
802.705,10214.0
803.8,10143.9
804.894,9994.8
805.989,9928.8
807.084,9817.0
808.178,9820.65
809.273,9652.05
810.367,9653.4
811.461,9634.5
812.556,9491.95
813.65,9458.2
814.744,9217.5
815.837,9350.05
816.931,9095.7
818.025,9139.85
819.118,8901.65
820.212,8971.5
821.305,8955.75
822.398,8802.4
823.491,8708.05
824.585,8644.25
825.677,8816.6
826.77,8494.95
827.863,8423.65
828.956,8322.6
830.048,8254.2
831.14,8257.2
832.233,8142.8
833.325,8051.5
834.417,7938.6
835.509,7919.1
836.601,7888.55
837.692,7960.55
838.784,7858.95
839.876,7741.05
840.967,7949.65
842.058,7848.8
843.149,7645.35
844.24,7588.35
845.331,7387.0
846.422,7463.05
847.513,7279.2
848.604,7252.3
849.694,7293.55
850.784,7189.1
851.875,7149.7
852.965,7206.25
854.055,7129.1
855.145,7007.65
856.235,6962.2
857.324,6950.95
858.414,6957.05
859.503,7083.7
860.593,6982.55
861.682,6867.35
862.771,6807.55
863.86,6790.0
864.949,6813.6
866.038,6610.7
867.126,6630.05
868.215,6591.85
869.303,6605.35
870.391,6603.25
871.479,6741.95
872.567,6767.6
873.655,6764.15
874.743,6503.4
875.831,6484.6
876.918,6474.15
878.006,6389.8
879.093,6327.3
880.18,6251.1
881.267,6323.4
882.354,6288.1
883.441,6182.7
884.527,6161.4
885.614,6153.45
886.7,6115.5
887.786,6021.15
888.872,6036.55
889.958,5981.6
891.044,5931.75
892.13,5904.35
893.216,5907.7
894.301,5768.65
895.386,5773.7
896.472,5717.0
897.557,5862.4
898.642,6130.7
899.726,5731.35
900.811,5548.65
901.896,5519.95
902.98,5463.0
904.064,5459.15
905.148,5501.05
906.232,5504.65
907.316,5681.35
908.4,5589.3
909.484,5428.15
910.567,5258.7
911.65,5204.9
912.734,5184.3
913.817,5080.6
914.9,5070.55
915.982,5035.55
917.065,5013.7
918.147,4984.85
919.23,4980.3
920.312,4921.35
921.394,4893.8
922.476,4878.7
923.558,4824.5
924.639,4769.95
925.721,4767.95
926.802,4751.8
927.884,4700.95
928.965,4674.8
930.046,4628.4
931.126,4617.4
932.207,4567.55
933.288,4581.15
934.368,4506.9
935.448,4505.8
936.528,4482.45
937.608,4445.35
938.688,4452.35
939.767,4406.9
940.847,4402.25
941.926,4374.8
943.005,4382.7
944.084,4335.8
945.163,4315.8
946.242,4273.8
947.321,4298.4
948.399,4256.25
949.477,4267.1
950.556,4245.45
951.634,4211.8
952.711,4211.7
953.789,4177.5
954.867,4186.85
955.944,4139.95
957.021,4150.3
958.098,4141.1
959.175,4116.0
960.252,4087.25
961.328,4106.1
962.405,4090.2
963.481,4060.35
964.557,4062.4
965.633,4052.3
966.709,4049.55
967.785,4023.45
968.86,4028.95
969.936,4014.3
971.011,4006.0
972.086,3996.8
973.161,3978.65
974.235,3976.4
975.31,3969.45
976.384,3965.95
977.459,3951.6
978.533,3946.05
979.607,3945.7
980.68,3936.05
981.754,3924.65
982.827,3924.65
983.901,3923.05
984.974,3908.2
986.047,3901.6
987.119,3896.8
988.192,3899.0
989.264,3881.7
990.337,3883.4
991.409,3877.55
992.481,3870.4
993.553,3859.5
994.624,3862.55
995.696,3854.25
996.767,3854.55
997.838,3846.5
998.909,3846.6
999.98,3835.85
1001.05,3832.45
1002.12,3829.2
1003.19,3828.65
1004.26,3823.95
1005.33,3818.45
1006.4,3816.45
1007.47,3810.55
1008.54,3812.4
1009.61,3802.85
1010.68,3805.9
1011.75,3800.25
1012.82,3797.8
1013.88,3800.0
1014.95,3791.7
1016.02,3792.55
1017.09,3788.35
1018.16,3781.65
1019.22,3787.2
1020.29,3786.95
1021.36,3784.55
1022.43,3787.75
1023.49,3781.9
1024.56,3777.15
1025.63,3778.9
1026.69,3773.05
1027.76,3766.95
1028.83,3765.2
1029.89,3763.6
1030.96,3762.1
1032.02,3762.05
1033.09,3761.25
1034.15,3761.55
1035.22,3763.6
1036.28,3760.15
1037.35,3757.95
1038.41,3756.0
1039.48,3753.1
1040.54,3749.4
1041.6,3751.55
1042.67,3751.65
1043.73,3750.15
1044.79,3748.6
1045.86,3746.35
1046.92,3746.35
1047.98,3745.3
1049.05,3745.1
1050.11,3744.55
1051.17,3744.35
1052.23,3743.25
1053.29,3744.2
1054.36,3743.0
1055.42,3742.6
1056.48,3742.85
1057.54,3742.1
1058.6,3742.35
1059.66,3741.9
1060.72,3741.35
1061.78,3740.2
1062.84,3740.85
1063.9,3741.0
1064.96,3740.25
1066.02,3738.55
1067.08,3739.8
1067.88,3738.0