File: spectra/VLFR_07-PET_bio_Raman_4e30e4c9.csv
nm,Intensity
791.75,8059.4
792.846,7848.55
793.942,7759.55
795.037,7718.85
796.133,7677.45
797.228,7701.05
798.324,7632.85
799.419,7684.55
800.514,7619.1
801.61,7615.1
802.705,7497.1
803.8,7516.6
804.894,7460.65
805.989,7366.4
807.084,7362.7
808.178,7240.65
809.273,7305.1
810.367,7143.3
811.461,7172.65
812.556,7192.3
813.65,7112.95
814.744,7054.25
815.837,6951.4
816.931,6924.75
818.025,6865.25
819.118,6909.95
820.212,6865.15
821.305,6792.1
822.398,6732.45
823.491,6662.2
824.585,6726.6
825.677,6725.1
826.77,6636.65
827.863,6569.65
828.956,6465.75
830.048,6448.7
831.14,6405.45
832.233,6370.45
833.325,6362.85
834.417,6318.55
835.509,6273.65
836.601,6278.35
837.692,6312.0
838.784,6222.05
839.876,6170.3
840.967,6256.2
842.058,6234.4
843.149,6112.65
844.24,6062.25
845.331,6066.05
846.422,5955.7
847.513,5969.0
848.604,5934.15
849.694,5881.0
850.784,5880.95
851.875,5854.1
852.965,5886.15
854.055,5818.8
855.145,5802.6
856.235,5786.1
857.324,5806.95
858.414,5818.05
859.503,5817.8
860.593,5859.0
861.682,5718.45
862.771,5723.1
863.86,5687.4
864.949,5696.4
866.038,5593.3
867.126,5597.35
868.215,5613.75
869.303,5640.55
870.391,5590.55
871.479,5674.1
872.567,5712.3
873.655,5659.5
874.743,5619.45
875.831,5532.85
876.918,5434.9
878.006,5456.0
879.093,5432.15
880.18,5393.9
881.267,5417.55
882.354,5400.75
883.441,5359.55
884.527,5347.0
885.614,5318.8
886.7,5289.65
887.786,5206.2
888.872,5208.9
889.958,5188.65
891.044,5191.7
892.13,5172.1
893.216,5125.45
894.301,5049.6
895.386,5038.45
896.472,5032.6
897.557,5160.95
898.642,5234.1
899.726,5071.6
900.811,4923.75
901.896,4859.95
902.98,4912.15
904.064,4868.1
905.148,4851.25
906.232,4910.6
907.316,4998.1
908.4,5009.6
909.484,4822.25
910.567,4751.65
911.65,4695.95
912.734,4648.15
913.817,4660.65
914.9,4612.5
915.982,4594.8
917.065,4581.95
918.147,4561.75
919.23,4561.65
920.312,4529.15
921.394,4538.15
922.476,4492.15
923.558,4452.95
924.639,4441.7
925.721,4438.1
926.802,4395.4
927.884,4400.8
928.965,4362.55
930.046,4332.6
931.126,4326.6
932.207,4298.9
933.288,4291.55
934.368,4255.95
935.448,4261.3
936.528,4245.35
937.608,4226.0
938.688,4214.65
939.767,4209.0
940.847,4203.7
941.926,4168.75
943.005,4169.0
944.084,4146.45
945.163,4142.25
946.242,4125.9
947.321,4110.25
948.399,4104.6
949.477,4094.9
950.556,4091.2
951.634,4069.15
952.711,4057.7
953.789,4048.4
954.867,4051.05
955.944,4042.35
957.021,4031.55
958.098,4016.85
959.175,4013.6
960.252,4006.35
961.328,4001.65
962.405,3997.5
963.481,3977.95
964.557,3971.0
965.633,3977.45
966.709,3968.15
967.785,3959.0
968.86,3957.6
969.936,3944.7
971.011,3945.85
972.086,3928.15
973.161,3929.95
974.235,3917.8
975.31,3912.25
976.384,3909.7
977.459,3903.65
978.533,3905.0
979.607,3895.2
980.68,3895.6
981.754,3890.9
982.827,3884.1
983.901,3874.85
984.974,3876.9
986.047,3870.3
987.119,3870.35
988.192,3866.55
989.264,3860.15
990.337,3859.6
991.409,3849.7
992.481,3846.8
993.553,3840.2
994.624,3840.45
995.696,3836.7
996.767,3834.25
997.838,3827.75
998.909,3823.15
999.98,3826.6
1001.05,3817.05
1002.12,3817.1
1003.19,3813.8
1004.26,3809.3
1005.33,3812.3
1006.4,3806.4
1007.47,3803.65
1008.54,3795.7
1009.61,3794.8
1010.68,3793.4
1011.75,3794.75
1012.82,3792.45
1013.88,3790.3
1014.95,3789.0
1016.02,3785.75
1017.09,3785.6
1018.16,3781.8
1019.22,3778.9
1020.29,3781.6
1021.36,3783.55
1022.43,3780.45
1023.49,3778.9
1024.56,3776.7
1025.63,3775.35
1026.69,3771.35
1027.76,3768.7
1028.83,3765.95
1029.89,3764.25
1030.96,3764.7
1032.02,3764.8
1033.09,3764.45
1034.15,3764.65
1035.22,3763.35
1036.28,3764.6
1037.35,3761.1
1038.41,3756.7
1039.48,3756.55
1040.54,3755.95
1041.6,3752.9
1042.67,3753.55
1043.73,3750.15
1044.79,3751.3
1045.86,3751.45
1046.92,3751.95
1047.98,3749.35
1049.05,3749.8
1050.11,3749.75
1051.17,3749.5
1052.23,3749.65
1053.29,3748.5
1054.36,3749.1
1055.42,3748.45
1056.48,3747.95
1057.54,3748.6
1058.6,3746.75
1059.66,3746.55
1060.72,3746.8
1061.78,3747.55
1062.84,3746.3
1063.9,3746.1
1064.96,3744.8
1066.02,3745.6
1067.08,3744.55
1067.88,3744.55