File: spectra/VLFR_02-HDPE_bio_Raman_2e1fd8f6.csv
nm,Intensity
528.626,1862.9
529.132,1863.9
529.637,1862.5
530.143,1862.2
530.648,1862.3
531.153,1866.1
531.658,1889.7
532.164,3243.8
532.669,1863.0
533.174,1866.0
533.679,2008.3
534.184,2516.5
534.689,2486.4
535.194,2488.7
535.699,2365.3
536.203,2296.4
536.708,2295.1
537.213,2277.0
537.717,2313.1
538.222,2273.4
538.726,2262.6
539.231,2221.4
539.735,2221.3
540.239,2217.9
540.744,2215.6
541.248,2215.4
541.752,2233.9
542.256,2214.7
542.76,2222.1
543.264,2218.4
543.768,2257.2
544.272,2248.9
544.776,2230.5
545.28,2247.7
545.784,2242.3
546.287,2221.2
546.791,2246.0
547.294,2248.7
547.798,2229.8
548.301,2246.7
548.805,2241.4
549.308,2257.4
549.811,2253.0
550.315,2244.3
550.818,2246.9
551.321,2251.4
551.824,2274.5
552.327,2263.0
552.83,2249.3
553.333,2283.8
553.835,2305.8
554.338,2295.0
554.841,2316.6
555.343,2326.0
555.846,2311.1
556.349,2328.9
556.851,2330.1
557.353,2342.2
557.856,2382.1
558.358,2371.9
558.86,2337.0
559.362,2361.5
559.864,2362.1
560.366,2334.5
560.868,2375.0
561.37,2363.5
561.872,2369.2
562.374,2380.6
562.876,2407.1
563.377,2448.3
563.879,3125.6
564.38,2644.5
564.882,2580.8
565.383,2483.4
565.885,2891.7
566.386,3005.8
566.887,2464.8
567.388,2577.9
567.889,2458.9
568.391,2434.1
568.892,2431.0
569.392,2463.5
569.893,2467.4
570.394,2508.1
570.895,2557.0
571.395,3575.0
571.896,2849.9
572.397,2586.3
572.897,2519.1
573.397,2530.7
573.898,2584.7
574.398,2499.1
574.898,2526.3
575.398,3004.5
575.898,3042.0
576.398,3652.1
576.898,3289.9
577.398,2940.3
577.898,2692.8
578.398,2647.5
578.897,2665.1
579.397,2696.4
579.896,2686.9
580.396,2733.3
580.895,2772.4
581.395,2772.0
581.894,2778.6
582.393,2791.5
582.892,2833.6
583.391,2870.5
583.89,2885.0
584.389,2895.6
584.888,2931.3
585.387,2959.5
585.886,2952.1
586.384,2993.2
586.883,3070.8
587.381,3071.9
587.88,3139.0
588.378,3182.9
588.876,3166.0
589.375,3237.2
589.873,3284.8
590.371,3345.1
590.869,3382.2
591.367,3442.8
591.865,3479.3
592.363,3492.0
592.86,3518.6
593.358,3599.5
593.856,3556.5
594.353,3558.6
594.851,3544.5
595.348,3607.1
595.845,3638.3
596.342,3672.0
596.84,3624.6
597.337,3682.1
597.834,3688.6
598.331,3704.1
598.828,3682.9
599.324,3763.5
599.821,3753.3
600.318,3754.2
600.814,3759.2
601.311,3801.7
601.807,3805.1
602.304,3736.6
602.8,3751.3
603.296,3694.3
603.792,3672.4
604.288,3603.0
604.784,3587.6
605.28,3504.6
605.776,3470.6
606.272,3427.9
606.767,3403.5
607.263,3377.3
607.759,3284.2
608.254,3294.7
608.749,3283.9
609.245,3219.5
609.74,3213.1
610.235,3174.6
610.73,3172.2
611.225,3178.2
611.72,3112.0
612.215,3076.2
612.71,3050.8
613.204,3057.7
613.699,2994.3
614.194,2984.5
614.688,2983.7
615.182,2981.9
615.677,2937.5
616.171,2944.7
616.665,2933.5
617.159,3005.0
617.653,2958.8
618.147,2966.7
618.641,2971.3
619.135,2955.4
619.628,2975.8
620.122,2980.6
620.615,2967.5
621.109,2995.7
621.602,3093.1
622.095,3292.2
622.589,3196.4
623.082,2944.8
623.575,2900.4
624.068,2849.9
624.561,2886.2
625.053,2864.3
625.546,2896.7
626.039,3052.6
626.531,3901.1
627.024,8001.3
627.516,7635.5
628.008,6324.3
628.501,9807.3
628.993,6309.7
629.485,5467.7
629.977,4752.8
630.469,4478.9
630.96,3615.8
631.452,3017.8
631.944,2885.7
632.435,2853.9
632.927,2822.7
633.418,2774.6
633.91,2777.0
634.401,2747.6
634.892,2767.3
635.383,2722.0
635.874,2680.7
636.365,2727.4
636.856,2741.4
637.346,2719.9
637.837,2694.2
638.327,2698.9
638.818,2682.5
639.308,2633.4
639.799,2677.6
640.289,2717.0
640.779,2660.6
641.269,2708.2
641.759,2657.8
642.249,2731.8
642.738,2740.6
643.228,2696.7
643.718,2659.0
644.207,2740.0
644.697,2733.8
645.186,2691.5
645.675,2687.6
646.164,2682.9
646.653,2671.7
647.142,2656.9
647.631,2628.6
648.12,2670.0
648.609,2625.5
649.098,2608.9
649.586,2592.2
650.075,2586.0
650.563,2582.9
651.051,2642.6
651.539,2595.3
652.027,2572.1
652.515,2538.1
653.003,2531.0
653.491,2532.5
653.979,2526.9
654.467,2494.2
654.954,2517.9
655.442,2493.1
655.929,2467.3
656.416,2420.2
656.904,2452.8
657.391,2466.1
657.878,2423.8
658.365,2412.5
658.851,2385.4
659.338,2377.2
659.825,2375.8
660.311,2389.5
660.798,2373.9
661.041,2346.3