File: spectra/VLFR_07-PET_bio_Raman_f568e5bd.csv
nm,Intensity
791.377,12446.4
792.477,11400.9
793.576,10907.7
794.676,10502.5
795.775,10512.8
796.874,10440.0
797.973,10491.1
799.072,10536.1
800.171,10433.7
801.27,10275.8
802.368,10328.0
803.467,10138.3
804.565,9921.86
805.664,9887.2
806.762,9816.92
807.86,9693.0
808.958,9557.72
810.056,9444.84
811.153,9528.42
812.251,9362.08
813.349,9325.22
814.446,9153.8
815.543,9156.6
816.64,9056.86
817.737,8916.14
818.834,8858.38
819.931,8977.22
821.028,8706.1
822.125,8694.42
823.221,8553.3
824.317,8546.56
825.414,8632.38
826.51,8465.64
827.606,8318.3
828.702,8176.6
829.797,8150.0
830.893,8262.5
831.988,8013.62
833.084,8074.38
834.179,7919.56
835.274,7805.14
836.369,7763.0
837.464,7874.2
838.559,7866.04
839.654,7775.52
840.748,7888.0
841.843,8098.92
842.937,7749.82
844.031,7527.24
845.125,7400.56
846.219,7273.2
847.313,7277.52
848.407,7220.06
849.5,7132.12
850.593,7099.22
851.687,7209.56
852.78,7163.74
853.873,7044.18
854.966,7041.92
856.059,6911.28
857.151,6970.46
858.244,7010.64
859.336,7094.34
860.428,7121.14
861.52,6982.48
862.612,6800.6
863.704,6741.14
864.796,6785.64
865.888,6678.98
866.979,6654.98
868.07,6609.06
869.162,6608.86
870.253,6647.7
871.344,6699.84
872.434,6972.68
873.525,7023.38
874.615,6728.34
875.706,6523.48
876.796,6485.58
877.886,6410.54
878.976,6290.94
880.066,6246.22
881.156,6249.42
882.245,6273.34
883.335,6264.8
884.424,6172.58
885.513,6240.06
886.602,6130.44
887.691,6095.42
888.78,6010.2
889.868,5934.26
890.957,5955.36
892.045,6006.2
893.133,5853.38
894.221,5857.66
895.309,5787.72
896.397,5738.16
897.484,5970.98
898.571,6591.12
899.659,6110.9
900.746,5661.24
901.833,5574.44
902.92,5538.22
904.006,5478.7
905.093,5482.02
906.179,5560.88
907.266,6025.9
908.352,5962.12
909.438,5678.16
910.523,5341.42
911.609,5285.66
912.695,5203.86
913.78,5236.18
914.865,5157.08
915.95,5099.74
917.035,5074.16
918.12,5073.6
919.204,5042.56
920.289,4994.88
921.373,4967.28
922.457,4964.58
923.541,4916.48
924.625,4844.36
925.709,4836.74
926.792,4832.76
927.876,4727.84
928.959,4766.76
930.042,4712.78
931.125,4670.3
932.208,4654.28
933.29,4619.64
934.373,4596.12
935.455,4568.94
936.537,4521.56
937.619,4537.22
938.701,4492.8
939.782,4497.4
940.864,4469.54
941.945,4464.44
943.026,4423.78
944.107,4415.1
945.188,4405.34
946.269,4372.26
947.349,4347.6
948.43,4355.78
949.51,4317.22
950.59,4305.74
951.67,4305.62
952.75,4265.46
953.829,4270.08
954.909,4242.6
955.988,4219.46
957.067,4227.58
958.146,4214.82
959.224,4192.92
960.303,4190.04
961.381,4167.38
962.459,4146.78
963.537,4157.86
964.615,4127.84
965.693,4124.32
966.771,4110.54
967.848,4104.8
968.925,4089.88
970.002,4092.78
971.079,4081.76
972.156,4076.32
973.232,4058.16
974.309,4043.56
975.385,4038.78
976.461,4030.2
977.537,4024.34
978.612,4014.78
979.688,4012.04
980.763,3998.06
981.838,3990.0
982.913,3989.98
983.988,3979.38
985.063,3976.4
986.137,3968.46
987.211,3958.72
988.285,3958.62
989.359,3951.46
990.433,3942.6
991.506,3932.52
992.58,3929.22
993.653,3927.26
994.726,3917.7
995.799,3908.26
996.872,3909.46
997.944,3910.22
999.016,3899.44
1000.09,3892.04
1001.16,3889.9
1002.23,3885.46
1003.3,3881.34
1004.38,3877.24
1005.45,3873.08
1006.52,3870.48
1007.59,3864.12
1008.66,3863.76
1009.73,3860.24
1010.8,3854.64
1011.87,3850.66
1012.94,3849.04
1014.01,3848.66
1015.08,3846.7
1016.15,3846.12
1017.22,3839.98
1018.29,3837.66
1019.36,3837.56
1020.42,3833.88
1021.49,3839.18
1022.56,3844.54
1023.63,3843.84
1024.7,3834.86
1025.76,3827.54
1026.83,3825.04
1027.9,3820.66
1028.97,3814.98
1030.03,3812.12
1031.1,3809.24
1032.17,3809.46
1033.23,3809.3
1034.3,3814.3
1035.36,3815.46
1036.43,3812.9
1037.5,3807.38
1038.56,3802.36
1039.63,3799.72
1040.69,3797.58
1041.76,3796.52
1042.82,3795.3
1043.89,3793.74
1044.95,3793.46
1046.01,3792.34
1047.08,3791.02
1048.14,3790.64
1049.2,3790.02
1050.27,3789.96
1051.33,3789.42
1052.39,3788.92
1053.46,3788.26
1054.52,3787.9
1055.58,3787.94
1056.64,3787.42
1057.7,3785.64
1058.77,3786.18
1059.83,3786.78
1060.89,3785.72
1061.95,3785.04
1063.01,3785.46
1064.07,3784.86
1065.13,3784.54
1066.19,3783.96
1067.25,3783.94
1068.05,3782.62