File: spectra/VLFR_08-PLA_nobio_Raman_d2b73856.csv
nm,Intensity
526.486,831.1
527.033,831.8
527.579,828.3
528.126,831.6
528.672,830.2
529.219,830.3
529.765,830.4
530.311,830.3
530.857,829.8
531.403,829.1
531.948,833.1
532.494,831.2
533.039,830.4
533.585,831.8
534.13,1022.9
534.675,994.9
535.22,965.0
535.764,956.3
536.309,955.9
536.854,955.8
537.398,946.7
537.942,945.4
538.486,944.0
539.03,939.3
539.574,939.2
540.118,938.2
540.662,946.2
541.205,949.1
541.749,949.5
542.292,939.4
542.835,944.7
543.378,961.7
543.921,970.4
544.464,956.8
545.006,952.6
545.549,950.1
546.091,949.4
546.634,952.3
547.176,951.8
547.718,953.2
548.26,951.9
548.802,956.8
549.343,958.6
549.885,955.6
550.426,958.7
550.968,961.5
551.509,961.5
552.05,963.0
552.591,970.0
553.132,966.6
553.673,960.5
554.214,971.5
554.754,971.9
555.295,962.8
555.835,959.8
556.375,967.9
556.915,971.4
557.455,977.2
557.995,1058.7
558.535,994.5
559.075,976.2
559.614,975.1
560.154,973.2
560.693,967.5
561.232,969.8
561.772,974.4
562.311,973.2
562.85,984.8
563.388,1005.5
563.927,993.7
564.466,986.8
565.004,1001.8
565.543,999.8
566.081,1016.1
566.619,1001.9
567.157,985.8
567.695,989.0
568.233,986.1
568.771,990.6
569.309,998.4
569.846,992.7
570.384,988.8
570.921,989.9
571.458,1001.7
571.995,1005.4
572.532,1005.9
573.069,1007.0
573.606,1009.5
574.143,1007.9
574.68,1016.3
575.216,1000.7
575.753,1000.1
576.289,1016.4
576.825,1057.0
577.361,1022.6
577.897,1008.5
578.433,1009.2
578.969,1002.0
579.505,1002.6
580.041,1004.5
580.576,1002.5
581.112,1010.4
581.647,1010.6
582.183,1004.1
582.718,1006.8
583.253,1016.8
583.788,1007.3
584.323,1012.4
584.858,1011.0
585.392,1011.2
585.927,1011.3
586.462,1018.5
586.996,1054.7
587.53,1069.5
588.065,1034.6
588.599,1015.5
589.133,1012.0
589.667,1019.1
590.201,1010.4
590.735,1010.5
591.268,1010.9
591.802,1013.4
592.335,1014.8
592.869,1008.9
593.402,1005.2
593.936,1009.0
594.469,1012.6
595.002,1011.0
595.535,1008.5
596.068,1008.7
596.601,1006.5
597.133,1014.7
597.666,1004.6
598.199,1008.5
598.731,1012.9
599.264,1008.7
599.796,1008.8
600.328,1012.5
600.86,1012.0
601.393,1005.8
601.925,1001.8
602.457,1010.8
602.988,1010.5
603.52,1005.8
604.052,1005.7
604.583,1008.9
605.115,1003.4
605.646,996.4
606.178,998.8
606.709,1003.8
607.24,997.3
607.771,996.5
608.302,998.8
608.833,1003.5
609.364,1004.5
609.895,1000.1
610.426,1003.8
610.957,1002.0
611.487,998.1
612.018,1001.3
612.548,1007.8
613.078,1001.7
613.609,1007.6
614.139,1005.9
614.669,1007.9
615.199,1000.4
615.729,1005.7
616.259,1006.3
616.789,1002.0
617.319,1003.5
617.849,1005.5
618.378,998.7
618.908,1003.9
619.437,1003.8
619.967,998.7
620.496,1002.5
621.025,1002.0
621.555,1003.6
622.084,1006.6
622.613,1009.5
623.142,1013.6
623.671,1012.2
624.2,1005.5
624.729,1006.6
625.258,1002.8
625.786,995.4
626.315,1001.4
626.844,1004.4
627.372,1001.9
627.901,1007.3
628.429,1066.5
628.957,1057.8
629.486,1054.8
630.014,1058.1
630.542,1105.3
631.07,1420.5
631.598,1228.1
632.126,1109.3
632.654,1085.7
633.182,1172.6
633.71,1145.0
634.237,1054.9
634.765,1016.2
635.293,1000.5
635.82,993.1
636.348,992.9
636.875,991.1
637.403,987.1
637.93,985.1
638.458,986.7
638.985,984.6
639.512,982.3
640.039,984.4
640.566,985.3
641.093,978.0
641.62,984.0
642.147,979.5
642.674,982.2
643.201,977.4
643.728,976.3
644.255,977.2
644.781,972.8
645.308,971.0
645.835,965.4
646.361,974.4
646.888,973.6
647.414,967.1
647.941,964.5
648.467,966.5
648.993,967.1
649.52,964.8
650.046,965.2
650.572,965.0
651.098,962.1
651.625,964.3
652.151,963.1
652.677,961.1
653.203,961.6
653.729,956.9
654.255,960.0
654.78,958.2
655.306,957.0
655.832,956.5
656.358,955.6
656.884,952.7
657.409,961.7
657.935,954.1
658.461,954.9
658.986,956.3
659.512,951.7
660.037,956.0
660.563,952.9
661.088,948.1
661.614,951.2
662.139,946.2
662.664,950.0
663.058,948.3