File: spectra/VLFR_06-PET_nobio_Raman_86cc87f8.csv
nm,Intensity
526.5,829.8
527.047,828.3
527.594,830.7
528.14,828.7
528.687,828.3
529.233,829.2
529.779,828.2
530.325,829.4
530.871,830.2
531.417,830.0
531.962,833.1
532.508,830.3
533.053,830.9
533.599,838.8
534.144,1981.6
534.689,1665.1
535.234,1342.3
535.778,1143.7
536.323,1031.1
536.867,979.4
537.412,963.0
537.956,959.2
538.5,962.5
539.044,958.9
539.588,975.0
540.132,977.4
540.675,938.7
541.219,929.5
541.762,921.7
542.305,924.9
542.848,928.7
543.391,930.1
543.934,930.8
544.477,927.3
545.02,933.7
545.562,938.4
546.105,935.4
546.647,934.8
547.189,936.2
547.731,938.4
548.273,940.3
548.815,945.4
549.356,950.0
549.898,952.4
550.439,967.7
550.981,972.1
551.522,957.7
552.063,961.9
552.604,967.1
553.145,992.3
553.686,975.3
554.226,971.4
554.767,974.0
555.307,986.1
555.848,1034.3
556.388,1037.9
556.928,1050.4
557.468,1176.8
558.008,1078.1
558.547,1067.3
559.087,1031.1
559.626,1005.8
560.166,1007.8
560.705,1010.6
561.244,1016.5
561.783,1021.5
562.322,1038.9
562.861,1049.3
563.4,1053.1
563.939,1044.1
564.477,1046.4
565.015,1094.5
565.554,1154.5
566.092,1160.9
566.63,1073.2
567.168,1056.9
567.706,1136.0
568.244,1075.2
568.781,1062.3
569.319,1074.9
569.857,1098.5
570.394,1138.1
570.931,1268.6
571.468,1374.0
572.005,1225.6
572.542,1131.7
573.079,1108.6
573.616,1108.6
574.153,1135.8
574.689,1119.3
575.226,1155.9
575.762,1122.5
576.298,1155.5
576.834,1168.4
577.371,1144.5
577.907,1132.1
578.442,1135.3
578.978,1137.8
579.514,1138.7
580.049,1143.5
580.585,1155.0
581.12,1174.4
581.656,1247.9
582.191,2364.8
582.726,1228.3
583.261,1175.4
583.796,1177.8
584.331,1185.6
584.865,1197.1
585.4,1288.9
585.935,1786.8
586.469,1567.3
587.004,1243.8
587.538,1207.9
588.072,1196.4
588.606,1192.2
589.14,1199.1
589.674,1199.6
590.208,1200.2
590.742,1201.1
591.275,1202.5
591.809,1209.0
592.342,1198.3
592.876,1200.7
593.409,1205.6
593.942,1206.9
594.476,1209.0
595.009,1211.8
595.542,1218.4
596.075,1219.2
596.607,1224.7
597.14,1225.5
597.673,1232.5
598.205,1232.7
598.738,1237.3
599.27,1237.4
599.803,1227.9
600.335,1227.4
600.867,1232.8
601.399,1232.1
601.931,1234.7
602.463,1239.2
602.995,1241.5
603.527,1242.2
604.058,1240.7
604.59,1238.8
605.122,1241.6
605.653,1238.2
606.184,1219.2
606.716,1230.5
607.247,1236.0
607.778,1237.1
608.309,1241.1
608.84,1248.4
609.371,1246.3
609.902,1243.5
610.433,1250.0
610.964,1245.5
611.494,1233.8
612.025,1254.2
612.556,1249.2
613.086,1264.8
613.616,1264.0
614.147,1268.3
614.677,1280.1
615.207,1270.8
615.737,1268.9
616.267,1273.7
616.797,1272.8
617.327,1282.2
617.857,1289.1
618.387,1292.0
618.917,1298.3
619.446,1293.2
619.976,1288.4
620.505,1282.0
621.035,1288.9
621.564,1294.4
622.093,1292.1
622.623,1301.3
623.152,1304.4
623.681,1312.6
624.21,1314.1
624.739,1324.9
625.268,1328.5
625.797,1328.1
626.326,1334.2
626.855,1322.8
627.383,1339.4
627.912,1344.0
628.441,1372.5
628.969,1383.8
629.498,1392.5
630.026,1382.2
630.554,1383.1
631.083,1445.7
631.611,1585.2
632.139,1571.4
632.667,1499.4
633.195,1476.5
633.724,1459.6
634.252,1438.5
634.779,1428.9
635.307,1432.1
635.835,1498.1
636.363,1630.8
636.891,1634.4
637.418,1489.0
637.946,1462.6
638.474,1450.8
639.001,1458.6
639.529,1462.0
640.056,1465.4
640.583,1472.0
641.111,1485.5
641.638,1476.6
642.165,1494.4
642.692,1502.2
643.22,1485.3
643.747,1492.5
644.274,1496.1
644.801,1488.4
645.328,1493.8
645.854,1506.0
646.381,1506.0
646.908,1514.4
647.435,1510.1
647.962,1530.7
648.488,1524.5
649.015,1516.6
649.542,1517.7
650.068,1518.3
650.595,1524.3
651.121,1528.1
651.648,1525.6
652.174,1534.6
652.7,1534.0
653.227,1538.7
653.753,1545.8
654.279,1541.2
654.805,1548.1
655.331,1542.5
655.858,1544.3
656.384,1539.1
656.91,1547.1
657.436,1552.4
657.962,1537.4
658.488,1554.8
659.013,1555.4
659.539,1553.5
660.065,1559.4
660.591,1562.2
661.117,1537.4
661.642,1537.0
662.168,1536.1
662.694,1540.0
663.088,1544.1