File: spectra/VLFR_08-PLA_bio_Raman_ded8f176.csv
nm,Intensity
526.532,833.35
527.079,833.6
527.625,833.7
528.172,833.85
528.718,833.85
529.265,833.15
529.811,833.2
530.357,834.0
530.903,833.15
531.449,833.5
531.994,845.25
532.54,834.3
533.085,833.05
533.63,835.6
534.176,986.15
534.721,970.65
535.266,950.75
535.81,942.4
536.355,944.65
536.9,946.9
537.444,941.65
537.988,944.35
538.533,939.85
539.077,941.75
539.621,939.6
540.165,938.1
540.708,945.9
541.252,951.05
541.795,946.8
542.339,946.35
542.882,949.35
543.425,963.1
543.968,967.6
544.511,956.4
545.054,953.85
545.597,955.45
546.139,954.05
546.682,955.85
547.224,958.4
547.766,959.9
548.308,960.3
548.85,961.25
549.392,964.85
549.934,964.7
550.475,965.4
551.017,970.05
551.558,971.35
552.1,971.1
552.641,971.3
553.182,972.9
553.723,976.7
554.264,977.65
554.804,973.9
555.345,973.7
555.885,972.95
556.426,974.85
556.966,978.3
557.506,983.85
558.046,1050.85
558.586,990.75
559.126,987.0
559.665,985.85
560.205,983.8
560.745,985.85
561.284,982.6
561.823,981.7
562.362,982.15
562.901,993.1
563.44,1009.4
563.979,1002.85
564.518,997.8
565.056,1007.6
565.595,1004.6
566.133,1022.55
566.671,1003.6
567.21,998.25
567.748,1000.75
568.285,1001.6
568.823,1002.0
569.361,1003.9
569.899,1003.75
570.436,1004.85
570.974,1004.9
571.511,1012.2
572.048,1011.6
572.585,1012.9
573.122,1014.55
573.659,1015.9
574.196,1017.2
574.733,1027.85
575.269,1012.9
575.806,1008.15
576.342,1023.8
576.878,1056.2
577.414,1021.55
577.951,1016.0
578.486,1019.6
579.022,1015.85
579.558,1012.95
580.094,1012.75
580.629,1015.7
581.165,1015.85
581.7,1014.65
582.236,1018.1
582.771,1017.5
583.306,1018.05
583.841,1020.0
584.376,1020.7
584.911,1018.9
585.445,1022.15
585.98,1022.15
586.514,1032.3
587.049,1047.0
587.583,1055.35
588.117,1034.75
588.651,1025.3
589.186,1020.85
589.72,1022.25
590.253,1020.55
590.787,1020.95
591.321,1020.8
591.854,1021.25
592.388,1018.1
592.921,1018.0
593.455,1015.35
593.988,1016.35
594.521,1018.0
595.054,1020.15
595.587,1017.5
596.12,1017.05
596.653,1014.55
597.186,1021.45
597.718,1021.95
598.251,1021.15
598.783,1020.45
599.316,1017.35
599.848,1020.5
600.38,1016.4
600.912,1013.85
601.444,1020.3
601.976,1016.3
602.508,1012.25
603.04,1011.3
603.572,1015.35
604.103,1015.2
604.635,1009.3
605.167,1009.65
605.698,1004.55
606.229,1004.55
606.761,1005.9
607.292,1005.9
607.823,1005.55
608.354,1005.35
608.885,1005.35
609.416,1004.15
609.947,1002.6
610.477,1001.6
611.008,1002.3
611.539,999.8
612.069,1002.05
612.6,1002.0
613.13,1006.15
613.66,1005.7
614.19,1007.25
614.721,1004.9
615.251,1004.1
615.781,1000.4
616.311,1001.85
616.841,1002.4
617.37,1000.25
617.9,1002.2
618.43,997.5
618.96,999.8
619.489,1000.15
620.019,1003.75
620.548,996.75
621.077,995.15
621.607,994.65
622.136,996.65
622.665,1002.45
623.194,1007.75
623.723,1002.0
624.252,999.8
624.781,994.2
625.31,996.0
625.839,993.35
626.368,993.05
626.896,994.1
627.425,993.4
627.953,1000.55
628.482,1037.0
629.01,1028.6
629.539,1027.35
630.067,1029.8
630.596,1065.3
631.124,1291.3
631.652,1124.0
632.18,1056.9
632.708,1049.3
633.236,1108.25
633.764,1078.85
634.292,1015.25
634.82,992.55
635.348,982.1
635.876,977.9
636.403,984.05
636.931,980.15
637.459,976.0
637.986,975.3
638.514,975.35
639.041,974.0
639.568,975.6
640.096,974.65
640.623,974.55
641.15,972.2
641.678,972.45
642.205,972.5
642.732,972.0
643.259,966.55
643.786,963.8
644.313,961.6
644.84,963.65
645.367,959.45
645.894,957.95
646.421,957.5
646.948,959.05
647.474,954.15
648.001,957.0
648.528,954.65
649.054,954.1
649.581,953.15
650.108,955.5
650.634,950.1
651.161,951.25
651.687,951.45
652.214,950.55
652.74,948.35
653.266,950.85
653.793,945.9
654.319,948.3
654.845,949.5
655.371,948.25
655.897,947.35
656.424,948.55
656.95,946.05
657.476,946.9
658.002,946.55
658.528,946.2
659.054,942.3
659.58,943.45
660.106,940.4
660.631,942.95
661.157,937.8
661.683,940.55
662.209,936.3
662.735,937.85
663.129,938.6