File: spectra/VLFR_08-PLA_bio_Raman_621f4408.csv
nm,Intensity
528.626,1869.8
529.132,1867.6
529.637,1867.3
530.143,1867.9
530.648,1868.9
531.153,1868.2
531.658,1882.2
532.164,3547.9
532.669,1871.0
533.174,1870.6
533.679,2004.3
534.184,2554.1
534.689,2427.4
535.194,2413.8
535.699,2344.7
536.203,2288.7
536.708,2341.1
537.213,2244.4
537.717,2259.8
538.222,2244.3
538.726,2217.2
539.231,2213.4
539.735,2174.1
540.239,2198.7
540.744,2289.8
541.248,2253.8
541.752,2214.5
542.256,2197.7
542.76,2202.7
543.264,2282.7
543.768,2446.2
544.272,2313.9
544.776,2211.4
545.28,2194.7
545.784,2198.5
546.287,2210.5
546.791,2208.0
547.294,2209.6
547.798,2198.6
548.301,2218.9
548.805,2214.9
549.308,2208.1
549.811,2216.0
550.315,2224.3
550.818,2237.5
551.321,2246.5
551.824,2281.7
552.327,2282.8
552.83,2300.2
553.333,2285.3
553.835,2341.0
554.338,2315.8
554.841,2294.4
555.343,2247.0
555.846,2247.0
556.349,2240.3
556.851,2257.6
557.353,2320.7
557.856,2735.9
558.358,2762.5
558.86,2362.2
559.362,2357.7
559.864,2319.8
560.366,2298.2
560.868,2295.3
561.37,2290.7
561.872,2304.8
562.374,2315.6
562.876,2348.8
563.377,2522.1
563.879,2412.3
564.38,2352.7
564.882,2464.7
565.383,2445.2
565.885,2530.3
566.386,2583.5
566.887,2353.0
567.388,2337.8
567.889,2406.5
568.391,2378.5
568.892,2373.0
569.392,2364.8
569.893,2350.5
570.394,2357.4
570.895,2362.8
571.395,2510.4
571.896,2490.7
572.397,2434.1
572.897,2415.7
573.397,2445.2
573.898,2459.5
574.398,2478.4
574.898,2427.8
575.398,2367.5
575.898,2371.7
576.398,2574.8
576.898,2801.0
577.398,2483.3
577.898,2376.2
578.398,2358.3
578.897,2373.0
579.397,2347.0
579.896,2362.4
580.396,2359.7
580.895,2385.0
581.395,2362.5
581.894,2369.8
582.393,2353.5
582.892,2362.9
583.391,2369.4
583.89,2375.0
584.389,2386.9
584.888,2363.8
585.387,2362.8
585.886,2369.3
586.384,2403.5
586.883,2553.4
587.381,2723.4
587.88,2578.4
588.378,2416.6
588.876,2371.8
589.375,2362.2
589.873,2379.6
590.371,2372.8
590.869,2361.8
591.367,2350.2
591.865,2356.7
592.363,2357.7
592.86,2370.1
593.358,2356.2
593.856,2361.9
594.353,2362.9
594.851,2340.4
595.348,2352.8
595.845,2364.2
596.342,2368.0
596.84,2366.2
597.337,2370.4
597.834,2366.7
598.331,2358.5
598.828,2353.7
599.324,2364.4
599.821,2362.3
600.318,2371.9
600.814,2349.5
601.311,2358.1
601.807,2369.4
602.304,2361.4
602.8,2357.5
603.296,2361.8
603.792,2366.5
604.288,2335.8
604.784,2379.4
605.28,2369.7
605.776,2353.0
606.272,2342.1
606.767,2357.5
607.263,2372.2
607.759,2347.4
608.254,2356.0
608.749,2364.2
609.245,2363.3
609.74,2363.1
610.235,2358.9
610.73,2347.7
611.225,2349.4
611.72,2365.6
612.215,2342.7
612.71,2339.4
613.204,2339.6
613.699,2342.2
614.194,2357.4
614.688,2335.4
615.182,2349.2
615.677,2333.9
616.171,2356.9
616.665,2330.8
617.159,2332.3
617.653,2361.2
618.147,2335.9
618.641,2314.9
619.135,2332.0
619.628,2336.2
620.122,2325.1
620.615,2297.0
621.109,2317.5
621.602,2337.4
622.095,2342.5
622.589,2361.7
623.082,2390.7
623.575,2378.5
624.068,2350.9
624.561,2334.0
625.053,2308.9
625.546,2322.4
626.039,2317.7
626.531,2297.4
627.024,2314.8
627.516,2333.8
628.008,2423.6
628.501,2691.4
628.993,2632.3
629.485,2640.9
629.977,2646.1
630.469,2883.0
630.96,4436.8
631.452,4003.5
631.944,3096.7
632.435,2802.1
632.927,3018.3
633.418,3308.5
633.91,2936.0
634.401,2514.0
634.892,2345.9
635.383,2303.0
635.874,2271.2
636.365,2254.7
636.856,2266.5
637.346,2249.7
637.837,2236.7
638.327,2253.9
638.818,2228.1
639.308,2243.9
639.799,2229.0
640.289,2232.9
640.779,2225.2
641.269,2217.6
641.759,2235.5
642.249,2219.5
642.738,2226.5
643.228,2201.2
643.718,2194.9
644.207,2199.3
644.697,2187.2
645.186,2196.7
645.675,2174.6
646.164,2176.1
646.653,2171.6
647.142,2181.7
647.631,2163.2
648.12,2167.3
648.609,2160.3
649.098,2166.1
649.586,2157.2
650.075,2161.9
650.563,2158.5
651.051,2159.6
651.539,2147.3
652.027,2152.1
652.515,2133.8
653.003,2135.3
653.491,2135.2
653.979,2127.8
654.467,2129.4
654.954,2117.7
655.442,2122.6
655.929,2119.6
656.416,2107.6
656.904,2109.0
657.391,2113.9
657.878,2117.3
658.365,2098.9
658.851,2105.6
659.338,2088.8
659.825,2072.8
660.311,2082.8
660.798,2075.0
661.041,2084.7