File: spectra/VLFR_01-LDPE_nobio_Raman_ef86294d.csv
nm,Intensity
526.486,829.0
527.033,830.1
527.579,830.1
528.126,830.5
528.672,829.0
529.219,830.3
529.765,829.3
530.311,830.1
530.857,829.7
531.403,829.0
531.948,831.3
532.494,830.5
533.039,829.2
533.585,828.9
534.13,899.1
534.675,887.2
535.22,876.5
535.764,867.0
536.309,864.2
536.854,857.4
537.398,857.3
537.942,859.5
538.486,855.8
539.03,854.8
539.574,851.8
540.118,850.0
540.662,851.7
541.205,852.4
541.749,849.6
542.292,849.1
542.835,849.3
543.378,848.5
543.921,850.0
544.464,849.9
545.006,847.7
545.549,849.1
546.091,847.6
546.634,848.2
547.176,846.8
547.718,845.4
548.26,846.6
548.802,844.3
549.343,848.0
549.885,844.1
550.426,845.4
550.968,846.1
551.509,848.3
552.05,845.0
552.591,847.8
553.132,847.4
553.673,847.9
554.214,847.8
554.754,849.4
555.295,848.1
555.835,848.0
556.375,851.8
556.915,850.8
557.455,853.7
557.995,855.3
558.535,854.3
559.075,852.8
559.614,854.8
560.154,851.3
560.693,851.2
561.232,848.8
561.772,852.6
562.311,854.6
562.85,858.0
563.388,859.6
563.927,893.4
564.466,872.2
565.004,869.2
565.543,861.8
566.081,894.4
566.619,865.7
567.157,860.5
567.695,863.5
568.233,856.3
568.771,856.7
569.309,857.7
569.846,859.4
570.384,859.7
570.921,866.2
571.458,918.6
571.995,891.4
572.532,871.3
573.069,866.1
573.606,865.7
574.143,872.5
574.68,865.6
575.216,869.0
575.753,896.5
576.289,980.9
576.825,940.2
577.361,917.5
577.897,889.3
578.433,883.8
578.969,886.6
579.505,888.5
580.041,888.4
580.576,890.9
581.112,895.4
581.647,898.1
582.183,897.9
582.718,898.9
583.253,902.4
583.788,906.8
584.323,908.5
584.858,908.9
585.392,911.8
585.927,912.7
586.462,914.5
586.996,917.5
587.53,919.6
588.065,922.6
588.599,923.2
589.133,927.6
589.667,926.8
590.201,928.5
590.735,934.5
591.268,931.7
591.802,933.2
592.335,935.2
592.869,939.4
593.402,941.4
593.936,945.9
594.469,949.6
595.002,953.2
595.535,958.3
596.068,959.6
596.601,967.6
597.133,974.8
597.666,971.9
598.199,984.3
598.731,989.6
599.264,993.9
599.796,999.6
600.328,999.0
600.86,995.7
601.393,994.4
601.925,992.8
602.457,994.0
602.988,982.1
603.52,982.8
604.052,978.3
604.583,969.1
605.115,964.7
605.646,951.0
606.178,949.7
606.709,945.3
607.24,942.8
607.771,935.8
608.302,927.9
608.833,927.3
609.364,924.0
609.895,923.4
610.426,919.5
610.957,916.8
611.487,917.9
612.018,912.3
612.548,914.6
613.078,911.6
613.609,910.7
614.139,908.7
614.669,905.8
615.199,904.3
615.729,903.9
616.259,905.5
616.789,904.4
617.319,907.4
617.849,906.2
618.378,907.6
618.908,906.2
619.437,906.4
619.967,906.8
620.496,906.1
621.025,907.6
621.555,920.6
622.084,936.6
622.613,941.1
623.142,912.0
623.671,903.1
624.2,906.6
624.729,904.0
625.258,908.6
625.786,915.2
626.315,930.5
626.844,1126.5
627.372,1571.0
627.901,1306.4
628.429,1458.0
628.957,1339.1
629.486,1251.2
630.014,1146.8
630.542,1122.7
631.07,1019.4
631.598,950.2
632.126,921.8
632.654,910.5
633.182,903.1
633.71,904.8
634.237,898.3
634.765,897.9
635.293,895.2
635.82,897.8
636.348,895.2
636.875,892.5
637.403,891.7
637.93,890.8
638.458,892.0
638.985,890.8
639.512,892.5
640.039,890.8
640.566,889.6
641.093,894.9
641.62,893.8
642.147,890.1
642.674,894.5
643.201,890.2
643.728,894.2
644.255,893.0
644.781,892.5
645.308,891.9
645.835,894.1
646.361,892.2
646.888,891.7
647.414,890.4
647.941,892.9
648.467,892.0
648.993,892.7
649.52,890.2
650.046,894.6
650.572,891.9
651.098,894.8
651.625,897.9
652.151,893.8
652.677,899.0
653.203,894.3
653.729,898.0
654.255,897.1
654.78,897.5
655.306,894.2
655.832,894.7
656.358,896.0
656.884,895.3
657.409,890.5
657.935,891.8
658.461,888.3
658.986,886.6
659.512,883.1
660.037,884.0
660.563,882.2
661.088,879.8
661.614,875.5
662.139,876.9
662.664,874.0
663.058,871.5