File: spectra/VLFR_08-PLA_bio_Raman_9838d9ec.csv
nm,Intensity
526.495,829.4
527.042,828.0
527.589,829.9
528.136,829.2
528.682,828.7
529.229,828.9
529.775,828.8
530.321,828.1
530.867,829.8
531.413,829.3
531.959,830.1
532.505,829.5
533.051,828.2
533.596,828.7
534.141,834.4
534.687,833.8
535.232,832.7
535.777,833.9
536.321,833.3
536.866,832.8
537.41,835.5
537.955,834.6
538.499,833.6
539.043,836.0
539.587,835.2
540.131,833.3
540.675,833.1
541.219,834.1
541.762,834.2
542.305,833.9
542.849,834.8
543.392,834.7
543.935,833.9
544.478,836.6
545.02,836.1
545.563,833.3
546.106,836.5
546.648,836.4
547.19,834.5
547.732,836.4
548.274,836.9
548.816,836.6
549.358,834.3
549.9,835.1
550.441,834.3
550.983,836.2
551.524,834.9
552.065,835.8
552.606,835.3
553.147,834.7
553.688,835.9
554.229,837.0
554.769,837.1
555.31,836.2
555.85,837.3
556.391,837.2
556.931,834.5
557.471,837.6
558.011,835.9
558.551,836.2
559.09,837.0
559.63,836.8
560.169,837.7
560.709,836.7
561.248,836.8
561.787,837.1
562.326,842.1
562.865,837.2
563.404,838.1
563.943,836.4
564.481,837.3
565.02,836.0
565.558,836.4
566.096,836.4
566.634,835.6
567.172,837.3
567.71,836.2
568.248,836.8
568.786,838.8
569.324,836.4
569.861,838.1
570.399,836.7
570.936,838.1
571.473,838.3
572.01,837.9
572.547,837.3
573.084,837.4
573.621,837.6
574.158,839.1
574.694,836.6
575.231,837.6
575.767,838.2
576.303,837.8
576.84,836.7
577.376,836.9
577.912,838.3
578.448,838.2
578.984,836.7
579.519,836.8
580.055,838.3
580.59,839.1
581.126,838.9
581.661,837.3
582.196,837.5
582.731,839.1
583.267,836.8
583.801,838.5
584.336,836.3
584.871,838.8
585.406,838.3
585.94,836.6
586.475,840.0
587.009,837.7
587.543,836.7
588.078,837.4
588.612,838.8
589.146,840.4
589.68,838.4
590.214,837.9
590.747,838.9
591.281,837.9
591.815,839.0
592.348,838.4
592.881,838.6
593.415,837.3
593.948,839.5
594.481,840.2
595.014,838.1
595.547,839.2
596.08,839.3
596.613,838.0
597.146,837.2
597.678,839.1
598.211,837.6
598.743,839.1
599.276,839.0
599.808,839.6
600.34,839.4
600.872,837.3
601.404,837.9
601.936,840.2
602.468,839.3
603.0,838.8
603.532,838.4
604.064,837.3
604.595,839.0
605.127,838.0
605.658,838.2
606.189,837.1
606.721,839.7
607.252,841.2
607.783,837.9
608.314,839.0
608.845,838.3
609.376,836.9
609.907,837.2
610.438,839.0
610.968,839.4
611.499,837.7
612.029,840.4
612.56,838.4
613.09,839.2
613.621,839.3
614.151,838.0
614.681,839.1
615.211,837.2
615.741,838.1
616.271,837.1
616.801,838.6
617.331,839.5
617.861,838.4
618.39,837.6
618.92,838.0
619.45,837.4
619.979,839.1
620.509,837.3
621.038,838.5
621.567,838.1
622.096,837.5
622.626,839.6
623.155,837.3
623.684,837.6
624.213,838.1
624.742,838.6
625.271,839.1
625.799,839.5
626.328,838.2
626.857,837.2
627.386,838.1
627.914,836.3
628.443,837.7
628.971,837.8
629.5,838.8
630.028,838.3
630.556,837.9
631.084,838.0
631.613,837.9
632.141,836.5
632.669,837.9
633.197,837.2
633.725,838.3
634.253,838.9
634.781,837.7
635.308,836.7
635.836,838.6
636.364,837.0
636.891,836.1
637.419,836.4
637.947,837.4
638.474,837.1
639.002,837.5
639.529,836.2
640.056,837.4
640.584,837.8
641.111,837.4
641.638,838.5
642.165,837.1
642.692,836.2
643.219,838.1
643.746,837.9
644.273,839.1
644.8,837.6
645.327,836.1
645.854,839.3
646.381,838.2
646.908,838.7
647.434,836.7
647.961,836.6
648.488,837.7
649.014,836.2
649.541,839.1
650.067,838.0
650.594,838.3
651.12,839.1
651.646,838.8
652.173,837.3
652.699,838.7
653.225,837.0
653.752,837.1
654.278,835.9
654.804,837.2
655.33,836.9
655.856,835.5
656.382,835.2
656.908,835.9
657.434,836.9
657.96,836.3
658.486,834.7
659.012,833.8
659.538,835.9
660.064,836.5
660.589,835.3
661.115,833.9
661.641,835.7
662.166,834.5
662.692,835.3
663.086,834.1