File: spectra/VLFR_01-LDPE_nobio_Raman_42a36991.csv
nm,Intensity
526.486,829.1
527.033,828.4
527.579,828.5
528.126,829.6
528.672,830.5
529.219,829.3
529.765,829.5
530.311,827.8
530.857,829.3
531.403,828.7
531.948,835.0
532.494,831.6
533.039,830.5
533.585,829.4
534.13,902.4
534.675,894.2
535.22,886.5
535.764,880.3
536.309,871.3
536.854,871.2
537.398,873.4
537.942,871.4
538.486,868.9
539.03,870.5
539.574,868.7
540.118,866.9
540.662,865.6
541.205,862.6
541.749,864.2
542.292,863.9
542.835,864.4
543.378,868.8
543.921,863.4
544.464,864.3
545.006,864.2
545.549,862.8
546.091,861.5
546.634,863.1
547.176,866.2
547.718,861.6
548.26,863.6
548.802,862.9
549.343,863.7
549.885,864.3
550.426,861.6
550.968,861.2
551.509,861.8
552.05,863.2
552.591,864.6
553.132,863.6
553.673,868.1
554.214,863.5
554.754,868.2
555.295,865.9
555.835,869.1
556.375,868.6
556.915,874.5
557.455,877.7
557.995,875.7
558.535,877.4
559.075,881.5
559.614,878.2
560.154,878.9
560.693,878.7
561.232,879.1
561.772,881.1
562.311,889.4
562.85,887.9
563.388,893.0
563.927,931.2
564.466,912.8
565.004,914.5
565.543,912.0
566.081,965.8
566.619,924.0
567.157,913.8
567.695,921.1
568.233,921.4
568.771,926.3
569.309,934.0
569.846,943.3
570.384,951.7
570.921,962.6
571.458,1030.9
571.995,1010.6
572.532,999.8
573.069,1007.5
573.606,1025.8
574.143,1051.3
574.68,1054.0
575.216,1092.0
575.753,1154.0
576.289,1238.7
576.825,1237.9
577.361,1262.2
577.897,1282.6
578.433,1329.5
578.969,1376.8
579.505,1433.4
580.041,1486.5
580.576,1535.2
581.112,1566.4
581.647,1607.3
582.183,1667.3
582.718,1681.0
583.253,1726.8
583.788,1725.5
584.323,1752.9
584.858,1771.1
585.392,1786.0
585.927,1808.6
586.462,1833.7
586.996,1857.9
587.53,1872.4
588.065,1898.6
588.599,1897.9
589.133,1924.7
589.667,1928.0
590.201,1975.0
590.735,1992.3
591.268,2021.3
591.802,2025.6
592.335,2034.5
592.869,2050.7
593.402,2039.6
593.936,2060.9
594.469,2067.4
595.002,2079.0
595.535,2111.2
596.068,2117.9
596.601,2122.0
597.133,2161.8
597.666,2188.3
598.199,2223.8
598.731,2261.8
599.264,2281.2
599.796,2296.0
600.328,2289.3
600.86,2304.0
601.393,2288.6
601.925,2265.1
602.457,2248.6
602.988,2204.0
603.52,2177.9
604.052,2127.8
604.583,2065.8
605.115,2018.7
605.646,1954.3
606.178,1900.0
606.709,1848.5
607.24,1803.7
607.771,1780.1
608.302,1741.0
608.833,1719.1
609.364,1681.2
609.895,1650.9
610.426,1641.6
610.957,1604.5
611.487,1606.3
612.018,1574.3
612.548,1549.8
613.078,1557.1
613.609,1524.8
614.139,1530.3
614.669,1502.9
615.199,1488.7
615.729,1464.8
616.259,1453.2
616.789,1445.0
617.319,1445.3
617.849,1426.3
618.378,1428.8
618.908,1409.0
619.437,1401.5
619.967,1391.1
620.496,1386.1
621.025,1399.9
621.555,1392.8
622.084,1416.9
622.613,1417.5
623.142,1395.8
623.671,1401.7
624.2,1397.0
624.729,1406.8
625.258,1399.6
625.786,1420.8
626.315,1431.7
626.844,1567.1
627.372,1909.5
627.901,1723.9
628.429,1825.1
628.957,1810.4
629.486,1736.7
630.014,1676.3
630.542,1668.5
631.07,1585.0
631.598,1524.9
632.126,1505.5
632.654,1493.5
633.182,1501.7
633.71,1500.0
634.237,1493.9
634.765,1498.6
635.293,1501.3
635.82,1500.9
636.348,1506.9
636.875,1497.7
637.403,1495.3
637.93,1498.0
638.458,1500.8
638.985,1496.5
639.512,1500.2
640.039,1495.9
640.566,1507.9
641.093,1499.2
641.62,1512.8
642.147,1512.5
642.674,1499.8
643.201,1502.3
643.728,1507.3
644.255,1493.8
644.781,1496.3
645.308,1493.3
645.835,1490.4
646.361,1499.2
646.888,1488.1
647.414,1489.6
647.941,1496.2
648.467,1480.2
648.993,1475.1
649.52,1468.9
650.046,1475.4
650.572,1459.0
651.098,1465.0
651.625,1471.9
652.151,1472.1
652.677,1467.1
653.203,1469.7
653.729,1460.4
654.255,1457.5
654.78,1448.9
655.306,1446.3
655.832,1440.9
656.358,1438.4
656.884,1419.3
657.409,1401.3
657.935,1399.2
658.461,1377.6
658.986,1365.5
659.512,1352.2
660.037,1324.4
660.563,1310.6
661.088,1286.2
661.614,1267.0
662.139,1249.0
662.664,1235.9
663.058,1225.6