File: spectra/VLFR_06-PET_bio_Raman_29127d5f.csv
nm,Intensity
526.508,831.2
527.055,831.2
527.602,830.7
528.149,831.6
528.695,831.7
529.241,829.0
529.787,831.3
530.334,830.4
530.879,832.2
531.425,831.2
531.971,834.9
532.516,831.2
533.062,832.5
533.607,840.0
534.152,2217.2
534.697,2342.3
535.242,2330.2
535.786,2413.9
536.331,2455.2
536.876,2483.3
537.42,2514.1
537.964,2566.4
538.508,2622.0
539.052,2648.7
539.596,2713.8
540.14,2745.2
540.683,2777.7
541.227,2815.5
541.77,2892.6
542.313,2935.7
542.856,2983.2
543.399,3036.4
543.942,3092.6
544.485,3149.7
545.027,3221.3
545.57,3243.3
546.112,3307.2
546.654,3365.5
547.196,3417.0
547.738,3452.0
548.28,3516.6
548.822,3564.9
549.363,3628.1
549.905,3671.9
550.446,3708.0
550.988,3761.9
551.529,3831.8
552.07,3903.9
552.611,3922.4
553.152,3973.6
553.692,4052.2
554.233,4107.0
554.773,4163.1
555.314,4170.6
555.854,4196.0
556.394,4269.0
556.934,4320.1
557.474,4372.1
558.014,4411.8
558.553,4435.1
559.093,4484.8
559.632,4574.3
560.172,4642.9
560.711,4705.6
561.25,4760.5
561.789,4799.8
562.328,4858.1
562.867,4936.8
563.406,5046.6
563.944,5090.1
564.483,5179.5
565.021,5260.6
565.559,5299.0
566.098,5374.4
566.636,5368.9
567.174,5404.5
567.711,5431.7
568.249,5514.2
568.787,5625.0
569.324,5722.8
569.862,5770.8
570.399,5834.0
570.936,5842.6
571.474,5839.1
572.011,5967.2
572.548,6049.9
573.084,6130.5
573.621,6198.5
574.158,6265.6
574.694,6340.4
575.231,6356.9
575.767,6425.4
576.303,6468.8
576.84,6541.1
577.376,6600.4
577.912,6649.6
578.447,6732.1
578.983,6816.6
579.519,6837.4
580.054,6875.6
580.59,6930.6
581.125,6957.8
581.661,6999.0
582.196,7147.1
582.731,7155.4
583.266,7209.4
583.801,7290.7
584.336,7293.6
584.87,7322.9
585.405,7398.1
585.94,7458.8
586.474,7564.7
587.008,7611.3
587.543,7645.3
588.077,7664.1
588.611,7676.6
589.145,7617.0
589.679,7686.7
590.213,7760.4
590.747,7773.6
591.28,7842.4
591.814,7856.2
592.347,7886.4
592.881,7849.1
593.414,7871.9
593.947,7878.7
594.48,7972.6
595.014,8060.0
595.547,8114.2
596.079,8137.1
596.612,8192.5
597.145,8258.6
597.678,8197.9
598.21,8314.8
598.743,8358.6
599.275,8422.0
599.807,8420.2
600.34,8405.7
600.872,8371.1
601.404,8361.3
601.936,8396.2
602.468,8425.0
603.0,8463.2
603.532,8537.0
604.063,8541.1
604.595,8465.0
605.126,8451.3
605.658,8346.5
606.189,8335.0
606.721,8363.1
607.252,8393.8
607.783,8441.5
608.314,8528.0
608.845,8565.5
609.376,8563.9
609.907,8574.9
610.438,8560.0
610.968,8581.0
611.499,8600.3
612.03,8695.6
612.56,8780.3
613.091,8866.7
613.621,8885.8
614.151,8938.9
614.681,8895.7
615.212,8885.4
615.742,8917.1
616.272,8877.4
616.802,8937.9
617.332,9025.1
617.861,8990.2
618.391,9058.8
618.921,9000.6
619.45,9039.6
619.98,9019.9
620.509,8993.6
621.039,8961.0
621.568,9002.4
622.097,9021.3
622.627,9043.5
623.156,9131.5
623.685,9133.0
624.214,9185.2
624.743,9174.6
625.272,9170.8
625.801,9162.8
626.33,9135.7
626.858,9101.8
627.387,9128.4
627.916,9098.4
628.444,9094.4
628.973,9125.3
629.501,9115.3
630.029,9172.6
630.558,9122.3
631.086,9163.5
631.614,9127.2
632.142,9117.3
632.67,9065.9
633.198,9068.2
633.726,9033.5
634.254,8998.6
634.782,8998.2
635.31,9016.4
635.838,9033.6
636.365,9060.7
636.893,9019.8
637.421,8991.7
637.948,8979.1
638.476,8990.2
639.003,8954.3
639.531,8927.2
640.058,8917.3
640.585,8913.0
641.113,8921.2
641.64,8881.6
642.167,8890.0
642.694,8845.9
643.221,8759.1
643.748,8672.4
644.275,8648.3
644.802,8592.7
645.329,8571.1
645.856,8538.8
646.382,8564.9
646.909,8554.5
647.436,8563.3
647.962,8555.7
648.489,8491.4
649.016,8461.4
649.542,8397.2
650.069,8347.1
650.595,8320.8
651.121,8301.9
651.648,8328.3
652.174,8281.1
652.7,8287.6
653.227,8269.8
653.753,8223.0
654.279,8258.9
654.805,8195.7
655.331,8162.0
655.857,8201.0
656.383,8115.3
656.909,8121.1
657.435,8134.1
657.961,8114.8
658.487,8101.1
659.013,8102.3
659.538,8119.9
660.064,8057.4
660.59,8048.8
661.116,7953.9
661.641,7891.4
662.167,7876.8
662.692,7890.6
663.087,7838.2