File: spectra/VLFR_08-PLA_nobio_Raman_2c6321d3.csv
nm,Intensity
526.5,830.9
527.047,828.6
527.594,829.0
528.14,829.6
528.687,829.6
529.233,829.5
529.779,828.4
530.325,829.7
530.871,829.4
531.417,829.4
531.962,832.8
532.508,829.8
533.053,828.6
533.599,829.8
534.144,949.6
534.689,930.4
535.234,908.7
535.778,897.1
536.323,892.9
536.867,895.9
537.412,888.0
537.956,889.9
538.5,885.4
539.044,880.0
539.588,882.1
540.132,877.8
540.675,888.2
541.219,888.3
541.762,883.8
542.305,881.5
542.848,882.4
543.391,896.2
543.934,901.1
544.477,890.1
545.02,884.2
545.562,883.4
546.105,880.8
546.647,880.7
547.189,882.5
547.731,884.7
548.273,886.7
548.815,884.1
549.356,886.2
549.898,885.9
550.439,886.5
550.981,888.5
551.522,887.5
552.063,890.5
552.604,892.8
553.145,895.1
553.686,888.9
554.226,894.0
554.767,894.5
555.307,888.2
555.848,888.4
556.388,889.7
556.928,891.0
557.468,898.5
558.008,961.9
558.547,910.1
559.087,897.9
559.626,895.9
560.166,892.9
560.705,894.6
561.244,893.9
561.783,891.3
562.322,892.6
562.861,898.4
563.4,918.3
563.939,908.4
564.477,904.6
565.015,915.0
565.554,907.7
566.092,926.2
566.63,908.3
567.168,897.6
567.706,901.8
568.244,903.4
568.781,903.5
569.319,901.6
569.857,903.3
570.394,900.1
570.931,901.5
571.468,909.8
572.005,914.2
572.542,908.7
573.079,913.3
573.616,914.9
574.153,914.4
574.689,917.3
575.226,907.9
575.762,908.2
576.298,918.9
576.834,951.7
577.371,921.3
577.907,911.3
578.442,912.0
578.978,911.3
579.514,908.1
580.049,906.0
580.585,909.4
581.12,909.4
581.656,909.2
582.191,908.4
582.726,909.1
583.261,911.0
583.796,908.9
584.331,911.1
584.865,910.8
585.4,910.3
585.935,909.8
586.469,918.9
587.004,938.9
587.538,946.6
588.072,926.3
588.606,909.5
589.14,912.1
589.674,915.6
590.208,910.7
590.742,912.0
591.275,909.1
591.809,910.2
592.342,910.5
592.876,910.4
593.409,911.6
593.942,910.2
594.476,912.7
595.009,910.6
595.542,910.8
596.075,911.2
596.607,908.4
597.14,911.7
597.673,914.0
598.205,915.2
598.738,915.5
599.27,914.9
599.803,910.7
600.335,911.2
600.867,910.3
601.399,910.0
601.931,911.7
602.463,909.4
602.995,913.3
603.527,909.9
604.058,912.4
604.59,910.5
605.122,909.2
605.653,904.5
606.184,906.8
606.716,907.2
607.247,906.8
607.778,909.5
608.309,905.9
608.84,907.2
609.371,906.7
609.902,908.9
610.433,908.5
610.964,909.1
611.494,907.5
612.025,906.2
612.556,911.5
613.086,908.5
613.616,908.5
614.147,910.1
614.677,910.6
615.207,906.6
615.737,912.0
616.267,910.9
616.797,911.7
617.327,912.3
617.857,907.6
618.387,909.6
618.917,906.9
619.446,904.8
619.976,906.4
620.505,910.3
621.035,909.9
621.564,906.4
622.093,907.7
622.623,913.5
623.152,914.5
623.681,910.3
624.21,910.9
624.739,909.8
625.268,904.1
625.797,906.7
626.326,906.9
626.855,906.1
627.383,909.0
627.912,907.5
628.441,940.8
628.969,938.4
629.498,931.6
630.026,937.8
630.554,964.2
631.083,1146.9
631.611,1030.0
632.139,967.6
632.667,954.0
633.195,999.0
633.724,982.6
634.252,937.6
634.779,914.0
635.307,905.9
635.835,902.9
636.363,902.6
636.891,898.9
637.418,900.4
637.946,898.6
638.474,902.4
639.001,894.6
639.529,895.5
640.056,895.1
640.583,900.7
641.111,898.7
641.638,896.6
642.165,899.0
642.692,895.4
643.22,898.2
643.747,892.6
644.274,889.6
644.801,894.5
645.328,891.6
645.854,893.8
646.381,888.2
646.908,890.4
647.435,890.4
647.962,890.2
648.488,888.6
649.015,892.5
649.542,887.8
650.068,889.4
650.595,886.4
651.121,887.4
651.648,889.2
652.174,888.6
652.7,885.1
653.227,888.4
653.753,886.7
654.279,883.1
654.805,885.2
655.331,885.5
655.858,886.5
656.384,887.8
656.91,883.8
657.436,884.7
657.962,884.9
658.488,881.7
659.013,885.4
659.539,881.2
660.065,884.9
660.591,885.1
661.117,885.2
661.642,880.4
662.168,880.5
662.694,883.0
663.088,879.4