File: spectra/VLFR_07-PET_nobio_Raman_c2ddc02c.csv
nm,Intensity
782.722,3749.98
783.822,3757.82
784.922,7297.26
786.022,4134.74
787.122,3779.28
788.222,7713.32
789.321,15983.9
790.421,14428.2
791.52,12613.3
792.619,11312.9
793.718,10509.9
794.817,10051.0
795.916,9915.38
797.015,9794.52
798.114,9784.3
799.212,9672.66
800.311,9636.98
801.409,9673.62
802.507,9624.58
803.605,9308.12
804.703,9349.2
805.801,9193.94
806.899,9050.06
807.997,8977.18
809.094,8972.04
810.191,8900.78
811.289,8811.7
812.386,8682.12
813.483,8641.92
814.58,8564.3
815.677,8418.22
816.774,8273.86
817.87,8331.24
818.967,8199.96
820.063,8013.02
821.159,8098.38
822.255,7908.0
823.351,7903.92
824.447,7823.22
825.543,7996.76
826.639,7865.8
827.734,7621.24
828.83,7598.88
829.925,7520.12
831.02,7681.4
832.115,7486.68
833.21,7400.98
834.305,7326.26
835.4,7210.3
836.494,7308.88
837.589,7495.24
838.683,7357.88
839.777,7369.56
840.871,7557.34
841.965,7634.62
843.059,7231.5
844.152,7167.84
845.246,6968.44
846.339,6869.48
847.433,6830.34
848.526,6732.3
849.619,6686.76
850.712,6688.1
851.804,6666.96
852.897,6782.46
853.989,6582.4
855.082,6559.5
856.174,6442.74
857.266,6426.3
858.358,6609.46
859.45,6663.66
860.542,6696.08
861.633,6524.5
862.725,6351.62
863.816,6268.14
864.907,6405.72
865.998,6204.22
867.089,6097.66
868.18,6143.74
869.27,6176.54
870.361,6160.08
871.451,6255.28
872.541,6613.38
873.631,6594.86
874.721,6302.62
875.811,6085.34
876.901,5993.44
877.99,5866.1
879.08,5920.36
880.169,5810.88
881.258,5800.2
882.347,5831.74
883.436,5813.3
884.524,5780.16
885.613,5813.08
886.701,5702.24
887.79,5635.18
888.878,5606.92
889.966,5542.16
891.053,5561.08
892.141,5537.06
893.229,5500.24
894.316,5433.62
895.403,5410.54
896.49,5397.42
897.577,5616.28
898.664,6430.48
899.751,5829.46
900.837,5299.74
901.923,5179.82
903.01,5214.78
904.096,5190.78
905.181,5156.68
906.267,5323.36
907.353,5698.46
908.438,5822.3
909.523,5432.8
910.609,5112.44
911.694,4978.08
912.778,4951.76
913.863,4896.04
914.948,4851.44
916.032,4852.88
917.116,4808.66
918.2,4814.0
919.284,4742.12
920.368,4734.7
921.452,4713.14
922.535,4689.44
923.618,4649.98
924.701,4605.46
925.784,4615.16
926.867,4588.36
927.95,4547.12
929.032,4517.3
930.115,4496.42
931.197,4453.34
932.279,4426.6
933.361,4415.98
934.442,4408.82
935.524,4386.82
936.605,4350.96
937.687,4343.24
938.768,4311.76
939.849,4314.74
940.929,4290.32
942.01,4267.04
943.09,4255.68
944.171,4239.58
945.251,4225.44
946.331,4209.12
947.41,4198.8
948.49,4170.96
949.569,4165.78
950.649,4146.1
951.728,4157.06
952.807,4128.9
953.885,4108.0
954.964,4104.84
956.042,4101.38
957.121,4082.9
958.199,4078.64
959.277,4062.78
960.354,4051.92
961.432,4048.0
962.509,4043.4
963.587,4019.48
964.664,4014.48
965.741,4004.26
966.817,4006.28
967.894,3998.34
968.97,3989.88
970.047,3983.32
971.123,3973.56
972.198,3976.96
973.274,3959.02
974.35,3949.82
975.425,3942.74
976.5,3943.84
977.575,3933.4
978.65,3932.14
979.725,3924.08
980.799,3918.32
981.873,3916.0
982.947,3906.62
984.021,3904.36
985.095,3900.64
986.169,3892.22
987.242,3892.64
988.315,3890.58
989.388,3882.66
990.461,3871.54
991.534,3865.56
992.607,3867.08
993.679,3857.88
994.751,3858.66
995.823,3853.12
996.895,3850.16
997.966,3846.0
999.038,3839.04
1000.11,3835.7
1001.18,3834.7
1002.25,3834.88
1003.32,3832.26
1004.39,3826.98
1005.46,3821.82
1006.53,3817.3
1007.6,3819.6
1008.67,3814.08
1009.74,3811.38
1010.81,3809.44
1011.88,3806.98
1012.95,3804.84
1014.02,3806.12
1015.09,3802.06
1016.16,3801.22
1017.22,3800.4
1018.29,3795.38
1019.36,3794.9
1020.43,3794.92
1021.49,3802.84
1022.56,3803.42
1023.63,3808.34
1024.7,3796.64
1025.76,3794.3
1026.83,3787.38
1027.9,3783.12
1028.96,3778.6
1030.03,3777.2
1031.09,3774.76
1032.16,3774.78
1033.22,3775.28
1034.29,3779.1
1035.35,3781.38
1036.42,3778.92
1037.48,3773.4
1038.55,3768.68
1039.61,3765.44
1040.68,3764.84
1041.74,3761.96
1042.8,3762.2
1043.87,3760.84
1044.93,3760.04
1045.99,3758.26
1047.06,3758.66
1048.12,3757.56
1049.18,3757.4
1050.24,3758.14
1051.31,3758.3
1052.37,3756.7
1053.43,3756.36
1054.49,3755.36
1055.55,3755.96
1056.61,3755.76
1057.67,3755.88
1058.73,3754.06
1059.53,3754.02