File: spectra/VLFR_02-HDPE_nobio_Raman_41d6915f.csv
cm-1,Intensity
-123.878,1852.15
-105.821,1853.15
-87.8007,1853.55
-69.8161,1852.95
-51.8675,1853.45
-33.9547,1854.75
-16.0776,1890.8
1.76388,3046.3
19.5698,1854.6
37.3403,1853.35
55.0755,1945.15
72.7754,2195.6
90.4402,2175.95
108.07,2160.35
125.665,2110.5
143.225,2077.1
160.75,2062.5
178.241,2066.05
195.697,2059.15
213.119,2051.9
230.506,2046.4
247.859,2038.7
265.178,2029.1
282.463,2026.9
299.713,2025.35
316.93,2026.85
334.113,2027.3
351.263,2027.75
368.379,2036.1
385.461,2023.0
402.51,2023.45
419.526,2027.55
436.508,2022.2
453.458,2021.1
470.374,2027.3
487.257,2018.15
504.107,2019.75
520.925,2028.15
537.71,2018.55
554.462,2020.4
571.182,2022.4
587.87,2022.85
604.525,2015.15
621.148,2027.7
637.739,2023.45
654.297,2027.7
670.824,2032.3
687.319,2038.5
703.782,2031.2
720.213,2056.35
736.613,2050.95
752.981,2064.7
769.317,2063.7
785.623,2061.9
801.897,2072.3
818.139,2080.8
834.351,2083.9
850.532,2087.75
866.681,2112.15
882.8,2122.1
898.888,2118.95
914.945,2117.5
930.972,2125.0
946.968,2133.1
962.934,2146.55
978.869,2141.5
994.774,2152.6
1010.65,2164.95
1026.49,2167.2
1042.31,2194.9
1058.09,2622.55
1073.85,2297.0
1089.57,2253.05
1105.27,2225.15
1120.93,2514.1
1136.57,2545.85
1152.18,2197.5
1167.75,2253.8
1183.3,2192.1
1198.82,2166.7
1214.31,2179.15
1229.77,2195.7
1245.2,2191.75
1260.6,2210.8
1275.97,2217.2
1291.32,2877.3
1306.63,2346.65
1321.92,2214.75
1337.18,2169.35
1352.41,2151.05
1367.61,2214.3
1382.78,2140.45
1397.93,2153.5
1413.05,2602.15
1428.14,2441.4
1443.2,2690.85
1458.23,2507.85
1473.23,2306.95
1488.21,2183.3
1503.16,2151.6
1518.08,2137.75
1532.97,2139.6
1547.84,2132.05
1562.68,2133.25
1577.49,2132.4
1592.27,2130.4
1607.03,2132.7
1621.76,2126.2
1636.46,2142.55
1651.14,2130.75
1665.78,2125.0
1680.41,2135.6
1695.0,2139.4
1709.57,2144.05
1724.11,2141.55
1738.62,2147.45
1753.11,2149.1
1767.57,2159.4
1782.01,2154.8
1796.41,2167.85
1810.8,2155.85
1825.15,2151.95
1839.48,2156.25
1853.79,2177.4
1868.06,2188.0
1882.31,2185.65
1896.54,2195.4
1910.74,2208.7
1924.91,2216.25
1939.06,2227.3
1953.19,2230.6
1967.28,2231.45
1981.35,2246.4
1995.4,2252.35
2009.42,2267.55
2023.42,2287.05
2037.39,2297.35
2051.33,2313.65
2065.25,2304.9
2079.15,2333.45
2093.01,2345.75
2106.86,2353.6
2120.68,2368.35
2134.47,2375.9
2148.24,2365.25
2161.99,2363.6
2175.71,2408.7
2189.41,2390.35
2203.08,2378.55
2216.73,2381.6
2230.35,2379.7
2243.95,2377.0
2257.52,2350.05
2271.07,2362.5
2284.6,2337.9
2298.1,2326.5
2311.58,2336.85
2325.03,2331.95
2338.46,2334.4
2351.87,2336.05
2365.25,2331.95
2378.61,2329.25
2391.94,2335.55
2405.26,2354.5
2418.54,2340.75
2431.81,2365.25
2445.05,2331.5
2458.27,2318.05
2471.46,2325.8
2484.63,2300.85
2497.78,2311.55
2510.9,2310.55
2524.0,2323.65
2537.08,2307.0
2550.14,2315.55
2563.17,2314.95
2576.18,2329.1
2589.17,2341.6
2602.13,2350.55
2615.07,2332.8
2627.99,2326.45
2640.89,2338.45
2653.76,2350.65
2666.61,2342.8
2679.44,2339.3
2692.25,2393.55
2705.03,2464.65
2717.79,2589.45
2730.53,2510.75
2743.25,2355.1
2755.94,2337.05
2768.61,2301.95
2781.27,2300.5
2793.89,2323.7
2806.5,2359.85
2819.09,2451.75
2831.65,3113.15
2844.19,6399.4
2856.71,5790.15
2869.21,4801.75
2881.69,6971.5
2894.14,4704.6
2906.58,4156.7
2918.99,3624.1
2931.38,3495.85
2943.75,2805.6
2956.1,2409.2
2968.42,2303.65
2980.73,2274.35
2993.01,2231.95
3005.28,2215.8
3017.52,2197.5
3029.74,2179.95
3041.94,2166.45
3054.12,2157.45
3066.28,2144.7
3078.42,2148.55
3090.54,2143.85
3102.63,2120.2
3114.71,2118.5
3126.77,2123.0
3138.8,2116.25
3150.82,2109.05
3162.81,2108.7
3174.78,2116.15
3186.74,2094.05
3198.67,2092.65
3210.58,2095.75
3222.47,2100.8
3234.35,2094.85
3246.2,2095.35
3258.03,2099.2
3269.84,2100.85
3281.64,2084.8
3293.41,2097.6
3305.16,2089.15
3316.89,2087.25
3328.61,2080.9
3340.3,2077.25
3351.97,2080.1
3363.63,2094.15
3375.26,2078.05
3386.88,2065.3
3398.47,2077.4
3410.05,2076.95
3421.6,2072.85
3433.14,2069.8
3444.66,2077.45
3456.15,2068.5
3467.63,2072.05
3479.09,2065.95
3490.53,2064.35
3501.96,2064.2
3513.36,2068.65
3524.74,2066.5
3536.11,2051.75
3547.45,2054.95
3558.78,2041.5
3570.09,2043.05
3581.37,2055.85
3592.64,2055.0
3603.9,2040.85
3615.13,2044.95
3626.34,2041.9
3637.54,2053.4
3648.72,2043.75
3659.87,2033.0
3665.45,2021.2