File: spectra/VLFR_01-LDPE_bio_Raman_9df02b44.csv
nm,Intensity
528.65,1849.65
529.155,1851.1
529.66,1850.85
530.165,1850.8
530.67,1851.55
531.175,1853.4
531.68,1886.0
532.185,4169.1
532.69,1853.1
533.194,1851.95
533.699,1929.55
534.204,2200.25
534.708,2202.0
535.213,2185.8
535.717,2171.95
536.222,2156.85
536.726,2171.0
537.231,2172.0
537.735,2168.7
538.239,2171.2
538.743,2178.65
539.247,2198.7
539.751,2178.3
540.255,2181.75
540.759,2175.2
541.263,2176.65
541.767,2173.65
542.271,2190.6
542.775,2174.4
543.279,2162.85
543.782,2146.8
544.286,2148.05
544.789,2147.85
545.293,2140.4
545.796,2145.8
546.3,2146.9
546.803,2148.85
547.306,2156.75
547.81,2152.05
548.313,2153.6
548.816,2151.5
549.319,2150.3
549.822,2156.7
550.325,2142.1
550.828,2162.55
551.331,2167.35
551.834,2164.5
552.337,2166.35
552.839,2156.65
553.342,2161.35
553.844,2170.1
554.347,2164.9
554.849,2171.55
555.352,2180.9
555.854,2191.65
556.357,2193.7
556.859,2199.1
557.361,2205.4
557.863,2215.7
558.365,2214.7
558.867,2219.45
559.369,2222.6
559.871,2231.65
560.373,2235.8
560.875,2231.4
561.377,2245.0
561.878,2248.3
562.38,2269.75
562.881,2271.4
563.383,2295.7
563.884,2425.55
564.386,2359.85
564.887,2357.1
565.388,2336.15
565.89,2420.85
566.391,2418.45
566.892,2341.9
567.393,2355.85
567.894,2346.5
568.395,2353.2
568.896,2363.65
569.396,2371.9
569.897,2375.6
570.398,2422.35
570.898,2426.05
571.399,2671.3
571.9,2554.9
572.4,2496.2
572.9,2461.8
573.401,2467.55
573.901,2471.95
574.401,2471.8
574.901,2471.55
575.401,2552.15
575.901,2636.35
576.401,2815.35
576.901,2717.0
577.401,2596.75
577.901,2522.1
578.4,2513.3
578.9,2530.9
579.399,2539.65
579.899,2544.75
580.398,2559.95
580.898,2557.35
581.397,2575.4
581.896,2560.5
582.395,2553.65
582.895,2548.35
583.394,2591.3
583.893,2567.85
584.391,2572.4
584.89,2581.8
585.389,2564.7
585.888,2576.05
586.386,2598.6
586.885,2567.7
587.384,2591.95
587.882,2573.45
588.38,2590.5
588.879,2571.05
589.377,2585.6
589.875,2584.25
590.373,2584.45
590.871,2578.4
591.369,2594.0
591.867,2593.9
592.365,2594.65
592.863,2589.95
593.361,2612.7
593.858,2605.35
594.356,2599.2
594.853,2600.95
595.351,2602.4
595.848,2630.95
596.345,2641.95
596.843,2665.8
597.34,2671.5
597.837,2677.0
598.334,2693.7
598.831,2679.2
599.328,2737.2
599.824,2709.45
600.321,2739.6
600.818,2728.15
601.314,2711.7
601.811,2719.5
602.307,2724.75
602.804,2701.15
603.3,2716.05
603.796,2702.05
604.293,2670.85
604.789,2650.8
605.285,2645.2
605.781,2635.0
606.277,2641.9
606.772,2593.25
607.268,2599.15
607.764,2575.25
608.259,2558.8
608.755,2563.8
609.25,2555.25
609.746,2552.55
610.241,2535.9
610.736,2552.45
611.231,2543.2
611.727,2543.2
612.222,2521.35
612.716,2509.7
613.211,2506.15
613.706,2503.1
614.201,2487.65
614.695,2491.85
615.19,2479.1
615.684,2492.1
616.179,2487.05
616.673,2483.9
617.168,2485.45
617.662,2484.15
618.156,2480.9
618.65,2499.2
619.144,2504.0
619.638,2504.35
620.131,2493.15
620.625,2503.65
621.119,2527.2
621.612,2565.3
622.106,2622.95
622.599,2603.35
623.093,2527.65
623.586,2485.3
624.079,2493.05
624.572,2482.0
625.065,2488.8
625.558,2525.4
626.051,2550.8
626.544,2768.95
627.037,4275.2
627.529,4188.65
628.022,3835.4
628.514,4700.85
629.007,3968.75
629.499,3674.9
629.991,3362.4
630.483,3290.55
630.976,2934.6
631.468,2630.65
631.959,2554.25
632.451,2481.7
632.943,2480.5
633.435,2438.95
633.926,2428.45
634.418,2405.0
634.909,2434.9
635.401,2404.65
635.892,2397.5
636.383,2401.7
636.874,2369.7
637.365,2382.05
637.856,2382.9
638.347,2380.85
638.838,2361.75
639.329,2357.25
639.819,2343.4
640.31,2364.55
640.8,2346.35
641.291,2347.9
641.781,2358.15
642.271,2337.1
642.761,2338.7
643.251,2350.0
643.741,2328.15
644.231,2330.5
644.721,2321.15
645.211,2319.1
645.7,2312.2
646.19,2329.85
646.679,2318.25
647.169,2322.25
647.658,2303.05
648.147,2317.15
648.636,2292.6
649.125,2315.65
649.614,2295.8
650.103,2299.05
650.592,2304.75
651.08,2298.0
651.569,2289.15
652.058,2283.75
652.546,2272.9
653.034,2272.4
653.523,2266.7
654.011,2267.6
654.499,2271.15
654.987,2253.9
655.475,2253.9
655.963,2254.2
656.45,2248.45
656.938,2232.1
657.425,2234.3
657.913,2216.55
658.4,2217.15
658.888,2200.7
659.375,2190.4
659.862,2199.95
660.349,2190.55
660.836,2175.5
661.079,2172.65