File: spectra/VLFR_02-HDPE_bio_Raman_0882fc36.csv
nm,Intensity
526.508,832.4
527.055,830.4
527.602,832.0
528.149,830.0
528.695,831.6
529.241,830.6
529.787,831.4
530.334,829.5
530.879,831.5
531.425,830.3
531.971,834.3
532.516,830.7
533.062,830.4
533.607,831.1
534.152,889.6
534.697,878.9
535.242,870.2
535.786,857.6
536.331,855.8
536.876,851.8
537.42,853.8
537.964,851.6
538.508,851.6
539.052,847.9
539.596,845.7
540.14,841.5
540.683,844.1
541.227,842.0
541.77,842.8
542.313,842.3
542.856,841.6
543.399,842.0
543.942,840.7
544.485,842.5
545.027,840.6
545.57,843.2
546.112,839.0
546.654,841.4
547.196,842.3
547.738,842.0
548.28,842.2
548.822,842.5
549.363,840.8
549.905,841.4
550.446,841.0
550.988,842.1
551.529,842.4
552.07,841.5
552.611,840.6
553.152,843.2
553.692,843.0
554.233,842.8
554.773,843.4
555.314,844.9
555.854,847.4
556.394,847.0
556.934,847.1
557.474,852.9
558.014,853.7
558.553,854.8
559.093,851.5
559.632,850.3
560.172,849.8
560.711,847.4
561.25,845.7
561.789,848.4
562.328,850.3
562.867,853.0
563.406,856.9
563.944,936.7
564.483,876.6
565.021,870.3
565.559,863.1
566.098,1004.2
566.636,871.0
567.174,856.9
567.711,859.7
568.249,853.7
568.787,853.3
569.324,853.8
569.862,855.4
570.399,859.3
570.936,867.4
571.474,1010.2
572.011,884.2
572.548,863.8
573.084,856.5
573.621,858.1
574.158,865.8
574.694,856.1
575.231,864.9
575.767,928.2
576.303,982.7
576.84,930.8
577.376,900.6
577.912,868.8
578.447,865.0
578.983,862.3
579.519,863.7
580.054,862.7
580.59,867.1
581.125,864.7
581.661,863.4
582.196,865.7
582.731,870.1
583.266,870.3
583.801,867.9
584.336,868.4
584.87,869.8
585.405,870.3
585.94,870.0
586.474,873.2
587.008,875.3
587.543,873.8
588.077,871.0
588.611,875.1
589.145,875.7
589.679,875.5
590.213,875.5
590.747,876.3
591.28,879.2
591.814,879.9
592.347,879.7
592.881,879.5
593.414,883.6
593.947,882.3
594.48,887.6
595.014,885.0
595.547,889.2
596.079,884.9
596.612,890.2
597.145,889.0
597.678,893.7
598.21,893.6
598.743,896.7
599.275,898.9
599.807,899.5
600.34,896.8
600.872,900.3
601.404,897.1
601.936,900.6
602.468,902.2
603.0,897.9
603.532,896.5
604.063,897.5
604.595,892.3
605.126,892.9
605.658,887.9
606.189,889.9
606.721,889.7
607.252,885.8
607.783,884.7
608.314,885.1
608.845,881.1
609.376,881.4
609.907,883.4
610.438,882.5
610.968,882.7
611.499,881.6
612.03,880.0
612.56,880.3
613.091,879.7
613.621,879.8
614.151,876.2
614.681,877.5
615.212,878.6
615.742,876.7
616.272,879.1
616.802,879.7
617.332,881.9
617.861,883.1
618.391,881.7
618.921,881.4
619.45,880.9
619.98,882.4
620.509,885.5
621.039,888.5
621.568,893.8
622.097,914.7
622.627,913.2
623.156,892.2
623.685,883.6
624.214,881.1
624.743,886.5
625.272,886.1
625.801,896.2
626.33,916.8
626.858,1125.7
627.387,1530.5
627.916,1245.7
628.444,1434.8
628.973,1367.8
629.501,1237.8
630.029,1125.6
630.558,1103.9
631.086,982.1
631.614,913.6
632.142,893.6
632.67,886.7
633.198,883.2
633.726,879.9
634.254,879.5
634.782,875.7
635.31,874.0
635.838,872.4
636.365,874.1
636.893,873.1
637.421,872.1
637.948,868.9
638.476,869.7
639.003,867.0
639.531,868.9
640.058,868.7
640.585,867.1
641.113,869.0
641.64,868.1
642.167,868.5
642.694,869.1
643.221,867.0
643.748,865.3
644.275,865.7
644.802,865.3
645.329,866.6
645.856,864.9
646.382,865.5
646.909,869.7
647.436,867.3
647.962,865.5
648.489,868.8
649.016,866.3
649.542,868.3
650.069,868.3
650.595,864.9
651.121,865.6
651.648,867.0
652.174,866.2
652.7,867.1
653.227,867.4
653.753,867.5
654.279,865.1
654.805,865.8
655.331,867.5
655.857,865.6
656.383,864.2
656.909,866.2
657.435,866.5
657.961,863.2
658.487,864.2
659.013,863.0
659.538,864.0
660.064,863.9
660.59,865.7
661.116,862.2
661.641,860.4
662.167,862.3
662.692,857.9
663.087,857.7