File: spectra/VLFR_08-PLA_bio_Raman_ea5251ca.csv
nm,Intensity
528.65,1836.2
529.155,1835.45
529.66,1834.3
530.165,1834.7
530.67,1833.8
531.175,1837.7
531.68,1870.2
532.185,4143.35
532.69,1836.95
533.194,1840.45
533.699,2412.15
534.204,3694.85
534.708,3347.3
535.213,3079.65
535.717,2806.35
536.222,2738.05
536.726,2770.4
537.231,2630.95
537.735,2639.2
538.239,2529.8
538.743,2475.85
539.247,2478.75
539.751,2362.8
540.255,2452.9
540.759,2587.05
541.263,2565.35
541.767,2452.65
542.271,2418.95
542.775,2477.0
543.279,2707.85
543.782,2821.7
544.286,2637.3
544.789,2428.5
545.293,2368.15
545.796,2338.55
546.3,2340.2
546.803,2374.35
547.306,2381.0
547.81,2366.55
548.313,2375.6
548.816,2390.1
549.319,2422.7
549.822,2403.25
550.325,2404.1
550.828,2452.4
551.331,2462.4
551.834,2510.8
552.337,2544.9
552.839,2566.55
553.342,2468.2
553.844,2617.75
554.347,2552.35
554.849,2490.75
555.352,2424.9
555.854,2399.5
556.357,2412.25
556.859,2455.45
557.361,2689.1
557.863,4030.3
558.365,3513.35
558.867,2694.9
559.369,2619.4
559.871,2558.85
560.373,2499.35
560.875,2475.4
561.377,2443.2
561.878,2466.3
562.38,2476.9
562.881,2669.05
563.383,3072.6
563.884,2791.2
564.386,2603.4
564.887,2892.35
565.388,2880.65
565.89,3096.15
566.391,3032.45
566.892,2588.6
567.393,2528.05
567.894,2675.05
568.395,2649.2
568.896,2621.3
569.396,2596.95
569.897,2564.15
570.398,2574.6
570.898,2616.95
571.399,2844.65
571.9,2933.7
572.4,2792.4
572.9,2793.8
573.401,2805.8
573.901,2773.65
574.401,2862.15
574.901,2658.65
575.401,2603.65
575.901,2652.9
576.401,3224.8
576.901,3601.05
577.401,2808.1
577.901,2618.05
578.4,2568.9
578.9,2569.8
579.399,2569.6
579.899,2561.9
580.398,2560.8
580.898,2563.0
581.397,2557.55
581.896,2567.8
582.395,2560.7
582.895,2561.25
583.394,2587.25
583.893,2590.1
584.391,2586.25
584.89,2597.2
585.389,2581.3
585.888,2604.0
586.386,2777.25
586.885,3292.0
587.384,3537.2
587.882,3160.85
588.38,2690.0
588.879,2613.5
589.377,2564.05
589.875,2569.0
590.373,2548.0
590.871,2569.45
591.369,2575.1
591.867,2560.05
592.365,2558.25
592.863,2560.85
593.361,2538.05
593.858,2555.8
594.356,2560.6
594.853,2554.9
595.351,2542.65
595.848,2583.65
596.345,2549.25
596.843,2569.4
597.34,2551.5
597.837,2558.2
598.334,2569.15
598.831,2572.4
599.328,2550.95
599.824,2556.4
600.321,2558.2
600.818,2566.35
601.314,2565.45
601.811,2551.05
602.307,2574.05
602.804,2550.5
603.3,2553.1
603.796,2527.8
604.293,2541.05
604.789,2544.5
605.285,2539.25
605.781,2519.9
606.277,2526.95
606.772,2538.5
607.268,2541.9
607.764,2544.25
608.259,2531.4
608.755,2552.15
609.25,2549.95
609.746,2521.85
610.241,2550.35
610.736,2538.05
611.231,2526.55
611.727,2549.1
612.222,2500.6
612.716,2511.15
613.211,2533.2
613.706,2509.35
614.201,2528.55
614.695,2522.6
615.19,2517.9
615.684,2519.1
616.179,2540.55
616.673,2525.5
617.168,2536.95
617.662,2510.55
618.156,2502.5
618.65,2490.75
619.144,2505.6
619.638,2490.0
620.131,2501.55
620.625,2498.7
621.119,2493.85
621.612,2497.25
622.106,2539.9
622.599,2649.45
623.093,2660.05
623.586,2652.6
624.079,2544.4
624.572,2537.45
625.065,2503.5
625.558,2489.7
626.051,2524.9
626.544,2521.0
627.037,2518.4
627.529,2560.35
628.022,2902.0
628.514,3723.85
629.007,3388.65
629.499,3436.55
629.991,3539.2
630.483,4526.3
630.976,9416.3
631.468,7049.8
631.959,4633.65
632.451,4103.85
632.943,4908.2
633.435,5443.2
633.926,4135.35
634.418,3133.0
634.909,2691.15
635.401,2555.9
635.892,2487.65
636.383,2480.15
636.874,2441.15
637.365,2411.95
637.856,2430.0
638.347,2402.85
638.838,2397.65
639.329,2419.3
639.819,2388.3
640.31,2387.55
640.8,2375.75
641.291,2404.75
641.781,2395.9
642.271,2402.1
642.761,2379.35
643.251,2364.85
643.741,2344.8
644.231,2347.45
644.721,2297.55
645.211,2320.75
645.7,2302.15
646.19,2296.15
646.679,2324.9
647.169,2272.95
647.658,2296.55
648.147,2286.55
648.636,2270.45
649.125,2274.9
649.614,2266.85
650.103,2256.3
650.592,2268.9
651.08,2251.35
651.569,2243.95
652.058,2242.9
652.546,2224.8
653.034,2237.1
653.523,2224.4
654.011,2215.25
654.499,2214.45
654.987,2210.4
655.475,2201.75
655.963,2202.95
656.45,2208.8
656.938,2182.85
657.425,2217.3
657.913,2195.05
658.4,2174.3
658.888,2184.75
659.375,2155.6
659.862,2153.8
660.349,2160.2
660.836,2146.5
661.079,2139.25