File: spectra/VLFR_08-PLA_bio_Raman_2d0dc074.csv
nm,Intensity
526.495,826.5
527.042,828.4
527.589,827.9
528.136,827.5
528.682,827.6
529.229,827.3
529.775,825.6
530.321,827.1
530.867,826.1
531.413,827.2
531.959,827.8
532.505,826.6
533.051,825.7
533.596,829.8
534.141,935.7
534.687,917.2
535.232,905.6
535.777,898.4
536.321,894.5
536.866,893.5
537.41,891.4
537.955,896.6
538.499,889.3
539.043,886.3
539.587,886.8
540.131,884.4
540.675,894.1
541.219,895.6
541.762,891.9
542.305,892.0
542.849,895.0
543.392,898.9
543.935,900.5
544.478,897.3
545.02,897.6
545.563,894.9
546.106,893.2
546.648,895.7
547.19,895.0
547.732,892.4
548.274,896.2
548.816,899.5
549.358,902.5
549.9,900.9
550.441,900.3
550.983,904.4
551.524,905.6
552.065,901.4
552.606,904.8
553.147,903.6
553.688,905.6
554.229,909.9
554.769,907.6
555.31,906.9
555.85,899.0
556.391,906.0
556.931,906.1
557.471,910.2
558.011,949.3
558.551,917.9
559.09,912.4
559.63,911.3
560.169,909.3
560.709,911.6
561.248,909.4
561.787,911.4
562.326,932.3
562.865,917.7
563.404,925.2
563.943,921.2
564.481,919.9
565.02,925.6
565.558,925.7
566.096,937.6
566.634,922.8
567.172,919.2
567.71,919.7
568.248,916.7
568.786,919.9
569.324,924.8
569.861,920.2
570.399,924.3
570.936,923.8
571.473,928.7
572.01,930.2
572.547,925.2
573.084,929.6
573.621,929.1
574.158,931.2
574.694,934.8
575.231,928.1
575.767,927.7
576.303,934.2
576.84,960.5
577.376,933.9
577.912,928.5
578.448,930.4
578.984,930.9
579.519,931.3
580.055,933.1
580.59,929.2
581.126,930.2
581.661,930.6
582.196,931.1
582.731,936.2
583.267,933.9
583.801,934.4
584.336,939.1
584.871,935.8
585.406,935.7
585.94,936.2
586.475,943.0
587.009,952.3
587.543,962.2
588.078,946.5
588.612,940.3
589.146,936.7
589.68,935.7
590.214,940.4
590.747,934.7
591.281,940.1
591.815,932.2
592.348,938.5
592.881,939.2
593.415,937.9
593.948,938.4
594.481,936.8
595.014,939.2
595.547,935.4
596.08,936.0
596.613,939.4
597.146,935.6
597.678,937.5
598.211,938.3
598.743,939.8
599.276,945.3
599.808,939.1
600.34,942.4
600.872,938.7
601.404,936.6
601.936,938.6
602.468,938.7
603.0,939.9
603.532,939.9
604.064,937.5
604.595,934.9
605.127,936.4
605.658,937.7
606.189,934.8
606.721,931.3
607.252,936.0
607.783,940.1
608.314,933.9
608.845,931.9
609.376,934.2
609.907,936.9
610.438,933.7
610.968,934.7
611.499,937.5
612.029,935.2
612.56,934.2
613.09,936.6
613.621,938.1
614.151,934.0
614.681,935.1
615.211,939.5
615.741,937.2
616.271,932.4
616.801,933.5
617.331,935.6
617.861,938.0
618.39,935.4
618.92,936.5
619.45,934.0
619.979,935.3
620.509,932.1
621.038,932.7
621.567,930.9
622.096,934.9
622.626,941.7
623.155,941.4
623.684,935.9
624.213,938.0
624.742,932.4
625.271,931.9
625.799,932.0
626.328,932.1
626.857,936.3
627.386,934.6
627.914,932.6
628.443,959.7
628.971,958.8
629.5,953.0
630.028,959.3
630.556,986.3
631.084,1125.5
631.613,1036.9
632.141,983.8
632.669,978.5
633.197,1013.9
633.725,999.0
634.253,958.8
634.781,937.4
635.308,933.7
635.836,933.2
636.364,928.8
636.891,925.2
637.419,922.6
637.947,926.7
638.474,927.6
639.002,924.1
639.529,923.0
640.056,926.9
640.584,926.5
641.111,926.7
641.638,925.4
642.165,923.7
642.692,923.3
643.219,925.2
643.746,922.1
644.273,921.8
644.8,922.1
645.327,919.5
645.854,921.5
646.381,921.4
646.908,924.8
647.434,919.7
647.961,921.2
648.488,926.9
649.014,927.7
649.541,925.9
650.067,932.2
650.594,926.6
651.12,932.7
651.646,932.1
652.173,927.8
652.699,921.8
653.225,922.2
653.752,917.4
654.278,920.9
654.804,914.3
655.33,915.8
655.856,913.4
656.382,911.7
656.908,913.2
657.434,911.2
657.96,907.5
658.486,907.6
659.012,905.7
659.538,910.2
660.064,910.2
660.589,906.1
661.115,903.1
661.641,907.7
662.166,904.5
662.692,905.3
663.086,903.5