File: spectra/VLFR_01-LDPE_bio_Raman_672cbd8f.csv
nm,Intensity
526.508,830.2
527.055,830.2
527.602,829.0
528.149,831.6
528.695,829.9
529.241,829.7
529.787,829.7
530.334,830.1
530.879,829.0
531.425,829.8
531.971,832.7
532.516,831.1
533.062,829.9
533.607,830.0
534.152,915.3
534.697,898.5
535.242,882.4
535.786,866.7
536.331,859.7
536.876,859.1
537.42,859.1
537.964,860.1
538.508,856.2
539.052,853.7
539.596,850.8
540.14,848.7
540.683,847.5
541.227,848.3
541.77,844.3
542.313,845.5
542.856,845.1
543.399,846.0
543.942,846.1
544.485,845.7
545.027,845.1
545.57,843.5
546.112,841.8
546.654,842.2
547.196,844.5
547.738,843.8
548.28,842.6
548.822,842.2
549.363,843.2
549.905,843.0
550.446,841.2
550.988,841.3
551.529,841.3
552.07,841.2
552.611,841.4
553.152,843.0
553.692,846.6
554.233,848.8
554.773,848.8
555.314,847.5
555.854,850.3
556.394,852.5
556.934,854.5
557.474,855.7
558.014,860.6
558.553,857.6
559.093,858.9
559.632,854.4
560.172,852.5
560.711,853.7
561.25,855.0
561.789,857.2
562.328,860.1
562.867,862.9
563.406,868.1
563.944,928.2
564.483,892.0
565.021,885.9
565.559,878.5
566.098,956.7
566.636,886.2
567.174,876.9
567.711,878.6
568.249,873.6
568.787,875.9
569.324,875.9
569.862,881.5
570.399,889.7
570.936,902.6
571.474,1008.0
572.011,945.2
572.548,918.8
573.084,916.9
573.621,923.4
574.158,937.9
574.694,937.4
575.231,949.3
575.767,1002.7
576.303,1118.8
576.84,1066.6
577.376,1040.4
577.912,1007.4
578.447,1015.2
578.983,1033.5
579.519,1049.6
580.054,1064.5
580.59,1084.1
581.125,1103.3
581.661,1118.5
582.196,1138.6
582.731,1153.0
583.266,1172.1
583.801,1202.5
584.336,1213.0
584.87,1222.0
585.405,1251.1
585.94,1261.2
586.474,1292.8
587.008,1316.2
587.543,1343.1
588.077,1360.6
588.611,1379.1
589.145,1400.2
589.679,1421.8
590.213,1442.8
590.747,1464.7
591.28,1483.0
591.814,1492.8
592.347,1506.0
592.881,1508.6
593.414,1507.9
593.947,1522.6
594.48,1523.9
595.014,1533.5
595.547,1540.6
596.079,1537.1
596.612,1553.2
597.145,1569.7
597.678,1576.7
598.21,1587.7
598.743,1596.2
599.275,1606.5
599.807,1615.2
600.34,1600.9
600.872,1604.4
601.404,1607.0
601.936,1584.3
602.468,1573.6
603.0,1558.7
603.532,1544.3
604.063,1521.5
604.595,1485.2
605.126,1454.1
605.658,1430.0
606.189,1398.5
606.721,1376.3
607.252,1355.8
607.783,1333.2
608.314,1324.8
608.845,1306.9
609.376,1289.7
609.907,1276.2
610.438,1259.7
610.968,1251.8
611.499,1239.5
612.03,1228.4
612.56,1221.5
613.091,1216.1
613.621,1213.5
614.151,1200.8
614.681,1202.0
615.212,1183.8
615.742,1178.8
616.272,1161.5
616.802,1163.1
617.332,1159.9
617.861,1160.8
618.391,1144.9
618.921,1149.4
619.45,1142.3
619.98,1144.3
620.509,1136.4
621.039,1143.2
621.568,1141.0
622.097,1170.3
622.627,1176.4
623.156,1142.1
623.685,1127.6
624.214,1129.6
624.743,1133.5
625.272,1135.0
625.801,1143.9
626.33,1168.3
626.858,1386.6
627.387,1920.0
627.916,1599.3
628.444,1822.6
628.973,1726.2
629.501,1593.3
630.029,1468.1
630.558,1448.2
631.086,1301.5
631.614,1209.1
632.142,1181.3
632.67,1161.4
633.198,1171.4
633.726,1161.8
634.254,1162.9
634.782,1168.0
635.31,1173.4
635.838,1171.8
636.365,1171.6
636.893,1176.8
637.421,1187.2
637.948,1184.3
638.476,1175.2
639.003,1196.6
639.531,1195.1
640.058,1196.6
640.585,1199.2
641.113,1213.9
641.64,1205.9
642.167,1216.4
642.694,1221.8
643.221,1217.0
643.748,1218.3
644.275,1224.1
644.802,1218.4
645.329,1222.4
645.856,1218.4
646.382,1216.9
646.909,1224.8
647.436,1220.3
647.962,1221.0
648.489,1215.5
649.016,1207.6
649.542,1204.6
650.069,1211.4
650.595,1199.9
651.121,1202.5
651.648,1204.8
652.174,1200.8
652.7,1202.8
653.227,1204.1
653.753,1200.4
654.279,1192.2
654.805,1189.8
655.331,1185.5
655.857,1181.9
656.383,1178.4
656.909,1173.5
657.435,1174.5
657.961,1165.4
658.487,1156.2
659.013,1145.1
659.538,1128.7
660.064,1126.2
660.59,1110.6
661.116,1103.8
661.641,1089.6
662.167,1080.0
662.692,1070.1
663.087,1061.3