File: spectra/VLFR_08-PLA_nobio_Raman_80a58d07.csv
nm,Intensity
526.5,829.1
527.047,829.3
527.594,829.4
528.14,828.3
528.687,827.3
529.233,830.1
529.779,829.1
530.325,828.8
530.871,828.2
531.417,827.9
531.962,830.9
532.508,828.6
533.053,829.1
533.599,831.0
534.144,1026.2
534.689,985.0
535.234,948.4
535.778,929.4
536.323,924.9
536.867,927.8
537.412,919.0
537.956,916.0
538.5,902.2
539.044,902.1
539.588,901.6
540.132,893.6
540.675,911.6
541.219,910.3
541.762,904.6
542.305,898.6
542.848,899.8
543.391,921.4
543.934,928.9
544.477,908.1
545.02,895.7
545.562,893.9
546.105,893.3
546.647,895.4
547.189,900.7
547.731,895.2
548.273,900.1
548.815,900.7
549.356,901.5
549.898,902.6
550.439,902.5
550.981,905.0
551.522,909.7
552.063,904.2
552.604,912.9
553.145,910.7
553.686,906.7
554.226,918.7
554.767,910.9
555.307,903.0
555.848,901.6
556.388,900.5
556.928,903.5
557.468,921.4
558.008,1028.9
558.547,939.5
559.087,918.9
559.626,916.6
560.166,909.8
560.705,910.9
561.244,905.5
561.783,907.1
562.322,909.0
562.861,916.8
563.4,950.2
563.939,932.4
564.477,917.1
565.015,943.6
565.554,933.0
566.092,970.3
566.63,932.7
567.168,912.9
567.706,920.3
568.244,920.6
568.781,921.8
569.319,919.1
569.857,912.0
570.394,917.6
570.931,922.9
571.468,937.2
572.005,940.2
572.542,932.2
573.079,930.5
573.616,937.6
574.153,931.2
574.689,942.5
575.226,924.0
575.762,925.8
576.298,941.4
576.834,1002.5
577.371,949.0
577.907,923.3
578.442,928.0
578.978,924.3
579.514,923.7
580.049,924.6
580.585,924.8
581.12,927.2
581.656,926.4
582.191,926.7
582.726,926.4
583.261,928.8
583.796,930.1
584.331,924.3
584.865,929.0
585.4,926.9
585.935,929.5
586.469,942.2
587.004,972.5
587.538,996.9
588.072,949.9
588.606,932.3
589.14,927.6
589.674,927.4
590.208,927.9
590.742,927.9
591.275,928.0
591.809,927.3
592.342,928.1
592.876,927.0
593.409,925.8
593.942,926.7
594.476,925.6
595.009,926.5
595.542,930.7
596.075,930.1
596.607,930.3
597.14,929.8
597.673,928.6
598.205,925.4
598.738,931.2
599.27,928.0
599.803,928.2
600.335,929.8
600.867,928.0
601.399,927.5
601.931,929.1
602.463,925.2
602.995,927.5
603.527,927.5
604.058,924.6
604.59,923.6
605.122,927.1
605.653,926.7
606.184,921.3
606.716,924.9
607.247,922.8
607.778,925.0
608.309,924.7
608.84,926.7
609.371,922.0
609.902,925.2
610.433,919.2
610.964,924.9
611.494,924.3
612.025,924.2
612.556,924.5
613.086,923.1
613.616,927.5
614.147,929.6
614.677,928.3
615.207,928.1
615.737,929.0
616.267,926.5
616.797,924.5
617.327,932.3
617.857,926.1
618.387,927.0
618.917,928.1
619.446,924.2
619.976,926.1
620.505,924.9
621.035,924.6
621.564,928.7
622.093,923.9
622.623,935.7
623.152,940.3
623.681,937.6
624.21,927.7
624.739,925.1
625.268,924.9
625.797,923.1
626.326,922.6
626.855,926.6
627.383,925.1
627.912,940.2
628.441,1000.8
628.969,991.7
629.498,991.3
630.026,993.5
630.554,1055.9
631.083,1436.6
631.611,1189.8
632.139,1051.9
632.667,1031.8
633.195,1122.7
633.724,1086.8
634.252,995.4
634.779,945.3
635.307,930.0
635.835,924.1
636.363,920.8
636.891,920.4
637.418,920.1
637.946,916.0
638.474,916.2
639.001,919.3
639.529,915.3
640.056,917.5
640.583,914.5
641.111,920.1
641.638,916.5
642.165,916.0
642.692,916.5
643.22,910.5
643.747,910.0
644.274,908.2
644.801,909.0
645.328,908.4
645.854,907.4
646.381,906.9
646.908,907.9
647.435,907.6
647.962,907.5
648.488,907.7
649.015,905.7
649.542,905.9
650.068,904.4
650.595,904.5
651.121,905.2
651.648,906.1
652.174,901.1
652.7,901.4
653.227,905.0
653.753,906.2
654.279,903.5
654.805,901.0
655.331,902.6
655.858,903.4
656.384,902.4
656.91,899.9
657.436,906.9
657.962,899.7
658.488,898.8
659.013,897.5
659.539,900.4
660.065,899.4
660.591,898.0
661.117,903.3
661.642,899.5
662.168,895.2
662.694,898.5
663.088,898.4