File: spectra/VLFR_02-HDPE_bio_Raman_c1bb3e59.csv
nm,Intensity
528.629,1854.6
529.134,1852.45
529.639,1853.15
530.145,1852.35
530.65,1852.8
531.155,1852.85
531.66,1874.3
532.165,2554.1
532.67,1854.45
533.175,1853.45
533.68,1857.7
534.185,1871.4
534.69,1876.15
535.195,1872.15
535.699,1872.75
536.204,1871.4
536.709,1872.2
537.213,1874.05
537.718,1875.1
538.222,1873.45
538.727,1877.25
539.231,1876.3
539.735,1878.4
540.239,1878.55
540.744,1876.7
541.248,1878.7
541.752,1876.55
542.256,1882.1
542.76,1877.45
543.264,1878.75
543.768,1877.6
544.271,1881.6
544.775,1878.4
545.279,1882.45
545.783,1878.15
546.286,1878.7
546.79,1882.4
547.293,1881.6
547.797,1881.8
548.3,1881.5
548.803,1884.95
549.306,1885.35
549.81,1884.35
550.313,1889.55
550.816,1885.05
551.319,1885.4
551.822,1887.9
552.325,1886.35
552.828,1887.4
553.33,1887.55
553.833,1887.25
554.336,1888.85
554.838,1891.3
555.341,1890.3
555.843,1891.9
556.346,1894.45
556.848,1892.6
557.35,1891.8
557.853,1893.15
558.355,1890.3
558.857,1893.15
559.359,1895.45
559.861,1895.25
560.363,1896.35
560.865,1895.15
561.367,1896.95
561.869,1895.85
562.37,1902.25
562.872,1895.7
563.374,1895.25
563.875,1896.95
564.376,1898.3
564.878,1895.75
565.379,1899.25
565.881,1902.1
566.382,1901.25
566.883,1899.0
567.384,1899.7
567.885,1901.3
568.386,1902.05
568.887,1900.9
569.388,1902.0
569.888,1903.75
570.389,1900.15
570.89,1901.25
571.39,1904.55
571.891,1903.15
572.391,1903.0
572.892,1904.9
573.392,1907.05
573.892,1901.9
574.393,1902.75
574.893,1905.2
575.393,1906.9
575.893,1907.75
576.393,1909.6
576.893,1903.05
577.392,1904.45
577.892,1907.25
578.392,1905.55
578.891,1904.05
579.391,1906.75
579.89,1910.95
580.39,1910.8
580.889,1908.25
581.388,1910.5
581.888,1910.0
582.387,1914.05
582.886,1906.9
583.385,1908.55
583.884,1911.2
584.383,1907.3
584.881,1910.15
585.38,1909.45
585.879,1910.2
586.377,1909.55
586.876,1911.2
587.374,1912.65
587.873,1908.75
588.371,1909.1
588.869,1912.45
589.368,1910.15
589.866,1910.9
590.364,1911.3
590.862,1911.35
591.36,1913.2
591.857,1908.65
592.355,1911.9
592.853,1906.15
593.35,1908.5
593.848,1910.0
594.345,1913.9
594.843,1910.35
595.34,1912.15
595.837,1914.15
596.335,1914.7
596.832,1913.45
597.329,1912.2
597.826,1914.2
598.323,1914.0
598.819,1915.4
599.316,1915.95
599.813,1909.6
600.309,1919.95
600.806,1915.25
601.302,1912.4
601.799,1918.3
602.295,1916.0
602.791,1915.8
603.288,1913.6
603.784,1913.1
604.28,1914.8
604.776,1915.35
605.272,1913.65
605.767,1920.0
606.263,1912.7
606.759,1917.15
607.254,1919.0
607.75,1917.8
608.245,1916.3
608.74,1916.8
609.236,1914.2
609.731,1911.75
610.226,1911.4
610.721,1918.3
611.216,1919.15
611.711,1917.7
612.206,1913.65
612.7,1915.25
613.195,1909.0
613.69,1910.8
614.184,1912.8
614.679,1912.9
615.173,1912.75
615.667,1916.45
616.161,1910.3
616.656,1915.2
617.15,1913.15
617.644,1911.35
618.137,1910.8
618.631,1910.1
619.125,1912.9
619.619,1911.2
620.112,1911.65
620.606,1911.2
621.099,1911.15
621.592,1915.35
622.086,1910.45
622.579,1914.75
623.072,1913.2
623.565,1911.1
624.058,1910.3
624.551,1909.25
625.043,1908.55
625.536,1909.45
626.029,1912.45
626.521,1911.3
627.014,1915.25
627.506,1913.8
627.998,1915.85
628.49,1917.75
628.983,1909.75
629.475,1910.6
629.966,1910.05
630.458,1909.45
630.95,1908.5
631.442,1905.45
631.933,1908.45
632.425,1906.15
632.916,1905.15
633.408,1905.2
633.899,1905.1
634.39,1908.15
634.881,1909.4
635.372,1903.4
635.863,1901.65
636.354,1905.9
636.845,1903.5
637.336,1904.15
637.826,1899.4
638.317,1900.25
638.807,1900.1
639.298,1903.1
639.788,1904.5
640.278,1904.7
640.768,1897.1
641.258,1899.95
641.748,1900.25
642.238,1901.1
642.728,1900.0
643.217,1898.4
643.707,1897.65
644.197,1897.45
644.686,1904.3
645.175,1896.15
645.664,1895.2
646.154,1898.7
646.643,1895.9
647.132,1896.75
647.621,1896.45
648.109,1898.0
648.598,1900.25
649.087,1894.65
649.575,1897.5
650.064,1898.7
650.552,1896.85
651.04,1891.5
651.528,1891.45
652.017,1894.15
652.505,1895.55
652.992,1895.3
653.48,1891.0
653.968,1893.1
654.456,1890.85
654.943,1890.4
655.431,1893.25
655.918,1888.3
656.405,1889.45
656.893,1889.65
657.38,1889.45
657.867,1887.75
658.354,1882.1
658.84,1886.05
659.327,1885.5
659.814,1884.8
660.3,1884.1
660.787,1884.45
661.03,1883.9