File: spectra/VLFR_01-LDPE_bio_Raman_5457e528.csv
nm,Intensity
528.635,1834.3
529.14,1836.5
529.645,1832.6
530.151,1834.3
530.656,1836.1
531.161,1839.3
531.666,1871.2
532.171,4151.7
532.676,1837.4
533.181,1836.8
533.686,2061.8
534.191,2589.8
534.696,2520.6
535.201,2489.1
535.705,2363.9
536.21,2306.7
536.715,2309.4
537.219,2311.7
537.724,2302.7
538.228,2272.2
538.733,2270.9
539.237,2248.0
539.741,2229.3
540.246,2217.2
540.75,2222.8
541.254,2224.8
541.758,2211.4
542.262,2225.3
542.766,2237.7
543.27,2249.0
543.774,2239.4
544.278,2243.2
544.781,2265.9
545.285,2259.9
545.789,2250.6
546.292,2250.3
546.796,2249.9
547.299,2255.0
547.803,2238.4
548.306,2236.1
548.809,2256.4
549.313,2226.4
549.816,2228.4
550.319,2227.7
550.822,2244.9
551.325,2268.2
551.828,2259.6
552.331,2263.4
552.834,2274.6
553.337,2296.1
553.839,2299.7
554.342,2333.8
554.845,2329.2
555.347,2341.4
555.85,2337.9
556.352,2361.6
556.854,2381.1
557.357,2383.5
557.859,2432.2
558.361,2458.1
558.863,2429.4
559.365,2385.1
559.867,2400.9
560.369,2387.8
560.871,2390.0
561.373,2389.5
561.875,2405.3
562.377,2431.4
562.878,2473.2
563.38,2518.4
563.881,3118.0
564.383,2756.1
564.884,2643.4
565.386,2564.5
565.887,2913.4
566.388,2859.4
566.889,2522.5
567.391,2566.5
567.892,2469.9
568.393,2431.3
568.893,2454.9
569.394,2457.8
569.895,2456.3
570.396,2496.6
570.897,2601.5
571.397,3543.2
571.898,2966.2
572.398,2647.2
572.899,2541.5
573.399,2546.2
573.899,2611.9
574.399,2495.8
574.9,2519.3
575.4,2818.3
575.9,3182.6
576.4,3895.1
576.899,3529.9
577.399,2982.4
577.899,2682.6
578.399,2662.8
578.898,2658.4
579.398,2690.3
579.897,2690.2
580.397,2696.3
580.896,2751.0
581.396,2715.4
581.895,2748.3
582.394,2773.2
582.893,2795.7
583.392,2763.8
583.891,2831.2
584.39,2850.0
584.889,2850.4
585.387,2861.3
585.886,2947.3
586.385,2931.7
586.883,2952.8
587.382,2977.3
587.88,2995.0
588.379,3032.4
588.877,3024.4
589.375,3009.9
589.873,3050.1
590.371,3077.3
590.869,3074.7
591.367,3124.2
591.865,3120.1
592.363,3056.8
592.86,3079.3
593.358,3103.9
593.856,3107.5
594.353,3111.7
594.851,3102.8
595.348,3108.4
595.845,3109.0
596.342,3126.5
596.84,3140.2
597.337,3149.1
597.834,3177.6
598.331,3157.5
598.827,3203.5
599.324,3184.2
599.821,3191.4
600.318,3157.5
600.814,3168.2
601.311,3170.8
601.807,3173.7
602.303,3156.8
602.8,3115.0
603.296,3099.7
603.792,3070.8
604.288,3021.1
604.784,2958.8
605.28,2918.9
605.776,2915.7
606.272,2916.2
606.767,2865.3
607.263,2869.0
607.758,2805.9
608.254,2807.8
608.749,2735.0
609.244,2754.6
609.74,2735.1
610.235,2741.7
610.73,2728.3
611.225,2706.5
611.72,2689.7
612.215,2644.6
612.709,2619.9
613.204,2626.8
613.699,2614.0
614.193,2593.8
614.688,2604.4
615.182,2589.8
615.676,2590.8
616.171,2585.0
616.665,2605.3
617.159,2623.9
617.653,2631.1
618.147,2606.8
618.641,2609.2
619.134,2637.3
619.628,2656.1
620.122,2625.0
620.615,2655.6
621.109,2697.9
621.602,2812.6
622.095,3002.1
622.588,2901.4
623.082,2684.5
623.575,2617.9
624.068,2590.6
624.56,2630.0
625.053,2629.2
625.546,2664.2
626.039,2859.3
626.531,3711.0
627.024,8322.4
627.516,8092.6
628.008,6852.6
628.501,10299.1
628.993,7379.7
629.485,6293.7
629.977,5201.5
630.469,5054.6
630.961,3877.8
631.452,3067.3
631.944,2840.0
632.436,2702.2
632.927,2645.2
633.418,2590.3
633.91,2542.4
634.401,2502.7
634.892,2495.8
635.383,2469.9
635.874,2468.7
636.365,2462.2
636.856,2425.0
637.347,2421.3
637.837,2406.8
638.328,2409.0
638.818,2397.1
639.309,2379.7
639.799,2399.6
640.289,2374.1
640.78,2379.5
641.27,2381.1
641.76,2358.3
642.249,2356.5
642.739,2335.7
643.229,2346.6
643.719,2341.2
644.208,2382.2
644.698,2347.8
645.187,2340.6
645.676,2351.1
646.165,2324.3
646.655,2336.6
647.144,2314.8
647.633,2312.2
648.121,2306.4
648.61,2312.7
649.099,2310.3
649.587,2273.0
650.076,2277.8
650.564,2272.3
651.053,2261.1
651.541,2283.4
652.029,2249.3
652.517,2244.5
653.005,2242.0
653.493,2223.5
653.981,2220.6
654.468,2229.8
654.956,2223.8
655.444,2204.8
655.931,2197.2
656.418,2211.1
656.906,2200.0
657.393,2182.3
657.88,2150.7
658.367,2165.5
658.854,2162.2
659.341,2146.4
659.827,2137.3
660.314,2124.2
660.8,2138.3
661.044,2118.1