File: spectra/VLFR_07-PET_nobio_Raman_77ff8117.csv
nm,Intensity
791.75,12820.9
792.846,11886.4
793.942,11347.0
795.037,11124.3
796.133,10805.1
797.228,10864.0
798.324,10726.7
799.419,10866.2
800.514,10839.2
801.61,10921.3
802.705,10636.6
803.8,10578.6
804.894,10275.4
805.989,10304.6
807.084,10326.1
808.178,10077.9
809.273,10010.6
810.367,9970.2
811.461,9996.2
812.556,9816.1
813.65,9709.6
814.744,9569.9
815.837,9518.8
816.931,9437.6
818.025,9415.8
819.118,9323.6
820.212,9250.1
821.305,9142.6
822.398,9068.4
823.491,9130.9
824.585,8985.7
825.677,9281.1
826.77,8844.5
827.863,8647.0
828.956,8690.1
830.048,8732.6
831.14,8536.2
832.233,8362.9
833.325,8368.7
834.417,8177.4
835.509,8312.4
836.601,8410.2
837.692,8227.0
838.784,8229.1
839.876,8224.3
840.967,8653.2
842.058,8181.4
843.149,7979.2
844.24,7848.6
845.331,7666.0
846.422,7532.8
847.513,7570.3
848.604,7430.9
849.694,7469.6
850.784,7511.8
851.875,7414.4
852.965,7350.2
854.055,7243.7
855.145,7255.6
856.235,7109.2
857.324,7178.5
858.414,7293.3
859.503,7245.5
860.593,7202.9
861.682,6997.9
862.771,6916.4
863.86,6933.9
864.949,6928.7
866.038,6762.9
867.126,6738.0
868.215,6672.7
869.303,6691.4
870.391,6729.5
871.479,6952.9
872.567,7127.0
873.655,6916.8
874.743,6678.5
875.831,6575.5
876.918,6422.4
878.006,6440.6
879.093,6378.3
880.18,6387.9
881.267,6259.7
882.354,6260.8
883.441,6214.7
884.527,6224.3
885.614,6208.3
886.7,6084.8
887.786,5953.2
888.872,5968.7
889.958,5962.9
891.044,5977.1
892.13,5894.1
893.216,5833.4
894.301,5825.9
895.386,5766.4
896.472,5885.5
897.557,6425.6
898.642,6487.1
899.726,5766.5
900.811,5566.9
901.896,5558.1
902.98,5449.0
904.064,5507.2
905.148,5504.5
906.232,5787.9
907.316,6046.8
908.4,5790.1
909.484,5419.4
910.567,5331.3
911.65,5215.8
912.734,5153.8
913.817,5120.5
914.9,5135.8
915.982,5058.7
917.065,5011.7
918.147,4972.2
919.23,4957.7
920.312,4931.6
921.394,4896.0
922.476,4867.2
923.558,4818.0
924.639,4807.3
925.721,4768.6
926.802,4747.4
927.884,4716.5
928.965,4644.3
930.046,4648.0
931.126,4623.3
932.207,4586.7
933.288,4563.7
934.368,4549.1
935.448,4515.2
936.528,4473.5
937.608,4452.7
938.688,4433.6
939.767,4412.6
940.847,4409.8
941.926,4349.5
943.005,4347.7
944.084,4316.9
945.163,4313.3
946.242,4284.5
947.321,4262.9
948.399,4266.2
949.477,4230.2
950.556,4234.1
951.634,4226.5
952.711,4191.2
953.789,4158.9
954.867,4148.8
955.944,4156.9
957.021,4123.7
958.098,4119.0
959.175,4116.4
960.252,4095.4
961.328,4079.0
962.405,4067.2
963.481,4057.8
964.557,4051.6
965.633,4026.1
966.709,4027.3
967.785,4003.3
968.86,4013.6
969.936,4009.7
971.011,3975.6
972.086,3986.3
973.161,3971.5
974.235,3957.8
975.31,3943.0
976.384,3945.8
977.459,3927.0
978.533,3925.5
979.607,3932.0
980.68,3915.1
981.754,3903.3
982.827,3899.0
983.901,3898.6
984.974,3890.2
986.047,3879.8
987.119,3884.1
988.192,3873.0
989.264,3872.4
990.337,3854.9
991.409,3857.1
992.481,3848.1
993.553,3847.5
994.624,3834.9
995.696,3835.0
996.767,3831.5
997.838,3825.8
998.909,3821.3
999.98,3816.8
1001.05,3808.2
1002.12,3808.1
1003.19,3805.8
1004.26,3801.4
1005.33,3796.2
1006.4,3795.0
1007.47,3787.1
1008.54,3782.9
1009.61,3778.4
1010.68,3778.3
1011.75,3775.9
1012.82,3770.7
1013.88,3772.5
1014.95,3771.4
1016.02,3770.6
1017.09,3769.2
1018.16,3760.9
1019.22,3761.9
1020.29,3762.7
1021.36,3773.7
1022.43,3767.0
1023.49,3767.2
1024.56,3756.2
1025.63,3755.5
1026.69,3745.8
1027.76,3746.4
1028.83,3739.8
1029.89,3738.4
1030.96,3736.5
1032.02,3738.4
1033.09,3735.3
1034.15,3741.7
1035.22,3737.3
1036.28,3738.5
1037.35,3732.9
1038.41,3729.8
1039.48,3726.7
1040.54,3727.1
1041.6,3724.3
1042.67,3724.4
1043.73,3721.9
1044.79,3721.5
1045.86,3718.6
1046.92,3718.3
1047.98,3717.6
1049.05,3719.2
1050.11,3719.6
1051.17,3717.0
1052.23,3716.9
1053.29,3716.7
1054.36,3715.7
1055.42,3715.2
1056.48,3717.1
1057.54,3715.6
1058.6,3714.6
1059.66,3714.2
1060.72,3714.0
1061.78,3715.0
1062.84,3716.2
1063.9,3713.6
1064.96,3714.7
1066.02,3715.3
1067.08,3714.4
1067.88,3711.9