File: spectra/VLFR_01-LDPE_bio_Raman_5603c198.csv
nm,Intensity
528.626,1863.6
529.132,1864.8
529.637,1864.4
530.143,1865.5
530.648,1863.8
531.153,1866.2
531.658,1892.8
532.164,3784.1
532.669,1868.3
533.174,1867.6
533.679,1938.2
534.184,2169.7
534.689,2164.8
535.194,2170.1
535.699,2160.1
536.203,2142.9
536.708,2137.8
537.213,2138.9
537.717,2144.5
538.222,2127.8
538.726,2144.2
539.231,2123.9
539.735,2127.5
540.239,2126.3
540.744,2129.0
541.248,2119.3
541.752,2135.0
542.256,2138.0
542.76,2127.1
543.264,2131.9
543.768,2150.4
544.272,2138.6
544.776,2135.0
545.28,2151.0
545.784,2152.0
546.287,2145.7
546.791,2141.2
547.294,2145.0
547.798,2141.2
548.301,2156.8
548.805,2137.2
549.308,2160.0
549.811,2163.3
550.315,2150.1
550.818,2153.4
551.321,2154.3
551.824,2176.2
552.327,2171.1
552.83,2152.7
553.333,2162.0
553.835,2187.4
554.338,2170.5
554.841,2194.6
555.343,2180.7
555.846,2183.7
556.349,2199.2
556.851,2203.1
557.353,2207.6
557.856,2228.5
558.358,2230.6
558.86,2195.0
559.362,2197.3
559.864,2203.5
560.366,2212.6
560.868,2228.5
561.37,2212.5
561.872,2228.1
562.374,2226.3
562.876,2271.2
563.377,2262.3
563.879,2409.6
564.38,2342.9
564.882,2336.2
565.383,2304.9
565.885,2391.2
566.386,2420.6
566.887,2317.0
567.388,2334.8
567.889,2314.1
568.391,2327.3
568.892,2328.9
569.392,2370.3
569.893,2368.2
570.394,2405.8
570.895,2408.3
571.395,2685.4
571.896,2585.3
572.397,2527.1
572.897,2514.9
573.397,2563.9
573.898,2610.7
574.398,2604.8
574.898,2663.4
575.398,2806.3
575.898,2898.9
576.398,3128.1
576.898,3128.4
577.398,3034.9
577.898,3070.3
578.398,3143.3
578.897,3244.1
579.397,3320.9
579.896,3432.6
580.396,3507.1
580.895,3665.8
581.395,3747.1
581.894,3854.5
582.393,3915.3
582.892,4072.2
583.391,4198.2
583.89,4286.1
584.389,4373.4
584.888,4457.0
585.387,4602.4
585.886,4782.1
586.384,4880.2
586.883,5027.0
587.381,5278.3
587.88,5539.2
588.378,5705.9
588.876,5728.1
589.375,6012.7
589.873,6272.8
590.371,6530.5
590.869,6626.8
591.367,6783.5
591.865,7013.0
592.363,7247.0
592.86,7250.0
593.358,7472.8
593.856,7603.2
594.353,7832.5
594.851,7772.7
595.348,8183.8
595.845,8515.2
596.342,8686.3
596.84,8920.3
597.337,9042.8
597.834,9233.7
598.331,9562.0
598.828,9760.9
599.324,10152.6
599.821,10339.6
600.318,10349.0
600.814,10407.5
601.311,10528.8
601.807,10389.4
602.304,10106.0
602.8,10083.0
603.296,9991.1
603.792,9753.0
604.288,9270.1
604.784,9116.4
605.28,8745.5
605.776,8435.7
606.272,8261.7
606.767,8000.8
607.263,7822.0
607.759,7550.6
608.254,7489.1
608.749,7194.8
609.245,6897.7
609.74,6878.8
610.235,6713.0
610.73,6587.5
611.225,6455.0
611.72,6378.5
612.215,6250.2
612.71,6181.4
613.204,6028.6
613.699,5872.4
614.194,5835.8
614.688,5756.2
615.182,5693.7
615.677,5506.5
616.171,5387.4
616.665,5384.9
617.159,5342.5
617.653,5240.5
618.147,5169.4
618.641,5044.4
619.135,4959.1
619.628,5043.0
620.122,5008.9
620.615,4796.0
621.109,4860.4
621.602,4809.0
622.095,4833.3
622.589,4773.9
623.082,4685.0
623.575,4635.2
624.068,4572.8
624.561,4541.3
625.053,4539.2
625.546,4478.9
626.039,4459.4
626.531,4739.7
627.024,5793.7
627.516,5869.9
628.008,5391.1
628.501,6319.2
628.993,5593.3
629.485,5219.2
629.977,5100.6
630.469,5026.7
630.96,4613.2
631.452,4406.1
631.944,4298.0
632.435,4317.2
632.927,4272.9
633.418,4319.4
633.91,4279.7
634.401,4308.1
634.892,4370.4
635.383,4248.3
635.874,4275.4
636.365,4359.0
636.856,4358.7
637.346,4343.4
637.837,4384.7
638.327,4413.7
638.818,4403.4
639.308,4445.2
639.799,4435.0
640.289,4510.3
640.779,4475.7
641.269,4484.1
641.759,4553.9
642.249,4547.8
642.738,4654.9
643.228,4543.2
643.718,4633.3
644.207,4694.7
644.697,4676.3
645.186,4761.5
645.675,4750.5
646.164,4735.4
646.653,4731.5
647.142,4749.3
647.631,4695.1
648.12,4740.2
648.609,4643.6
649.098,4673.7
649.586,4652.1
650.075,4741.4
650.563,4691.9
651.051,4866.2
651.539,4726.9
652.027,4692.8
652.515,4624.3
653.003,4701.3
653.491,4671.0
653.979,4627.1
654.467,4614.2
654.954,4592.7
655.442,4606.8
655.929,4496.3
656.416,4524.1
656.904,4326.0
657.391,4360.9
657.878,4186.0
658.365,4160.7
658.851,4071.2
659.338,3909.0
659.825,3891.1
660.311,3933.8
660.798,3824.2
661.041,3714.7