File: spectra/VLFR_07-PET_nobio_Raman_42af488a.csv
nm,Intensity
791.377,11799.7
792.477,10668.3
793.576,9994.32
794.676,9563.26
795.775,9605.14
796.874,9334.0
797.973,9346.3
799.072,9266.74
800.171,9105.2
801.27,9187.38
802.368,9265.88
803.467,8852.18
804.565,8865.64
805.664,8766.1
806.762,8647.24
807.86,8626.04
808.958,8491.08
810.056,8448.08
811.153,8484.28
812.251,8275.92
813.349,8209.04
814.446,8182.0
815.543,8190.18
816.64,8075.34
817.737,7955.36
818.834,8024.42
819.931,7896.98
821.028,7900.12
822.125,7808.72
823.221,7681.1
824.317,7590.26
825.414,7708.92
826.51,7652.4
827.606,7422.62
828.702,7369.62
829.797,7265.3
830.893,7397.72
831.988,7158.42
833.084,7231.44
834.179,7025.44
835.274,6960.2
836.369,6976.68
837.464,7044.88
838.559,7107.08
839.654,6980.68
840.748,7115.64
841.843,7227.08
842.937,6877.36
844.031,6909.1
845.125,6724.94
846.219,6590.04
847.313,6585.56
848.407,6492.7
849.5,6428.8
850.593,6457.32
851.687,6434.4
852.78,6412.26
853.873,6399.16
854.966,6373.98
856.059,6284.0
857.151,6270.6
858.244,6319.88
859.336,6442.66
860.428,6420.24
861.52,6273.82
862.612,6114.92
863.704,6103.9
864.796,6184.06
865.888,6050.98
866.979,5988.78
868.07,6007.8
869.162,5974.36
870.253,5964.5
871.344,6062.92
872.434,6332.16
873.525,6330.66
874.615,6072.7
875.706,5854.08
876.796,5842.54
877.886,5767.66
878.976,5696.9
880.066,5648.36
881.156,5694.7
882.245,5644.44
883.335,5644.4
884.424,5577.54
885.513,5545.6
886.602,5569.06
887.691,5449.46
888.78,5424.32
889.868,5368.92
890.957,5349.88
892.045,5387.44
893.133,5300.64
894.221,5248.54
895.309,5244.68
896.397,5244.52
897.484,5378.0
898.571,5944.82
899.659,5569.1
900.746,5145.0
901.833,5042.52
902.92,5028.58
904.006,5024.4
905.093,4972.56
906.179,5090.32
907.266,5407.8
908.352,5433.28
909.438,5123.06
910.523,4939.72
911.609,4837.1
912.695,4755.42
913.78,4731.52
914.865,4696.48
915.95,4701.8
917.035,4695.46
918.12,4634.48
919.204,4649.34
920.289,4595.02
921.373,4584.36
922.457,4559.36
923.541,4523.34
924.625,4507.16
925.709,4501.38
926.792,4475.82
927.876,4441.84
928.959,4416.48
930.042,4395.24
931.125,4377.42
932.208,4353.08
933.29,4324.64
934.373,4306.44
935.455,4296.42
936.537,4271.3
937.619,4264.76
938.701,4245.02
939.782,4234.3
940.864,4209.52
941.945,4203.12
943.026,4194.36
944.107,4170.92
945.188,4151.5
946.269,4145.78
947.349,4135.28
948.43,4116.56
949.51,4120.28
950.59,4100.88
951.67,4079.84
952.75,4061.98
953.829,4072.3
954.909,4053.5
955.988,4035.0
957.067,4039.22
958.146,4023.2
959.224,4013.54
960.303,4002.5
961.381,3981.82
962.459,3992.24
963.537,3985.48
964.615,3960.92
965.693,3956.8
966.771,3956.92
967.848,3954.4
968.925,3938.36
970.002,3937.42
971.079,3926.44
972.156,3924.04
973.232,3908.88
974.309,3911.66
975.385,3899.0
976.461,3889.32
977.537,3888.5
978.612,3881.02
979.688,3878.98
980.763,3874.32
981.838,3866.52
982.913,3858.82
983.988,3864.78
985.063,3853.4
986.137,3849.8
987.211,3847.82
988.285,3841.6
989.359,3839.6
990.433,3831.16
991.506,3829.78
992.58,3823.74
993.653,3823.1
994.726,3814.98
995.799,3813.64
996.872,3805.54
997.944,3806.98
999.016,3803.6
1000.09,3798.94
1001.16,3796.22
1002.23,3793.48
1003.3,3791.72
1004.38,3786.48
1005.45,3787.44
1006.52,3781.8
1007.59,3781.5
1008.66,3778.02
1009.73,3775.1
1010.8,3771.3
1011.87,3771.18
1012.94,3768.6
1014.01,3766.34
1015.08,3766.72
1016.15,3765.16
1017.22,3764.42
1018.29,3762.96
1019.36,3760.86
1020.42,3758.88
1021.49,3766.28
1022.56,3766.54
1023.63,3769.24
1024.7,3759.98
1025.76,3757.12
1026.83,3752.36
1027.9,3748.96
1028.97,3747.94
1030.03,3745.16
1031.1,3742.16
1032.17,3741.72
1033.23,3743.64
1034.3,3745.64
1035.36,3747.42
1036.43,3745.68
1037.5,3742.1
1038.56,3736.84
1039.63,3735.32
1040.69,3734.12
1041.76,3732.88
1042.82,3731.96
1043.89,3731.56
1044.95,3731.44
1046.01,3729.16
1047.08,3729.0
1048.14,3729.5
1049.2,3728.7
1050.27,3728.64
1051.33,3728.44
1052.39,3728.34
1053.46,3727.28
1054.52,3727.28
1055.58,3728.02
1056.64,3726.04
1057.7,3726.16
1058.77,3726.1
1059.83,3725.54
1060.89,3725.3
1061.95,3725.0
1063.01,3724.68
1064.07,3725.0
1065.13,3725.5
1066.19,3723.24
1067.25,3723.62
1068.05,3722.92