File: spectra/VLFR_07-PET_bio_Raman_b3386f47.csv
nm,Intensity
791.377,14297.0
792.477,12879.3
793.576,12047.9
794.676,11502.8
795.775,11384.4
796.874,11222.9
797.973,11374.1
799.072,11284.8
800.171,11120.7
801.27,11235.5
802.368,11213.3
803.467,10909.0
804.565,10695.4
805.664,10709.6
806.762,10601.6
807.86,10485.6
808.958,10301.2
810.056,10169.5
811.153,10200.6
812.251,9980.8
813.349,9850.16
814.446,9722.86
815.543,9657.96
816.64,9456.86
817.737,9478.06
818.834,9367.6
819.931,9294.68
821.028,9181.22
822.125,9088.86
823.221,9012.12
824.317,8870.72
825.414,9022.4
826.51,9038.54
827.606,8806.28
828.702,8620.3
829.797,8554.78
830.893,8690.26
831.988,8350.94
833.084,8380.12
834.179,8283.26
835.274,8200.12
836.369,8175.08
837.464,8292.84
838.559,8337.02
839.654,8170.76
840.748,8479.8
841.843,8451.42
842.937,8166.42
844.031,7964.82
845.125,7747.94
846.219,7628.0
847.313,7585.96
848.407,7534.96
849.5,7461.16
850.593,7404.74
851.687,7426.06
852.78,7349.16
853.873,7308.88
854.966,7308.2
856.059,7078.22
857.151,7129.44
858.244,7250.9
859.336,7335.08
860.428,7343.34
861.52,7072.02
862.612,6903.52
863.704,6897.74
864.796,6977.34
865.888,6764.42
866.979,6722.06
868.07,6720.98
869.162,6732.1
870.253,6727.46
871.344,6925.9
872.434,7131.06
873.525,7187.5
874.615,6846.98
875.706,6607.66
876.796,6538.3
877.886,6534.74
878.976,6359.9
880.066,6442.74
881.156,6364.26
882.245,6363.6
883.335,6253.68
884.424,6310.12
885.513,6337.16
886.602,6209.78
887.691,6184.34
888.78,6081.4
889.868,6032.74
890.957,6018.62
892.045,6069.22
893.133,6016.1
894.221,5825.6
895.309,5901.3
896.397,5858.4
897.484,6109.84
898.571,6788.54
899.659,6337.8
900.746,5711.82
901.833,5681.62
902.92,5607.44
904.006,5536.8
905.093,5600.44
906.179,5706.94
907.266,6140.44
908.352,6245.4
909.438,5726.94
910.523,5471.36
911.609,5312.6
912.695,5264.3
913.78,5234.96
914.865,5213.08
915.95,5164.1
917.035,5131.52
918.12,5081.46
919.204,5065.5
920.289,5020.88
921.373,4988.24
922.457,4942.64
923.541,4920.86
924.625,4863.7
925.709,4837.14
926.792,4814.34
927.876,4804.52
928.959,4754.08
930.042,4731.08
931.125,4695.94
932.208,4666.14
933.29,4627.92
934.373,4630.38
935.455,4585.78
936.537,4551.06
937.619,4522.58
938.701,4508.1
939.782,4495.78
940.864,4461.74
941.945,4447.78
943.026,4405.3
944.107,4415.28
945.188,4379.5
946.269,4363.06
947.349,4340.34
948.43,4333.1
949.51,4309.32
950.59,4303.24
951.67,4269.82
952.75,4267.54
953.829,4246.08
954.909,4224.5
955.988,4211.98
957.067,4204.84
958.146,4195.42
959.224,4171.14
960.303,4167.92
961.381,4134.02
962.459,4147.6
963.537,4126.4
964.615,4114.14
965.693,4113.74
966.771,4100.9
967.848,4088.34
968.925,4084.78
970.002,4065.46
971.079,4051.86
972.156,4043.96
973.232,4042.52
974.309,4028.96
975.385,4023.54
976.461,4018.1
977.537,4004.44
978.612,4003.28
979.688,3989.72
980.763,3987.22
981.838,3972.9
982.913,3973.94
983.988,3969.42
985.063,3961.98
986.137,3957.02
987.211,3947.68
988.285,3947.6
989.359,3937.02
990.433,3930.32
991.506,3920.84
992.58,3921.5
993.653,3914.44
994.726,3908.62
995.799,3907.62
996.872,3901.44
997.944,3893.22
999.016,3892.5
1000.09,3889.48
1001.16,3880.74
1002.23,3878.9
1003.3,3875.7
1004.38,3872.6
1005.45,3868.14
1006.52,3863.56
1007.59,3861.56
1008.66,3856.28
1009.73,3852.78
1010.8,3850.3
1011.87,3848.36
1012.94,3841.26
1014.01,3844.64
1015.08,3844.36
1016.15,3839.34
1017.22,3836.74
1018.29,3833.16
1019.36,3835.16
1020.42,3834.12
1021.49,3838.6
1022.56,3842.5
1023.63,3838.1
1024.7,3833.52
1025.76,3827.98
1026.83,3819.94
1027.9,3818.04
1028.97,3813.58
1030.03,3811.32
1031.1,3807.22
1032.17,3807.28
1033.23,3809.58
1034.3,3813.7
1035.36,3814.2
1036.43,3811.54
1037.5,3803.96
1038.56,3799.68
1039.63,3798.22
1040.69,3796.7
1041.76,3794.78
1042.82,3794.36
1043.89,3793.02
1044.95,3790.96
1046.01,3789.62
1047.08,3790.64
1048.14,3788.84
1049.2,3788.5
1050.27,3787.72
1051.33,3788.06
1052.39,3788.1
1053.46,3786.88
1054.52,3786.64
1055.58,3786.6
1056.64,3786.7
1057.7,3786.38
1058.77,3784.5
1059.83,3785.6
1060.89,3785.06
1061.95,3784.66
1063.01,3784.34
1064.07,3784.76
1065.13,3784.32
1066.19,3784.76
1067.25,3783.54
1068.05,3782.44