File: spectra/VLFR_06-PET_nobio_Raman_7527033f.csv
nm,Intensity
526.5,829.6
527.047,829.3
527.594,829.5
528.14,828.9
528.687,830.8
529.233,830.2
529.779,830.5
530.325,828.5
530.871,829.2
531.417,828.0
531.962,834.8
532.508,829.7
533.053,829.2
533.599,836.7
534.144,2071.0
534.689,1722.7
535.234,1382.0
535.778,1171.1
536.323,1041.0
536.867,992.9
537.412,970.4
537.956,961.5
538.5,971.5
539.044,966.6
539.588,979.4
540.132,986.0
540.675,947.6
541.219,934.8
541.762,930.5
542.305,932.5
542.848,930.2
543.391,931.8
543.934,946.1
544.477,934.9
545.02,940.8
545.562,940.6
546.105,939.7
546.647,943.3
547.189,944.4
547.731,948.3
548.273,954.9
548.815,958.6
549.356,955.8
549.898,954.7
550.439,971.8
550.981,990.5
551.522,964.9
552.063,973.6
552.604,982.1
553.145,999.1
553.686,980.2
554.226,980.4
554.767,986.9
555.307,995.0
555.848,1049.0
556.388,1060.4
556.928,1071.6
557.468,1208.0
558.008,1104.5
558.547,1093.0
559.087,1043.9
559.626,1020.5
560.166,1018.0
560.705,1021.4
561.244,1026.3
561.783,1033.2
562.322,1048.6
562.861,1061.2
563.4,1062.7
563.939,1054.2
564.477,1068.2
565.015,1112.2
565.554,1189.3
566.092,1190.3
566.63,1085.8
567.168,1071.0
567.706,1163.8
568.244,1087.1
568.781,1087.6
569.319,1095.6
569.857,1117.4
570.394,1174.2
570.931,1299.8
571.468,1415.6
572.005,1261.2
572.542,1152.4
573.079,1127.9
573.616,1129.1
574.153,1160.7
574.689,1142.3
575.226,1181.5
575.762,1157.4
576.298,1182.5
576.834,1200.0
577.371,1169.1
577.907,1150.8
578.442,1156.2
578.978,1165.3
579.514,1166.3
580.049,1167.1
580.585,1177.5
581.12,1196.5
581.656,1280.7
582.191,2497.7
582.726,1256.7
583.261,1208.1
583.796,1207.5
584.331,1213.4
584.865,1229.9
585.4,1330.5
585.935,1889.0
586.469,1633.6
587.004,1276.7
587.538,1239.5
588.072,1229.4
588.606,1223.3
589.14,1233.1
589.674,1223.9
590.208,1227.4
590.742,1230.6
591.275,1237.0
591.809,1238.3
592.342,1236.9
592.876,1239.0
593.409,1235.5
593.942,1239.2
594.476,1245.4
595.009,1246.1
595.542,1251.8
596.075,1258.1
596.607,1256.9
597.14,1253.1
597.673,1254.7
598.205,1266.6
598.738,1268.4
599.27,1278.4
599.803,1270.9
600.335,1269.8
600.867,1275.1
601.399,1274.2
601.931,1282.3
602.463,1268.7
602.995,1290.1
603.527,1280.3
604.058,1277.9
604.59,1277.6
605.122,1273.2
605.653,1272.3
606.184,1276.4
606.716,1268.8
607.247,1277.0
607.778,1277.0
608.309,1281.4
608.84,1283.7
609.371,1282.6
609.902,1270.5
610.433,1281.7
610.964,1288.9
611.494,1287.4
612.025,1293.5
612.556,1297.0
613.086,1306.4
613.616,1313.7
614.147,1308.3
614.677,1311.3
615.207,1307.4
615.737,1310.5
616.267,1323.1
616.797,1320.1
617.327,1325.6
617.857,1337.2
618.387,1337.3
618.917,1332.2
619.446,1331.4
619.976,1333.5
620.505,1331.8
621.035,1328.1
621.564,1340.3
622.093,1348.7
622.623,1349.2
623.152,1350.6
623.681,1365.1
624.21,1365.2
624.739,1379.4
625.268,1378.8
625.797,1374.1
626.326,1378.9
626.855,1383.5
627.383,1389.8
627.912,1396.3
628.441,1417.5
628.969,1441.0
629.498,1448.5
630.026,1440.6
630.554,1445.8
631.083,1513.6
631.611,1665.4
632.139,1647.9
632.667,1571.7
633.195,1541.1
633.724,1527.9
634.252,1510.9
634.779,1497.8
635.307,1499.9
635.835,1572.8
636.363,1702.6
636.891,1718.6
637.418,1558.6
637.946,1529.6
638.474,1528.6
639.001,1529.2
639.529,1527.3
640.056,1539.0
640.583,1544.5
641.111,1536.0
641.638,1555.0
642.165,1569.3
642.692,1577.4
643.22,1552.4
643.747,1552.2
644.274,1560.5
644.801,1558.0
645.328,1556.2
645.854,1577.3
646.381,1572.8
646.908,1579.7
647.435,1591.7
647.962,1603.9
648.488,1595.6
649.015,1582.5
649.542,1581.3
650.068,1600.4
650.595,1593.8
651.121,1597.4
651.648,1597.7
652.174,1610.0
652.7,1606.1
653.227,1618.5
653.753,1616.4
654.279,1616.7
654.805,1617.7
655.331,1618.2
655.858,1625.9
656.384,1613.1
656.91,1630.6
657.436,1620.1
657.962,1619.0
658.488,1627.3
659.013,1619.3
659.539,1629.4
660.065,1635.0
660.591,1626.8
661.117,1617.6
661.642,1620.9
662.168,1616.1
662.694,1610.3
663.088,1617.9