File: spectra/VLFR_02-HDPE_nobio_Raman_81edcabc.csv
nm,Intensity
526.508,829.8
527.055,830.7
527.602,830.0
528.149,830.9
528.695,830.7
529.241,830.9
529.787,829.1
530.334,831.7
530.879,831.2
531.425,830.4
531.971,833.9
532.516,830.5
533.062,830.4
533.607,829.3
534.152,882.5
534.697,874.7
535.242,866.5
535.786,861.0
536.331,855.3
536.876,852.0
537.42,854.1
537.964,853.3
538.508,850.0
539.052,848.5
539.596,848.4
540.14,847.9
540.683,847.9
541.227,847.6
541.77,846.4
542.313,847.5
542.856,846.5
543.399,844.9
543.942,845.2
544.485,847.0
545.027,846.4
545.57,846.3
546.112,844.7
546.654,847.3
547.196,846.7
547.738,845.0
548.28,847.3
548.822,845.9
549.363,845.7
549.905,846.0
550.446,848.2
550.988,846.7
551.529,846.6
552.07,849.0
552.611,847.1
553.152,846.0
553.692,851.4
554.233,850.8
554.773,851.3
555.314,850.9
555.854,851.7
556.394,853.5
556.934,852.8
557.474,855.6
558.014,858.9
558.553,857.4
559.093,856.7
559.632,856.6
560.172,854.9
560.711,855.2
561.25,856.1
561.789,856.7
562.328,857.4
562.867,860.1
563.406,862.0
563.944,931.7
564.483,880.7
565.021,874.1
565.559,873.6
566.098,994.2
566.636,873.9
567.174,866.0
567.711,866.2
568.249,863.0
568.787,863.8
569.324,863.6
569.862,866.0
570.399,868.7
570.936,874.9
571.474,989.8
572.011,891.1
572.548,870.0
573.084,868.7
573.621,871.9
574.158,880.8
574.694,870.5
575.231,884.7
575.767,945.9
576.303,964.5
576.84,934.8
577.376,912.3
577.912,890.8
578.447,890.5
578.983,892.1
579.519,893.3
580.054,897.2
580.59,897.4
581.125,903.9
581.661,908.3
582.196,910.4
582.731,918.1
583.266,916.0
583.801,919.2
584.336,929.1
584.87,932.5
585.405,932.7
585.94,943.6
586.474,943.5
587.008,948.3
587.543,952.7
588.077,964.5
588.611,963.8
589.145,972.1
589.679,977.4
590.213,983.1
590.747,986.9
591.28,994.8
591.814,999.0
592.347,1001.8
592.881,1003.2
593.414,1012.0
593.947,1010.6
594.48,1020.2
595.014,1025.2
595.547,1033.2
596.079,1035.8
596.612,1043.7
597.145,1045.9
597.678,1057.4
598.21,1062.8
598.743,1067.5
599.275,1080.1
599.807,1094.0
600.34,1095.0
600.872,1095.5
601.404,1106.6
601.936,1108.3
602.468,1111.5
603.0,1112.8
603.532,1109.1
604.063,1104.2
604.595,1102.4
605.126,1095.1
605.658,1093.1
606.189,1082.1
606.721,1076.9
607.252,1076.6
607.783,1076.2
608.314,1068.0
608.845,1057.9
609.376,1054.6
609.907,1051.0
610.438,1047.9
610.968,1044.8
611.499,1043.9
612.03,1037.9
612.56,1037.8
613.091,1036.4
613.621,1032.3
614.151,1027.3
614.681,1026.4
615.212,1017.0
615.742,1015.3
616.272,1010.8
616.802,1007.5
617.332,1006.9
617.861,1006.2
618.391,1003.7
618.921,991.8
619.45,1000.9
619.98,994.9
620.509,989.9
621.039,992.8
621.568,994.5
622.097,1008.5
622.627,999.5
623.156,982.5
623.685,976.7
624.214,974.4
624.743,972.1
625.272,971.6
625.801,977.6
626.33,999.4
626.858,1154.2
627.387,1511.2
627.916,1273.6
628.444,1387.6
628.973,1345.4
629.501,1253.3
630.029,1159.0
630.558,1137.9
631.086,1040.7
631.614,979.1
632.142,966.9
632.67,958.6
633.198,956.5
633.726,949.3
634.254,949.1
634.782,949.6
635.31,943.8
635.838,944.6
636.365,941.3
636.893,943.6
637.421,944.4
637.948,942.6
638.476,941.0
639.003,944.4
639.531,947.6
640.058,942.6
640.585,947.9
641.113,949.7
641.64,946.2
642.167,948.8
642.694,945.6
643.221,951.7
643.748,950.3
644.275,949.7
644.802,949.9
645.329,948.3
645.856,952.7
646.382,950.7
646.909,962.6
647.436,952.0
647.962,951.4
648.489,952.1
649.016,952.5
649.542,952.7
650.069,953.3
650.595,954.8
651.121,952.1
651.648,953.5
652.174,960.7
652.7,954.2
653.227,953.5
653.753,958.3
654.279,956.4
654.805,955.2
655.331,956.5
655.857,955.1
656.383,956.7
656.909,957.3
657.435,956.0
657.961,953.9
658.487,946.4
659.013,949.0
659.538,950.9
660.064,944.0
660.59,944.5
661.116,939.3
661.641,933.9
662.167,933.4
662.692,933.1
663.087,929.5