File: spectra/VLFR_09-PET_bio_Raman_4ae55241.csv
nm,Intensity
528.626,1864.7
529.132,1862.3
529.637,1865.5
530.143,1865.0
530.648,1865.3
531.153,1869.6
531.658,1901.6
532.164,4350.3
532.669,1865.1
533.174,1866.3
533.679,1997.3
534.184,2490.8
534.689,2525.5
535.194,2573.4
535.699,2590.5
536.203,2589.0
536.708,2620.9
537.213,2645.2
537.717,2652.5
538.222,2654.5
538.726,2685.5
539.231,2718.1
539.735,2739.6
540.239,2765.0
540.744,2769.8
541.248,2777.2
541.752,2820.1
542.256,2805.2
542.76,2857.6
543.264,2859.3
543.768,2896.8
544.272,2888.8
544.776,2924.3
545.28,2938.9
545.784,2937.5
546.287,2989.8
546.791,2958.0
547.294,3008.8
547.798,3005.6
548.301,3040.4
548.805,3099.1
549.308,3078.3
549.811,3062.8
550.315,3070.2
550.818,3127.1
551.321,3147.9
551.824,3168.2
552.327,3159.3
552.83,3157.8
553.333,3209.2
553.835,3206.3
554.338,3211.4
554.841,3243.6
555.343,3242.8
555.846,3265.1
556.349,3287.0
556.851,3260.3
557.353,3269.2
557.856,3278.5
558.358,3316.8
558.86,3313.9
559.362,3309.0
559.864,3322.9
560.366,3319.0
560.868,3326.8
561.37,3406.3
561.872,3384.6
562.374,3424.4
562.876,3393.1
563.377,3439.0
563.879,3464.4
564.38,3486.4
564.882,3496.8
565.383,3503.4
565.885,3538.2
566.386,3521.2
566.887,3543.9
567.388,3542.3
567.889,3523.8
568.391,3591.0
568.892,3586.8
569.392,3623.7
569.893,3594.1
570.394,3611.3
570.895,3640.6
571.395,3671.3
571.896,3666.4
572.397,3695.3
572.897,3693.8
573.397,3703.4
573.898,3731.4
574.398,3697.8
574.898,3713.2
575.398,3764.7
575.898,3775.9
576.398,3776.2
576.898,3809.6
577.398,3808.1
577.898,3777.6
578.398,3821.5
578.897,3777.9
579.397,3838.9
579.896,3848.2
580.396,3823.4
580.895,3820.8
581.395,3808.3
581.894,3873.9
582.393,3852.0
582.892,3878.2
583.391,3866.1
583.89,3859.3
584.389,3893.6
584.888,3836.6
585.387,3847.0
585.886,3927.4
586.384,3910.5
586.883,3847.8
587.381,3883.9
587.88,3930.4
588.378,3871.8
588.876,3927.8
589.375,3799.5
589.873,3838.1
590.371,3816.0
590.869,3846.7
591.367,3888.9
591.865,3891.8
592.363,3833.6
592.86,3909.5
593.358,3844.8
593.856,3839.6
594.353,3861.3
594.851,3850.1
595.348,3876.4
595.845,3921.1
596.342,3850.5
596.84,3890.0
597.337,3907.6
597.834,3867.4
598.331,3855.5
598.828,3881.4
599.324,3900.8
599.821,3880.6
600.318,3878.3
600.814,3912.7
601.311,3907.8
601.807,3853.3
602.304,3905.2
602.8,3933.1
603.296,3907.7
603.792,3885.5
604.288,3881.8
604.784,3887.9
605.28,3909.1
605.776,3928.4
606.272,3936.1
606.767,3908.7
607.263,3878.5
607.759,3964.7
608.254,3909.7
608.749,3949.8
609.245,3936.0
609.74,3944.6
610.235,3892.4
610.73,4000.1
611.225,3947.7
611.72,3969.5
612.215,3947.1
612.71,3923.6
613.204,3968.0
613.699,3985.9
614.194,3899.0
614.688,4011.5
615.182,4012.8
615.677,3995.1
616.171,3991.7
616.665,3960.8
617.159,3965.0
617.653,4003.6
618.147,4030.8
618.641,3996.0
619.135,4009.6
619.628,4076.8
620.122,4062.3
620.615,4028.5
621.109,3975.5
621.602,4022.7
622.095,4035.5
622.589,4037.3
623.082,4017.6
623.575,3994.2
624.068,4118.5
624.561,4063.3
625.053,4054.6
625.546,4029.7
626.039,4034.9
626.531,4093.7
627.024,4032.7
627.516,4061.9
628.008,4031.6
628.501,4055.0
628.993,4051.9
629.485,4081.4
629.977,4041.8
630.469,4071.3
630.96,4060.4
631.452,4089.0
631.944,4031.7
632.435,4090.6
632.927,3989.5
633.418,4016.9
633.91,4032.3
634.401,4013.6
634.892,3985.1
635.383,4024.9
635.874,3984.1
636.365,4021.8
636.856,3959.5
637.346,3945.4
637.837,3928.6
638.327,3957.8
638.818,4004.0
639.308,3984.2
639.799,3953.1
640.289,3935.2
640.779,3837.2
641.269,3887.4
641.759,3816.0
642.249,3848.4
642.738,3882.6
643.228,3854.7
643.718,3839.3
644.207,3867.2
644.697,3816.0
645.186,3806.7
645.675,3812.2
646.164,3767.4
646.653,3784.6
647.142,3792.0
647.631,3716.4
648.12,3716.8
648.609,3671.7
649.098,3662.2
649.586,3706.0
650.075,3637.8
650.563,3635.8
651.051,3685.9
651.539,3562.6
652.027,3621.1
652.515,3575.8
653.003,3544.8
653.491,3519.2
653.979,3538.1
654.467,3514.1
654.954,3433.1
655.442,3414.1
655.929,3388.0
656.416,3407.5
656.904,3366.7
657.391,3352.3
657.878,3350.2
658.365,3271.0
658.851,3298.8
659.338,3236.6
659.825,3233.6
660.311,3224.2
660.798,3217.7
661.041,3232.8