File: spectra/VLFR_08-PLA_nobio_Raman_9013e8b2.csv
nm,Intensity
526.486,830.1
527.033,829.66
527.579,829.34
528.126,829.6
528.672,829.22
529.219,829.16
529.765,828.98
530.311,829.76
530.857,829.42
531.403,829.84
531.948,833.04
532.494,831.64
533.039,829.42
533.585,829.98
534.13,891.08
534.675,894.28
535.22,888.54
535.764,887.3
536.309,885.08
536.854,885.26
537.398,882.72
537.942,881.88
538.486,882.76
539.03,881.3
539.574,883.56
540.118,882.46
540.662,885.3
541.205,891.1
541.749,907.76
542.292,898.54
542.835,899.48
543.378,902.1
543.921,892.28
544.464,894.36
545.006,905.04
545.549,911.26
546.091,894.28
546.634,896.3
547.176,896.2
547.718,893.44
548.26,895.16
548.802,895.9
549.343,896.06
549.885,895.3
550.426,898.06
550.968,898.76
551.509,897.96
552.05,897.58
552.591,897.42
553.132,896.4
553.673,899.82
554.214,898.7
554.754,898.2
555.295,897.84
555.835,899.0
556.375,898.64
556.915,900.82
557.455,901.4
557.995,903.52
558.535,906.98
559.075,908.08
559.614,905.7
560.154,903.62
560.693,906.2
561.232,907.78
561.772,912.38
562.311,912.4
562.85,913.64
563.388,919.76
563.927,930.46
564.466,934.38
565.004,981.22
565.543,953.32
566.081,960.16
566.619,929.8
567.157,926.94
567.695,921.0
568.233,918.12
568.771,918.46
569.309,920.3
569.846,925.58
570.384,928.46
570.921,931.4
571.458,937.16
571.995,931.2
572.532,941.72
573.069,955.94
573.606,941.4
574.143,950.46
574.68,950.34
575.216,948.66
575.753,941.88
576.289,940.12
576.825,946.22
577.361,944.84
577.897,943.06
578.433,937.38
578.969,940.84
579.505,946.4
580.041,940.92
580.576,941.52
581.112,945.98
581.647,961.38
582.183,951.16
582.718,949.3
583.253,950.44
583.788,952.62
584.323,952.26
584.858,954.24
585.392,954.28
585.927,956.72
586.462,958.96
586.996,963.06
587.53,964.24
588.065,962.1
588.599,966.74
589.133,962.84
589.667,967.68
590.201,970.36
590.735,971.62
591.268,974.9
591.802,975.68
592.335,978.66
592.869,978.74
593.402,981.52
593.936,983.12
594.469,986.08
595.002,989.12
595.535,995.3
596.068,995.9
596.601,1001.14
597.133,1005.36
597.666,1011.02
598.199,1013.98
598.731,1018.34
599.264,1021.64
599.796,1024.52
600.328,1027.68
600.86,1033.06
601.393,1037.28
601.925,1036.8
602.457,1045.36
602.988,1048.1
603.52,1053.46
604.052,1057.26
604.583,1061.5
605.115,1063.66
605.646,1063.78
606.178,1066.86
606.709,1071.9
607.24,1074.94
607.771,1082.32
608.302,1084.76
608.833,1090.52
609.364,1095.54
609.895,1097.2
610.426,1099.9
610.957,1105.1
611.487,1107.36
612.018,1114.0
612.548,1123.28
613.078,1126.06
613.609,1130.54
614.139,1134.54
614.669,1137.24
615.199,1137.54
615.729,1138.16
616.259,1139.42
616.789,1144.48
617.319,1147.24
617.849,1151.86
618.378,1150.1
618.908,1152.78
619.437,1154.22
619.967,1158.92
620.496,1155.12
621.025,1156.1
621.555,1157.5
622.084,1158.98
622.613,1163.9
623.142,1167.6
623.671,1166.6
624.2,1168.56
624.729,1166.86
625.258,1169.1
625.786,1174.6
626.315,1170.5
626.844,1177.92
627.372,1190.68
627.901,1197.18
628.429,1215.72
628.957,1228.4
629.486,1227.02
630.014,1212.72
630.542,1200.66
631.07,1208.86
631.598,1192.26
632.126,1193.1
632.654,1169.22
633.182,1160.4
633.71,1153.8
634.237,1146.78
634.765,1145.32
635.293,1142.34
635.82,1148.88
636.348,1142.38
636.875,1145.08
637.403,1139.48
637.93,1138.48
638.458,1141.94
638.985,1139.06
639.512,1136.38
640.039,1139.28
640.566,1138.08
641.093,1139.56
641.62,1140.66
642.147,1139.74
642.674,1139.02
643.201,1136.38
643.728,1137.02
644.255,1142.74
644.781,1144.26
645.308,1142.9
645.835,1142.1
646.361,1137.14
646.888,1141.98
647.414,1145.4
647.941,1145.48
648.467,1138.94
648.993,1141.62
649.52,1137.26
650.046,1133.42
650.572,1129.62
651.098,1128.72
651.625,1128.44
652.151,1123.9
652.677,1122.5
653.203,1120.04
653.729,1119.22
654.255,1116.26
654.78,1115.1
655.306,1115.88
655.832,1113.84
656.358,1114.72
656.884,1118.0
657.409,1116.64
657.935,1114.52
658.461,1115.48
658.986,1117.44
659.512,1118.52
660.037,1119.4
660.563,1113.84
661.088,1113.8
661.614,1111.16
662.139,1109.94
662.664,1109.66
663.058,1110.0