File: spectra/VLFR_02-HDPE_bio_Raman_310d27dc.csv
nm,Intensity
526.508,828.3
527.055,827.7
527.602,829.8
528.149,830.0
528.695,830.4
529.241,829.2
529.787,830.9
530.334,829.8
530.879,830.2
531.425,829.6
531.971,836.0
532.516,832.0
533.062,830.3
533.607,830.4
534.152,898.6
534.697,883.6
535.242,874.8
535.786,864.6
536.331,862.6
536.876,860.1
537.42,860.5
537.964,861.8
538.508,859.0
539.052,857.0
539.596,854.0
540.14,855.3
540.683,854.6
541.227,855.1
541.77,853.4
542.313,854.9
542.856,854.8
543.399,856.1
543.942,855.3
544.485,856.4
545.027,857.1
545.57,858.0
546.112,857.7
546.654,855.5
547.196,858.6
547.738,859.4
548.28,857.9
548.822,862.5
549.363,858.7
549.905,860.2
550.446,861.0
550.988,858.1
551.529,860.1
552.07,861.2
552.611,860.1
553.152,860.1
553.692,861.5
554.233,859.8
554.773,861.6
555.314,859.4
555.854,863.8
556.394,860.7
556.934,862.5
557.474,867.1
558.014,867.2
558.553,868.4
559.093,867.5
559.632,867.0
560.172,867.0
560.711,865.5
561.25,863.5
561.789,863.9
562.328,869.8
562.867,869.1
563.406,873.3
563.944,969.7
564.483,892.2
565.021,886.3
565.559,886.9
566.098,1063.3
566.636,889.9
567.174,873.9
567.711,874.8
568.249,870.3
568.787,872.4
569.324,872.3
569.862,871.4
570.399,875.1
570.936,881.5
571.474,1037.6
572.011,899.5
572.548,879.3
573.084,875.6
573.621,877.5
574.158,886.3
574.694,876.9
575.231,891.3
575.767,990.3
576.303,975.0
576.84,945.4
577.376,919.5
577.912,893.2
578.447,892.4
578.983,899.3
579.519,899.9
580.054,904.2
580.59,910.6
581.125,914.0
581.661,916.7
582.196,921.4
582.731,922.8
583.266,928.9
583.801,937.7
584.336,942.8
584.87,949.6
585.405,954.4
585.94,962.3
586.474,970.4
587.008,974.0
587.543,986.0
588.077,985.0
588.611,998.1
589.145,996.8
589.679,1002.8
590.213,1008.2
590.747,1013.4
591.28,1014.2
591.814,1025.6
592.347,1019.8
592.881,1026.1
593.414,1027.8
593.947,1031.5
594.48,1030.3
595.014,1034.4
595.547,1037.2
596.079,1035.1
596.612,1046.8
597.145,1047.0
597.678,1054.7
598.21,1052.1
598.743,1055.5
599.275,1059.7
599.807,1071.1
600.34,1065.3
600.872,1067.0
601.404,1066.2
601.936,1065.1
602.468,1059.2
603.0,1053.0
603.532,1049.6
604.063,1041.2
604.595,1042.9
605.126,1031.2
605.658,1021.8
606.189,1018.9
606.721,1016.2
607.252,1004.5
607.783,1003.0
608.314,1001.0
608.845,991.1
609.376,993.6
609.907,987.8
610.438,983.6
610.968,986.3
611.499,983.8
612.03,971.8
612.56,975.1
613.091,971.4
613.621,966.0
614.151,964.2
614.681,960.5
615.212,959.0
615.742,955.2
616.272,953.9
616.802,954.7
617.332,959.3
617.861,954.9
618.391,951.3
618.921,947.7
619.45,943.7
619.98,947.1
620.509,947.8
621.039,948.4
621.568,954.1
622.097,962.0
622.627,966.5
623.156,950.3
623.685,944.5
624.214,939.1
624.743,943.6
625.272,946.3
625.801,948.9
626.33,962.7
626.858,1115.5
627.387,1445.8
627.916,1232.6
628.444,1312.8
628.973,1296.6
629.501,1215.6
630.029,1141.0
630.558,1121.5
631.086,1020.2
631.614,970.1
632.142,952.1
632.67,948.6
633.198,944.7
633.726,949.1
634.254,940.7
634.782,943.0
635.31,940.7
635.838,944.8
636.365,947.5
636.893,944.4
637.421,949.6
637.948,947.1
638.476,949.0
639.003,950.7
639.531,952.2
640.058,952.3
640.585,959.2
641.113,948.9
641.64,956.5
642.167,957.7
642.694,956.0
643.221,960.3
643.748,960.6
644.275,954.9
644.802,959.8
645.329,961.1
645.856,955.7
646.382,956.7
646.909,956.5
647.436,958.5
647.962,958.1
648.489,957.2
649.016,956.5
649.542,956.8
650.069,957.5
650.595,960.8
651.121,954.2
651.648,953.0
652.174,959.5
652.7,957.7
653.227,962.9
653.753,961.7
654.279,960.3
654.805,956.2
655.331,960.4
655.857,958.0
656.383,956.7
656.909,953.0
657.435,951.0
657.961,949.3
658.487,946.8
659.013,941.6
659.538,943.8
660.064,942.2
660.59,937.6
661.116,932.9
661.641,929.7
662.167,926.9
662.692,925.6
663.087,921.4