File: spectra/VLFR_07-PET_bio_Raman_308939de.csv
nm,Intensity
791.588,6157.5
792.685,6115.0
793.781,6056.9
794.878,6109.0
795.975,6070.8
797.071,6046.3
798.168,6066.0
799.264,6065.4
800.36,6096.3
801.456,6025.1
802.552,6020.6
803.648,6016.9
804.744,5952.9
805.84,5933.9
806.936,5908.4
808.031,5856.0
809.127,5891.6
810.222,5773.3
811.317,5764.3
812.412,5698.4
813.507,5677.0
814.602,5629.5
815.697,5594.6
816.792,5557.1
817.887,5538.2
818.981,5528.1
820.076,5548.3
821.17,5529.2
822.265,5439.6
823.359,5381.3
824.453,5440.8
825.547,5375.6
826.641,5431.2
827.735,5375.3
828.828,5317.2
829.922,5319.2
831.016,5308.5
832.109,5292.8
833.202,5249.9
834.295,5244.1
835.388,5208.6
836.481,5213.8
837.574,5191.2
838.667,5177.3
839.76,5143.6
840.852,5148.6
841.945,5164.8
843.037,5099.4
844.129,5086.1
845.221,5034.3
846.314,5033.0
847.405,5018.6
848.497,4983.8
849.589,4972.2
850.68,4953.5
851.772,4959.8
852.863,4942.1
853.955,4894.9
855.046,4902.7
856.137,4889.4
857.228,4868.0
858.318,4906.4
859.409,4888.5
860.5,4897.0
861.59,4835.9
862.681,4848.1
863.771,4824.8
864.861,4842.5
865.951,4768.0
867.041,4815.4
868.131,4774.4
869.22,4782.8
870.31,4763.4
871.399,4764.3
872.488,4797.3
873.578,4793.4
874.667,4755.1
875.756,4738.8
876.845,4722.0
877.933,4697.3
879.022,4693.2
880.11,4693.4
881.199,4694.1
882.287,4678.4
883.375,4660.5
884.463,4634.4
885.551,4665.8
886.639,4615.0
887.726,4600.0
888.814,4602.2
889.901,4591.3
890.988,4568.1
892.075,4561.9
893.162,4534.8
894.249,4519.8
895.336,4495.5
896.423,4473.3
897.509,4491.7
898.595,4492.3
899.682,4446.6
900.768,4402.3
901.854,4387.0
902.94,4398.5
904.025,4397.0
905.111,4375.7
906.196,4387.0
907.282,4384.2
908.367,4371.6
909.452,4333.0
910.537,4305.8
911.622,4292.7
912.706,4262.0
913.791,4243.0
914.875,4243.4
915.959,4231.2
917.044,4217.2
918.128,4210.1
919.211,4204.2
920.295,4203.1
921.379,4193.5
922.462,4168.2
923.546,4150.1
924.629,4150.6
925.712,4131.7
926.795,4128.3
927.877,4102.2
928.96,4080.5
930.043,4067.6
931.125,4051.9
932.207,4048.4
933.289,4030.5
934.371,4024.5
935.453,4018.4
936.535,4010.9
937.616,3994.3
938.697,4005.5
939.779,3990.0
940.86,3984.8
941.941,3974.9
943.022,3972.4
944.102,3961.5
945.183,3948.9
946.263,3951.4
947.343,3944.2
948.423,3941.4
949.503,3926.0
950.583,3925.8
951.663,3927.0
952.742,3911.0
953.822,3915.8
954.901,3912.3
955.98,3900.9
957.059,3898.6
958.137,3893.4
959.216,3892.2
960.294,3879.6
961.373,3880.5
962.451,3882.8
963.529,3874.4
964.607,3874.3
965.684,3870.4
966.762,3864.2
967.839,3867.7
968.917,3871.8
969.994,3869.7
971.071,3856.3
972.147,3854.1
973.224,3854.7
974.3,3848.3
975.377,3843.2
976.453,3839.2
977.529,3838.0
978.605,3839.1
979.68,3834.8
980.756,3831.8
981.831,3833.3
982.907,3831.3
983.982,3831.2
985.057,3825.8
986.131,3821.4
987.206,3825.2
988.28,3822.6
989.355,3820.2
990.429,3816.3
991.503,3814.0
992.576,3813.6
993.65,3808.1
994.723,3808.0
995.797,3811.4
996.87,3803.9
997.943,3801.8
999.016,3800.1
1000.09,3798.9
1001.16,3797.1
1002.23,3793.1
1003.31,3794.0
1004.38,3791.9
1005.45,3789.1
1006.52,3787.4
1007.59,3786.4
1008.66,3783.1
1009.73,3787.4
1010.81,3783.6
1011.88,3780.5
1012.95,3777.7
1014.02,3778.6
1015.09,3779.2
1016.16,3776.5
1017.23,3776.7
1018.3,3774.4
1019.37,3777.4
1020.44,3774.6
1021.51,3770.9
1022.58,3772.1
1023.64,3770.1
1024.71,3770.6
1025.78,3767.1
1026.85,3767.2
1027.92,3767.1
1028.99,3765.0
1030.05,3766.2
1031.12,3763.3
1032.19,3761.7
1033.26,3764.9
1034.32,3764.8
1035.39,3765.3
1036.46,3761.6
1037.52,3761.9
1038.59,3759.7
1039.66,3760.3
1040.72,3759.8
1041.79,3758.5
1042.86,3760.1
1043.92,3757.0
1044.99,3758.3
1046.05,3756.2
1047.12,3756.3
1048.18,3757.8
1049.25,3756.5
1050.31,3758.3
1051.37,3757.3
1052.44,3756.9
1053.5,3756.7
1054.57,3755.6
1055.63,3756.6
1056.69,3755.2
1057.76,3753.6
1058.82,3755.1
1059.88,3755.4
1060.95,3755.8
1062.01,3754.4
1063.07,3755.0
1064.13,3754.3
1065.19,3755.0
1066.26,3752.5
1067.32,3752.5
1068.11,3753.0