File: spectra/VLFR_02-HDPE_nobio_Raman_10c74d50.csv
cm-1,Intensity
-123.878,1852.35
-105.821,1852.3
-87.8007,1852.5
-69.8161,1852.25
-51.8675,1852.75
-33.9547,1854.6
-16.0776,1873.15
1.76388,2835.95
19.5698,1852.85
37.3403,1853.85
55.0755,1966.35
72.7754,2303.3
90.4402,2325.95
108.07,2331.1
125.665,2320.0
143.225,2333.45
160.75,2323.1
178.241,2320.35
195.697,2342.45
213.119,2351.65
230.506,2342.1
247.859,2364.15
265.178,2368.65
282.463,2385.3
299.713,2397.0
316.93,2446.0
334.113,2474.35
351.263,2498.0
368.379,2532.15
385.461,2511.55
402.51,2484.2
419.526,2511.85
436.508,2569.6
453.458,2562.7
470.374,2520.15
487.257,2538.65
504.107,2573.9
520.925,2551.0
537.71,2527.8
554.462,2551.15
571.182,2569.0
587.87,2576.45
604.525,2559.85
621.148,2562.55
637.739,2596.45
654.297,2580.6
670.824,2606.5
687.319,2599.05
703.782,2582.35
720.213,2603.9
736.613,2623.15
752.981,2637.8
769.317,2648.85
785.623,2628.7
801.897,2634.6
818.139,2642.85
834.351,2644.6
850.532,2636.0
866.681,2672.5
882.8,2707.25
898.888,2749.25
914.945,2713.2
930.972,2697.55
946.968,2722.7
962.934,2756.1
978.869,2760.0
994.774,2802.0
1010.65,2767.7
1026.49,2791.25
1042.31,2840.95
1058.09,2880.5
1073.85,2925.25
1089.57,3186.85
1105.27,3081.3
1120.93,3100.85
1136.57,2962.55
1152.18,2921.65
1167.75,2847.95
1183.3,2840.15
1198.82,2845.3
1214.31,2857.6
1229.77,2854.85
1245.2,2869.65
1260.6,2902.5
1275.97,2920.7
1291.32,2945.95
1306.63,2963.55
1321.92,2988.7
1337.18,3016.45
1352.41,2991.1
1367.61,3025.95
1382.78,3041.3
1397.93,2994.55
1413.05,2977.45
1428.14,2996.55
1443.2,2967.85
1458.23,2950.05
1473.23,3007.6
1488.21,2934.1
1503.16,2894.8
1518.08,2887.2
1532.97,2938.35
1547.84,2914.35
1562.68,2938.35
1577.49,2933.9
1592.27,2946.25
1607.03,2937.4
1621.76,2939.45
1636.46,2943.95
1651.14,2958.65
1665.78,2957.75
1680.41,2938.8
1695.0,2926.0
1709.57,2941.95
1724.11,2942.7
1738.62,2934.25
1753.11,2948.3
1767.57,2966.85
1782.01,2974.65
1796.41,2965.0
1810.8,2922.85
1825.15,2932.6
1839.48,2951.9
1853.79,2960.2
1868.06,2987.85
1882.31,2986.65
1896.54,2984.5
1910.74,2994.85
1924.91,2990.45
1939.06,2990.6
1953.19,3012.45
1967.28,3013.9
1981.35,3020.25
1995.4,3030.0
2009.42,3032.0
2023.42,3070.25
2037.39,3035.15
2051.33,3084.6
2065.25,3070.05
2079.15,3072.65
2093.01,3105.95
2106.86,3105.05
2120.68,3105.45
2134.47,3105.35
2148.24,3109.25
2161.99,3104.75
2175.71,3099.6
2189.41,3113.6
2203.08,3114.35
2216.73,3086.75
2230.35,3100.15
2243.95,3087.1
2257.52,3100.0
2271.07,3077.1
2284.6,3089.6
2298.1,3094.6
2311.58,3053.75
2325.03,3064.5
2338.46,3069.0
2351.87,3058.2
2365.25,3058.15
2378.61,3018.75
2391.94,3043.4
2405.26,3040.0
2418.54,3059.95
2431.81,3056.5
2445.05,3041.55
2458.27,3039.2
2471.46,3027.3
2484.63,3031.75
2497.78,3017.0
2510.9,3012.65
2524.0,3037.5
2537.08,2998.2
2550.14,2998.7
2563.17,3009.95
2576.18,2968.9
2589.17,2977.15
2602.13,2976.95
2615.07,3001.2
2627.99,2976.95
2640.89,2987.95
2653.76,2979.65
2666.61,2972.05
2679.44,2973.35
2692.25,2977.75
2705.03,2978.05
2717.79,2958.15
2730.53,2985.8
2743.25,2982.45
2755.94,2956.8
2768.61,2965.7
2781.27,2964.5
2793.89,2947.9
2806.5,2987.65
2819.09,2976.7
2831.65,3004.7
2844.19,3062.45
2856.71,3104.75
2869.21,3147.9
2881.69,3269.6
2894.14,3243.4
2906.58,3266.7
2918.99,3154.65
2931.38,3103.55
2943.75,3098.5
2956.1,3046.7
2968.42,2969.6
2980.73,2931.0
2993.01,2875.95
3005.28,2886.25
3017.52,2881.3
3029.74,2821.85
3041.94,2844.85
3054.12,2802.45
3066.28,2761.4
3078.42,2808.55
3090.54,2804.15
3102.63,2767.35
3114.71,2765.85
3126.77,2775.2
3138.8,2757.6
3150.82,2762.9
3162.81,2748.9
3174.78,2726.75
3186.74,2725.05
3198.67,2740.0
3210.58,2730.55
3222.47,2738.25
3234.35,2711.6
3246.2,2701.25
3258.03,2748.7
3269.84,2731.65
3281.64,2735.9
3293.41,2726.4
3305.16,2720.3
3316.89,2717.75
3328.61,2713.85
3340.3,2697.25
3351.97,2714.45
3363.63,2716.75
3375.26,2676.6
3386.88,2648.85
3398.47,2666.8
3410.05,2638.35
3421.6,2663.75
3433.14,2637.55
3444.66,2603.05
3456.15,2621.6
3467.63,2581.7
3479.09,2602.3
3490.53,2562.65
3501.96,2576.15
3513.36,2527.05
3524.74,2528.5
3536.11,2516.4
3547.45,2494.7
3558.78,2492.35
3570.09,2492.7
3581.37,2500.95
3592.64,2465.2
3603.9,2452.15
3615.13,2430.6
3626.34,2404.6
3637.54,2408.05
3648.72,2422.75
3659.87,2408.1
3665.45,2409.85