File: spectra/VLFR_06-PET_nobio_Raman_3bd960f5.csv
nm,Intensity
526.5,825.7
527.047,827.3
527.594,825.8
528.14,825.9
528.687,826.7
529.233,825.3
529.779,826.2
530.325,826.5
530.871,826.5
531.417,825.5
531.962,832.2
532.508,825.7
533.053,824.5
533.599,830.5
534.144,1184.9
534.689,1101.5
535.234,1011.3
535.778,959.7
536.323,928.1
536.867,914.8
537.412,909.8
537.956,910.1
538.5,912.3
539.044,909.8
539.588,918.1
540.132,922.5
540.675,911.0
541.219,911.6
541.762,909.5
542.305,912.8
542.848,915.7
543.391,919.2
543.934,918.7
544.477,919.4
545.02,921.2
545.562,926.7
546.105,927.3
546.647,926.9
547.189,933.9
547.731,933.0
548.273,936.0
548.815,940.5
549.356,941.0
549.898,943.2
550.439,951.9
550.981,955.9
551.522,951.6
552.063,954.6
552.604,956.6
553.145,968.6
553.686,963.2
554.226,964.7
554.767,967.0
555.307,975.2
555.848,983.9
556.388,986.8
556.928,994.8
557.468,1037.2
558.008,1010.0
558.547,1008.9
559.087,998.3
559.626,992.6
560.166,995.6
560.705,1000.8
561.244,1003.2
561.783,1005.3
562.322,1016.7
562.861,1017.9
563.4,1021.0
563.939,1023.9
564.477,1030.0
565.015,1043.3
565.554,1058.1
566.092,1073.2
566.63,1045.9
567.168,1040.6
567.706,1064.6
568.244,1051.9
568.781,1047.3
569.319,1057.4
569.857,1068.1
570.394,1079.8
570.931,1122.6
571.468,1155.6
572.005,1119.2
572.542,1087.9
573.079,1087.3
573.616,1091.9
574.153,1098.5
574.689,1095.8
575.226,1098.7
575.762,1101.4
576.298,1110.7
576.834,1116.2
577.371,1107.9
577.907,1112.8
578.442,1113.5
578.978,1122.5
579.514,1122.8
580.049,1127.1
580.585,1129.3
581.12,1137.1
581.656,1166.1
582.191,1485.3
582.726,1163.3
583.261,1153.4
583.796,1154.2
584.331,1159.8
584.865,1168.3
585.4,1188.2
585.935,1332.2
586.469,1284.2
587.004,1188.8
587.538,1176.2
588.072,1173.4
588.606,1177.8
589.14,1172.3
589.674,1176.9
590.208,1177.8
590.742,1183.9
591.275,1183.3
591.809,1183.3
592.342,1183.1
592.876,1186.1
593.409,1191.3
593.942,1191.2
594.476,1194.3
595.009,1199.2
595.542,1192.6
596.075,1197.1
596.607,1200.7
597.14,1205.4
597.673,1205.4
598.205,1212.3
598.738,1215.0
599.27,1216.6
599.803,1213.0
600.335,1214.1
600.867,1218.3
601.399,1213.5
601.931,1208.3
602.463,1223.9
602.995,1214.3
603.527,1216.9
604.058,1210.9
604.59,1213.2
605.122,1213.0
605.653,1211.5
606.184,1209.2
606.716,1209.8
607.247,1211.0
607.778,1211.1
608.309,1213.0
608.84,1221.7
609.371,1216.3
609.902,1216.9
610.433,1214.6
610.964,1211.0
611.494,1218.2
612.025,1228.6
612.556,1229.9
613.086,1234.3
613.616,1238.6
614.147,1241.5
614.677,1234.7
615.207,1239.4
615.737,1237.3
616.267,1240.5
616.797,1250.0
617.327,1238.1
617.857,1251.0
618.387,1251.8
618.917,1246.9
619.446,1252.7
619.976,1253.6
620.505,1243.4
621.035,1248.7
621.564,1248.1
622.093,1257.2
622.623,1259.7
623.152,1259.9
623.681,1271.2
624.21,1276.9
624.739,1277.3
625.268,1280.2
625.797,1288.5
626.326,1281.3
626.855,1284.3
627.383,1286.9
627.912,1290.8
628.441,1297.2
628.969,1313.8
629.498,1316.7
630.026,1310.3
630.554,1310.0
631.083,1339.1
631.611,1380.1
632.139,1382.1
632.667,1368.0
633.195,1367.8
633.724,1342.3
634.252,1343.9
634.779,1344.5
635.307,1347.4
635.835,1377.4
636.363,1416.8
636.891,1422.6
637.418,1383.1
637.946,1369.1
638.474,1384.9
639.001,1382.2
639.529,1382.2
640.056,1392.9
640.583,1383.8
641.111,1398.5
641.638,1387.8
642.165,1404.4
642.692,1408.6
643.22,1401.7
643.747,1401.2
644.274,1398.1
644.801,1406.7
645.328,1398.0
645.854,1405.8
646.381,1398.5
646.908,1423.6
647.435,1418.6
647.962,1429.2
648.488,1415.5
649.015,1421.6
649.542,1407.5
650.068,1414.1
650.595,1422.2
651.121,1414.5
651.648,1416.6
652.174,1431.5
652.7,1423.3
653.227,1419.0
653.753,1418.7
654.279,1421.2
654.805,1420.4
655.331,1421.7
655.858,1428.4
656.384,1431.0
656.91,1433.3
657.436,1428.4
657.962,1424.5
658.488,1428.9
659.013,1429.9
659.539,1418.7
660.065,1434.4
660.591,1420.1
661.117,1429.0
661.642,1412.7
662.168,1416.1
662.694,1423.1
663.088,1411.3