File: spectra/VLFR_02-HDPE_bio_Raman_2aa5806d.csv
nm,Intensity
526.495,829.5
527.042,829.7
527.589,829.1
528.136,828.0
528.682,827.8
529.229,829.2
529.775,829.0
530.321,830.2
530.867,829.2
531.413,828.1
531.959,833.0
532.505,829.4
533.051,828.2
533.596,828.0
534.141,834.4
534.687,834.1
535.232,834.9
535.777,832.3
536.321,834.7
536.866,832.5
537.41,832.0
537.955,835.3
538.499,834.6
539.043,833.5
539.587,835.9
540.131,833.1
540.675,835.1
541.219,832.0
541.762,833.4
542.305,832.5
542.849,834.3
543.392,834.0
543.935,834.1
544.478,834.0
545.02,833.3
545.563,833.9
546.106,834.9
546.648,833.5
547.19,831.7
547.732,833.6
548.274,834.3
548.816,832.9
549.358,833.1
549.9,832.5
550.441,833.5
550.983,832.7
551.524,833.7
552.065,834.0
552.606,832.5
553.147,832.8
553.688,833.6
554.229,834.6
554.769,834.6
555.31,834.1
555.85,833.0
556.391,834.4
556.931,836.0
557.471,834.0
558.011,833.3
558.551,834.2
559.09,836.3
559.63,833.7
560.169,834.3
560.709,836.5
561.248,835.1
561.787,835.3
562.326,835.5
562.865,835.4
563.404,835.0
563.943,834.9
564.481,836.3
565.02,835.5
565.558,834.1
566.096,835.7
566.634,834.6
567.172,834.7
567.71,834.3
568.248,835.0
568.786,836.2
569.324,834.5
569.861,835.0
570.399,835.4
570.936,834.6
571.473,835.1
572.01,835.1
572.547,836.4
573.084,835.9
573.621,835.1
574.158,834.7
574.694,836.6
575.231,835.3
575.767,835.0
576.303,836.6
576.84,836.3
577.376,837.4
577.912,835.9
578.448,837.7
578.984,837.3
579.519,837.7
580.055,838.1
580.59,839.6
581.126,837.2
581.661,838.3
582.196,837.3
582.731,836.7
583.267,838.3
583.801,836.2
584.336,838.8
584.871,837.8
585.406,839.6
585.94,836.1
586.475,836.6
587.009,837.8
587.543,838.6
588.078,838.0
588.612,838.8
589.146,838.9
589.68,836.8
590.214,838.3
590.747,838.2
591.281,836.5
591.815,838.8
592.348,837.9
592.881,841.3
593.415,840.4
593.948,838.4
594.481,839.3
595.014,839.4
595.547,840.4
596.08,841.3
596.613,842.0
597.146,842.1
597.678,843.3
598.211,842.7
598.743,843.7
599.276,843.8
599.808,844.3
600.34,842.8
600.872,844.6
601.404,845.5
601.936,843.4
602.468,843.3
603.0,844.1
603.532,844.5
604.064,844.5
604.595,843.2
605.127,842.4
605.658,842.6
606.189,842.7
606.721,841.0
607.252,842.0
607.783,841.7
608.314,841.7
608.845,842.5
609.376,841.5
609.907,838.8
610.438,841.2
610.968,840.3
611.499,840.4
612.029,839.9
612.56,840.5
613.09,840.6
613.621,840.1
614.151,840.1
614.681,841.8
615.211,839.7
615.741,839.2
616.271,840.5
616.801,840.3
617.331,838.4
617.861,838.9
618.39,837.8
618.92,839.0
619.45,839.2
619.979,840.5
620.509,839.4
621.038,840.1
621.567,839.0
622.096,840.7
622.626,838.0
623.155,839.4
623.684,839.9
624.213,840.2
624.742,838.8
625.271,838.5
625.799,839.3
626.328,839.0
626.857,840.0
627.386,840.2
627.914,838.9
628.443,840.3
628.971,840.9
629.5,840.8
630.028,839.5
630.556,838.1
631.084,838.3
631.613,838.8
632.141,839.1
632.669,838.4
633.197,838.7
633.725,838.9
634.253,839.1
634.781,839.3
635.308,839.9
635.836,837.5
636.364,838.8
636.891,838.2
637.419,837.6
637.947,839.3
638.474,838.7
639.002,839.1
639.529,839.3
640.056,839.0
640.584,839.7
641.111,838.9
641.638,838.2
642.165,838.5
642.692,838.8
643.219,839.0
643.746,837.9
644.273,839.3
644.8,839.2
645.327,838.9
645.854,840.1
646.381,839.7
646.908,837.9
647.434,840.7
647.961,838.9
648.488,841.5
649.014,839.1
649.541,837.6
650.067,841.1
650.594,839.5
651.12,839.9
651.646,841.1
652.173,840.0
652.699,841.2
653.225,840.3
653.752,839.5
654.278,838.2
654.804,838.6
655.33,837.6
655.856,837.4
656.382,841.0
656.908,839.0
657.434,838.9
657.96,838.4
658.486,839.4
659.012,840.0
659.538,838.0
660.064,838.9
660.589,838.4
661.115,837.5
661.641,837.6
662.166,838.7
662.692,837.5
663.086,836.2