File: spectra/VLFR_02-HDPE_bio_Raman_0a487a0d.csv
nm,Intensity
526.547,830.9
527.095,832.05
527.642,833.65
528.189,832.3
528.736,831.85
529.283,831.6
529.829,831.9
530.376,832.15
530.922,831.55
531.468,832.2
532.014,844.25
532.56,832.45
533.106,831.25
533.651,832.95
534.196,883.8
534.742,878.15
535.287,874.35
535.832,858.9
536.376,857.4
536.921,852.35
537.465,853.4
538.01,854.65
538.554,851.7
539.098,849.6
539.642,848.1
540.186,848.9
540.729,846.6
541.273,846.45
541.816,848.1
542.36,847.1
542.903,849.05
543.446,848.45
543.988,847.2
544.531,850.4
545.074,848.75
545.616,849.0
546.158,852.35
546.701,850.1
547.243,847.8
547.785,848.45
548.326,848.75
548.868,848.0
549.41,848.2
549.951,849.95
550.492,850.95
551.034,851.8
551.575,850.65
552.116,848.95
552.656,848.4
553.197,849.8
553.738,849.15
554.278,851.75
554.819,850.9
555.359,850.7
555.899,851.65
556.439,853.5
556.979,854.55
557.519,855.75
558.058,855.6
558.598,856.95
559.137,855.55
559.677,855.35
560.216,855.35
560.755,854.9
561.294,855.25
561.833,857.5
562.371,902.85
562.91,863.4
563.449,862.1
563.987,933.8
564.525,874.85
565.064,871.3
565.602,870.6
566.14,973.8
566.678,870.65
567.216,864.4
567.753,865.85
568.291,860.95
568.828,861.8
569.366,863.65
569.903,864.45
570.44,869.55
570.977,873.3
571.514,1004.2
572.051,888.65
572.588,874.25
573.125,873.25
573.661,876.25
574.198,878.25
574.734,878.25
575.271,887.1
575.807,922.35
576.343,989.0
576.879,950.5
577.415,931.15
577.951,910.0
578.486,909.2
579.022,921.1
579.557,928.85
580.093,938.05
580.628,944.35
581.164,951.7
581.699,955.65
582.234,964.15
582.769,971.7
583.304,974.55
583.838,976.35
584.373,978.2
584.908,975.7
585.442,976.1
585.977,977.25
586.511,976.25
587.045,972.55
587.58,968.35
588.114,966.95
588.648,965.35
589.182,963.35
589.715,961.25
590.249,963.85
590.783,965.2
591.316,961.45
591.85,959.6
592.383,961.2
592.917,961.45
593.45,959.05
593.983,956.95
594.516,958.35
595.049,958.5
595.582,961.6
596.115,961.05
596.648,960.95
597.18,964.25
597.713,962.15
598.245,968.55
598.778,967.7
599.31,972.45
599.842,971.5
600.375,967.6
600.907,970.5
601.439,969.05
601.971,969.9
602.503,970.9
603.034,968.75
603.566,963.55
604.098,960.5
604.629,958.35
605.161,947.95
605.692,945.4
606.224,941.15
606.755,939.85
607.286,934.9
607.817,934.85
608.348,931.75
608.879,929.55
609.41,924.4
609.941,922.95
610.472,919.3
611.002,919.9
611.533,918.8
612.063,917.75
612.594,916.6
613.124,916.25
613.655,911.9
614.185,912.1
614.715,908.15
615.245,910.5
615.775,907.3
616.305,908.75
616.835,910.6
617.365,913.7
617.895,913.5
618.425,911.95
618.954,912.8
619.484,914.55
620.013,918.85
620.543,915.1
621.072,917.05
621.602,930.6
622.131,949.3
622.66,942.95
623.189,923.05
623.718,920.45
624.247,919.95
624.776,924.8
625.305,926.85
625.834,936.85
626.363,964.1
626.891,1206.75
627.42,1552.6
627.949,1284.65
628.477,1555.25
629.006,1333.4
629.534,1235.75
630.062,1150.7
630.591,1123.9
631.119,1016.75
631.647,964.6
632.175,950.0
632.703,946.4
633.231,942.95
633.759,943.5
634.287,940.15
634.815,939.85
635.343,936.55
635.871,936.6
636.398,937.3
636.926,934.2
637.454,930.2
637.981,928.45
638.509,927.15
639.036,927.15
639.564,924.75
640.091,921.8
640.618,921.7
641.146,920.7
641.673,916.9
642.2,918.45
642.727,915.7
643.254,911.8
643.781,911.2
644.308,911.9
644.835,910.4
645.362,908.9
645.889,910.45
646.416,907.95
646.942,906.95
647.469,909.1
647.996,904.15
648.522,905.15
649.049,903.35
649.576,904.3
650.102,904.3
650.629,902.2
651.155,901.8
651.682,902.05
652.208,903.2
652.734,902.95
653.261,901.1
653.787,899.6
654.313,900.35
654.839,898.6
655.365,899.3
655.892,896.95
656.418,896.5
656.944,896.3
657.47,895.8
657.996,895.5
658.522,892.6
659.048,892.0
659.574,892.7
660.099,893.4
660.625,888.45
661.151,888.9
661.677,888.2
662.203,886.7
662.728,883.3
663.123,879.5