File: spectra/VLFR_07-PET_nobio_Raman_c226ce8c.csv
cm-1,Intensity
109.24,8599.05
126.699,8037.8
144.108,7832.15
161.468,7564.65
178.779,7566.8
196.04,7538.95
213.253,7608.45
230.417,7480.9
247.532,7585.1
264.599,7588.15
281.618,7524.25
298.59,7410.55
315.513,7394.05
332.389,7313.4
349.218,7297.7
365.999,7155.05
382.734,7255.1
399.422,7109.25
416.064,7046.75
432.659,7000.05
449.208,6898.9
465.711,6843.4
482.168,6904.85
498.579,6745.9
514.946,6672.4
531.267,6669.25
547.542,6604.3
563.773,6614.95
579.96,6465.05
596.102,6554.7
612.199,6476.7
628.252,6622.4
644.261,6480.55
660.227,6358.3
676.149,6320.05
692.027,6367.2
707.862,6322.95
723.654,6253.25
739.403,6160.15
755.109,6138.05
770.773,6129.0
786.394,6232.05
801.973,6139.25
817.509,6147.5
833.004,6149.8
848.457,6269.8
863.868,6191.6
879.238,6056.85
894.567,5944.1
909.854,5857.3
925.1,5841.2
940.306,5774.6
955.471,5757.0
970.595,5722.6
985.679,5707.8
1000.72,5659.55
1015.73,5690.1
1030.69,5614.1
1045.61,5554.75
1060.5,5581.75
1075.34,5508.2
1090.15,5590.1
1104.92,5617.85
1119.64,5596.5
1134.33,5451.55
1148.98,5422.0
1163.6,5420.35
1178.17,5421.5
1192.7,5310.85
1207.2,5352.9
1221.66,5265.75
1236.08,5362.6
1250.46,5322.45
1264.81,5414.55
1279.12,5492.7
1293.39,5431.4
1307.62,5318.35
1321.82,5193.0
1335.98,5199.65
1350.11,5140.2
1364.19,5138.6
1378.24,5087.55
1392.26,5093.8
1406.24,5090.55
1420.18,5051.25
1434.08,5051.3
1447.96,5035.85
1461.79,5017.35
1475.59,4996.65
1489.35,4977.55
1503.08,4902.4
1516.78,4922.05
1530.44,4910.75
1544.06,4857.75
1557.65,4814.45
1571.2,4815.35
1584.72,4796.45
1598.21,5021.6
1611.66,5164.3
1625.08,4901.5
1638.46,4704.1
1651.81,4682.15
1665.13,4667.8
1678.41,4659.3
1691.66,4651.55
1704.88,4753.7
1718.06,4922.45
1731.21,4856.65
1744.32,4631.7
1757.41,4583.7
1770.46,4500.6
1783.48,4471.1
1796.46,4479.9
1809.42,4444.25
1822.34,4450.05
1835.23,4409.45
1848.08,4413.4
1860.91,4393.8
1873.7,4371.1
1886.46,4349.3
1899.19,4336.5
1911.89,4318.65
1924.56,4313.9
1937.19,4273.3
1949.8,4267.15
1962.37,4241.75
1974.91,4212.15
1987.42,4195.55
1999.9,4171.1
2012.36,4168.95
2024.78,4148.0
2037.16,4129.3
2049.52,4111.0
2061.85,4096.2
2074.15,4083.1
2086.42,4097.1
2098.66,4076.6
2110.87,4074.55
2123.05,4058.7
2135.2,4038.95
2147.32,4027.15
2159.41,4024.8
2171.47,4020.4
2183.51,3995.85
2195.51,3991.85
2207.49,3995.1
2219.43,3979.1
2231.35,3972.95
2243.24,3961.6
2255.1,3950.4
2266.93,3945.1
2278.73,3944.5
2290.51,3940.1
2302.26,3929.2
2313.97,3921.55
2325.67,3917.55
2337.33,3907.6
2348.96,3909.9
2360.57,3896.35
2372.15,3897.95
2383.7,3897.05
2395.23,3890.55
2406.73,3891.85
2418.2,3887.6
2429.64,3880.15
2441.06,3871.8
2452.45,3871.45
2463.81,3862.35
2475.15,3862.05
2486.46,3853.1
2497.74,3848.05
2509.0,3847.9
2520.23,3844.0
2531.43,3845.85
2542.61,3839.3
2553.76,3838.3
2564.88,3832.8
2575.98,3835.7
2587.06,3829.2
2598.1,3828.6
2609.13,3823.9
2620.12,3819.3
2631.09,3820.9
2642.04,3813.0
2652.96,3811.9
2663.85,3810.8
2674.72,3808.55
2685.57,3806.0
2696.39,3800.7
2707.18,3800.4
2717.95,3796.95
2728.69,3794.25
2739.41,3796.1
2750.11,3789.35
2760.78,3791.2
2771.43,3787.35
2782.05,3783.85
2792.65,3782.15
2803.22,3780.85
2813.77,3778.35
2824.3,3778.6
2834.8,3775.5
2845.27,3775.15
2855.73,3770.5
2866.16,3771.3
2876.56,3771.65
2886.95,3768.75
2897.3,3768.8
2907.64,3763.65
2917.95,3764.05
2928.24,3765.6
2938.51,3766.4
2948.75,3767.0
2958.97,3767.95
2969.17,3766.6
2979.34,3761.55
2989.49,3760.35
2999.62,3758.5
3009.72,3756.05
3019.81,3753.85
3029.87,3752.5
3039.9,3750.8
3049.92,3751.85
3059.91,3752.05
3069.88,3752.65
3079.83,3754.0
3089.76,3752.75
3099.66,3749.6
3109.54,3746.95
3119.4,3745.9
3129.24,3745.65
3139.06,3743.6
3148.85,3743.95
3158.62,3744.1
3168.38,3741.35
3178.11,3741.15
3187.81,3741.15
3197.5,3741.65
3207.17,3740.35
3216.81,3741.1
3226.44,3739.2
3236.04,3739.7
3245.62,3738.55
3255.18,3739.9
3264.72,3739.25
3274.24,3738.4
3283.73,3738.8
3293.21,3738.6
3302.67,3737.1
3312.1,3738.2
3321.52,3739.35
3330.91,3737.6
3340.29,3737.45
3349.64,3737.65
3358.97,3737.15
3368.29,3736.6
3375.26,3738.3