File: spectra/VLFR_08-PLA_nobio_Raman_80a4eb42.csv
nm,Intensity
526.5,828.6
527.047,830.2
527.594,828.5
528.14,829.4
528.687,830.0
529.233,829.1
529.779,828.7
530.325,828.3
530.871,830.1
531.417,827.9
531.962,833.7
532.508,829.1
533.053,828.8
533.599,830.2
534.144,1043.5
534.689,997.2
535.234,965.6
535.778,941.9
536.323,937.0
536.867,935.4
537.412,926.4
537.956,924.9
538.5,912.3
539.044,908.0
539.588,902.8
540.132,900.0
540.675,918.5
541.219,921.8
541.762,908.5
542.305,906.6
542.848,906.4
543.391,931.4
543.934,949.0
544.477,915.0
545.02,905.0
545.562,900.7
546.105,897.1
546.647,902.9
547.189,905.9
547.731,905.8
548.273,901.7
548.815,904.3
549.356,909.0
549.898,907.8
550.439,910.3
550.981,910.8
551.522,910.3
552.063,916.7
552.604,919.2
553.145,921.8
553.686,913.6
554.226,923.1
554.767,910.9
555.307,911.3
555.848,907.4
556.388,909.1
556.928,912.5
557.468,924.4
558.008,1037.9
558.547,947.3
559.087,926.7
559.626,928.0
560.166,917.1
560.705,913.2
561.244,913.8
561.783,910.8
562.322,919.6
562.861,930.6
563.4,961.2
563.939,937.8
564.477,923.6
565.015,953.9
565.554,942.4
566.092,982.6
566.63,946.4
567.168,922.0
567.706,929.4
568.244,929.5
568.781,929.0
569.319,933.3
569.857,930.0
570.394,925.2
570.931,930.8
571.468,953.8
572.005,951.7
572.542,939.0
573.079,944.2
573.616,950.5
574.153,944.8
574.689,955.1
575.226,931.4
575.762,932.6
576.298,955.2
576.834,1011.7
577.371,958.4
577.907,935.3
578.442,937.5
578.978,931.8
579.514,935.8
580.049,934.0
580.585,935.4
581.12,934.3
581.656,934.4
582.191,930.8
582.726,937.2
583.261,932.6
583.796,941.4
584.331,940.6
584.865,934.7
585.4,939.7
585.935,936.7
586.469,947.3
587.004,986.4
587.538,1017.3
588.072,963.3
588.606,938.3
589.14,937.1
589.674,935.8
590.208,935.8
590.742,931.9
591.275,937.0
591.809,935.2
592.342,935.5
592.876,932.9
593.409,932.9
593.942,931.5
594.476,935.5
595.009,932.8
595.542,935.5
596.075,932.5
596.607,937.5
597.14,934.3
597.673,931.9
598.205,936.5
598.738,936.1
599.27,936.4
599.803,935.5
600.335,932.6
600.867,933.1
601.399,931.2
601.931,932.6
602.463,931.6
602.995,932.9
603.527,932.8
604.058,933.7
604.59,932.6
605.122,930.1
605.653,934.5
606.184,931.5
606.716,931.3
607.247,932.0
607.778,928.3
608.309,932.2
608.84,932.1
609.371,929.0
609.902,932.8
610.433,930.5
610.964,931.1
611.494,930.1
612.025,931.8
612.556,931.0
613.086,931.5
613.616,938.6
614.147,934.8
614.677,930.8
615.207,931.3
615.737,933.5
616.267,928.5
616.797,933.1
617.327,931.1
617.857,931.7
618.387,932.4
618.917,930.0
619.446,934.5
619.976,924.9
620.505,928.2
621.035,928.3
621.564,928.5
622.093,931.6
622.623,936.1
623.152,943.4
623.681,939.6
624.21,933.6
624.739,933.2
625.268,927.3
625.797,932.3
626.326,930.5
626.855,934.1
627.383,933.2
627.912,943.9
628.441,1008.8
628.969,1000.9
629.498,999.7
630.026,1002.7
630.554,1069.2
631.083,1495.2
631.611,1213.5
632.139,1069.5
632.667,1049.4
633.195,1149.6
633.724,1117.3
634.252,1008.3
634.779,948.3
635.307,932.3
635.835,925.8
636.363,927.6
636.891,923.6
637.418,920.6
637.946,922.5
638.474,916.9
639.001,920.2
639.529,917.5
640.056,918.7
640.583,919.0
641.111,919.6
641.638,919.4
642.165,920.5
642.692,918.2
643.22,913.9
643.747,913.6
644.274,908.9
644.801,907.5
645.328,907.7
645.854,907.5
646.381,906.1
646.908,903.3
647.435,910.3
647.962,906.0
648.488,908.4
649.015,905.9
649.542,905.5
650.068,905.8
650.595,904.6
651.121,906.5
651.648,901.3
652.174,905.1
652.7,904.2
653.227,904.1
653.753,902.3
654.279,906.1
654.805,898.3
655.331,900.7
655.858,902.7
656.384,901.4
656.91,904.1
657.436,901.3
657.962,903.7
658.488,902.4
659.013,903.3
659.539,900.3
660.065,898.1
660.591,899.9
661.117,900.8
661.642,896.6
662.168,897.5
662.694,892.2
663.088,893.9