File: spectra/VLFR_02-HDPE_bio_Raman_67cf9340.csv
nm,Intensity
528.629,1852.45
529.134,1852.6
529.639,1853.05
530.145,1853.0
530.65,1853.45
531.155,1853.8
531.66,1879.15
532.165,2702.8
532.67,1854.55
533.175,1853.85
533.68,1890.0
534.185,1960.35
534.69,1952.1
535.195,1963.55
535.699,1963.3
536.204,1930.45
536.709,1918.3
537.213,1918.5
537.718,1937.6
538.222,1933.05
538.727,1911.5
539.231,1905.1
539.735,1908.9
540.239,1908.1
540.744,1909.65
541.248,1909.9
541.752,1909.95
542.256,1910.95
542.76,1918.05
543.264,1917.3
543.768,1918.85
544.271,1913.65
544.775,1916.05
545.279,1913.95
545.783,1916.25
546.286,1916.9
546.79,1920.85
547.293,1920.7
547.797,1922.35
548.3,1920.45
548.803,1926.35
549.306,1927.2
549.81,1928.95
550.313,1925.55
550.816,1931.7
551.319,1938.95
551.822,1940.95
552.325,1930.6
552.828,1924.15
553.33,1924.15
553.833,1925.25
554.336,1921.3
554.838,1925.1
555.341,1923.8
555.843,1923.65
556.346,1928.0
556.848,1929.35
557.35,1931.85
557.853,1932.4
558.355,1931.45
558.857,1933.35
559.359,1933.05
559.861,1934.05
560.363,1932.7
560.865,1937.35
561.367,1931.95
561.869,1934.8
562.37,1937.8
562.872,1936.2
563.374,1936.45
563.875,1937.85
564.376,1930.55
564.878,1935.45
565.379,1937.2
565.881,1936.6
566.382,1937.95
566.883,1936.25
567.384,1936.45
567.885,1940.45
568.386,1941.0
568.887,1936.9
569.388,1938.4
569.888,1940.85
570.389,1939.15
570.89,1936.4
571.39,1944.1
571.891,1945.4
572.391,1944.05
572.892,1944.4
573.392,1940.45
573.892,1940.75
574.393,1946.75
574.893,1946.8
575.393,1945.3
575.893,1951.2
576.393,1951.5
576.893,1944.9
577.392,1940.05
577.892,1949.55
578.392,1948.35
578.891,1941.7
579.391,1947.4
579.89,1952.0
580.39,1949.7
580.889,1955.6
581.388,1953.35
581.888,1957.65
582.387,1969.1
582.886,1996.95
583.385,1981.35
583.884,1961.15
584.383,1956.55
584.881,1955.05
585.38,1951.45
585.879,1953.4
586.377,1954.6
586.876,1956.6
587.374,1955.6
587.873,1948.3
588.371,1953.0
588.869,1955.65
589.368,1951.45
589.866,1962.05
590.364,1954.95
590.862,1954.8
591.36,1951.35
591.857,1954.8
592.355,1957.7
592.853,1953.65
593.35,1951.85
593.848,1959.4
594.345,1964.4
594.843,1958.15
595.34,1964.5
595.837,1963.7
596.335,1964.1
596.832,1962.1
597.329,1961.75
597.826,1962.95
598.323,1961.75
598.819,1964.45
599.316,1958.4
599.813,1964.65
600.309,1975.7
600.806,1966.5
601.302,1965.35
601.799,1966.0
602.295,1973.1
602.791,1969.1
603.288,1968.9
603.784,1975.95
604.28,1973.65
604.776,1971.05
605.272,1974.05
605.767,1970.85
606.263,1973.0
606.759,1974.3
607.254,1966.05
607.75,1968.55
608.245,1967.55
608.74,1973.0
609.236,1970.5
609.731,1969.45
610.226,1966.55
610.721,1968.9
611.216,1967.0
611.711,1978.05
612.206,1971.2
612.7,1966.2
613.195,1963.0
613.69,1964.15
614.184,1968.35
614.679,1967.65
615.173,1972.85
615.667,1972.15
616.161,1969.3
616.656,1963.7
617.15,1971.8
617.644,1969.05
618.137,1965.3
618.631,1966.75
619.125,1968.3
619.619,1973.75
620.112,1977.35
620.606,1966.0
621.099,1974.35
621.592,1970.25
622.086,1965.35
622.579,1967.15
623.072,1970.1
623.565,1970.25
624.058,1970.5
624.551,1962.65
625.043,1962.5
625.536,1971.55
626.029,1969.95
626.521,1963.1
627.014,1972.4
627.506,1969.05
627.998,1967.7
628.49,1970.95
628.983,1970.05
629.475,1967.95
629.966,1964.45
630.458,1976.65
630.95,1966.75
631.442,1960.4
631.933,1966.0
632.425,1963.25
632.916,1963.65
633.408,1958.05
633.899,1961.65
634.39,1971.8
634.881,1960.3
635.372,1958.25
635.863,1959.1
636.354,1964.95
636.845,1959.6
637.336,1961.3
637.826,1957.65
638.317,1965.6
638.807,1960.15
639.298,1962.7
639.788,1973.05
640.278,1967.0
640.768,1961.0
641.258,1962.2
641.748,1977.95
642.238,1977.3
642.728,1991.2
643.217,2002.4
643.707,1993.05
644.197,1989.2
644.686,2003.9
645.175,1983.45
645.664,1987.25
646.154,2001.1
646.643,2009.75
647.132,2017.5
647.621,2050.95
648.109,2082.8
648.598,2148.35
649.087,2173.7
649.575,2265.8
650.064,2303.85
650.552,2351.9
651.04,2378.3
651.528,2306.15
652.017,2215.45
652.505,2139.8
652.992,2099.3
653.48,2065.4
653.968,2034.5
654.456,2008.05
654.943,2001.05
655.431,2000.85
655.918,1977.65
656.405,1971.55
656.893,1965.5
657.38,1960.0
657.867,1951.95
658.354,1940.7
658.84,1938.75
659.327,1933.5
659.814,1930.0
660.3,1929.7
660.787,1926.1
661.03,1924.4