File: spectra/VLFR_07-PET_nobio_Raman_54331eda.csv
nm,Intensity
791.75,11935.7
792.846,10966.7
793.942,10645.3
795.037,10586.4
796.133,10516.6
797.228,10466.9
798.324,10550.3
799.419,10378.1
800.514,10327.5
801.61,10367.8
802.705,10295.2
803.8,10114.0
804.894,10129.2
805.989,9812.8
807.084,9766.65
808.178,9723.85
809.273,9599.5
810.367,9557.4
811.461,9448.75
812.556,9403.45
813.65,9403.35
814.744,9317.9
815.837,9207.45
816.931,9176.7
818.025,9041.0
819.118,8968.75
820.212,8939.7
821.305,8789.6
822.398,8695.4
823.491,8601.0
824.585,8559.85
825.677,8904.7
826.77,8431.1
827.863,8255.5
828.956,8351.35
830.048,8273.85
831.14,8175.25
832.233,7984.7
833.325,8090.35
834.417,7893.3
835.509,7857.35
836.601,7797.35
837.692,7923.55
838.784,7732.35
839.876,7726.45
840.967,8053.15
842.058,7718.75
843.149,7608.35
844.24,7414.5
845.331,7260.9
846.422,7142.85
847.513,7201.7
848.604,7106.45
849.694,7054.9
850.784,7071.0
851.875,7012.65
852.965,6990.45
854.055,6933.65
855.145,6855.85
856.235,6891.15
857.324,6871.8
858.414,6943.9
859.503,6994.7
860.593,6973.05
861.682,6670.25
862.771,6597.6
863.86,6668.15
864.949,6636.5
866.038,6519.45
867.126,6477.4
868.215,6429.75
869.303,6497.65
870.391,6488.95
871.479,6770.35
872.567,6746.2
873.655,6675.4
874.743,6444.3
875.831,6340.8
876.918,6210.35
878.006,6176.35
879.093,6148.25
880.18,6117.6
881.267,6120.25
882.354,6023.95
883.441,6067.55
884.527,6057.95
885.614,5999.0
886.7,5911.05
887.786,5868.75
888.872,5827.8
889.958,5774.7
891.044,5779.0
892.13,5778.8
893.216,5654.95
894.301,5662.6
895.386,5640.6
896.472,5692.05
897.557,6210.7
898.642,6203.0
899.726,5614.95
900.811,5433.65
901.896,5391.95
902.98,5363.2
904.064,5333.35
905.148,5378.8
906.232,5619.85
907.316,5800.2
908.4,5690.95
909.484,5290.5
910.567,5195.4
911.65,5094.1
912.734,5090.8
913.817,5007.25
914.9,4984.5
915.982,4941.1
917.065,4915.15
918.147,4892.95
919.23,4894.25
920.312,4820.45
921.394,4799.4
922.476,4773.05
923.558,4739.25
924.639,4726.15
925.721,4676.35
926.802,4645.25
927.884,4620.75
928.965,4609.6
930.046,4567.55
931.126,4543.1
932.207,4504.5
933.288,4483.75
934.368,4445.65
935.448,4462.1
936.528,4428.3
937.608,4401.25
938.688,4386.85
939.767,4360.35
940.847,4343.25
941.926,4341.65
943.005,4292.8
944.084,4274.8
945.163,4254.7
946.242,4243.2
947.321,4215.0
948.399,4209.2
949.477,4210.2
950.556,4179.45
951.634,4160.5
952.711,4146.0
953.789,4140.0
954.867,4109.7
955.944,4114.65
957.021,4095.75
958.098,4084.0
959.175,4075.9
960.252,4053.4
961.328,4036.25
962.405,4027.4
963.481,4020.8
964.557,4008.45
965.633,3990.55
966.709,3991.55
967.785,3988.4
968.86,3971.9
969.936,3952.0
971.011,3954.9
972.086,3994.35
973.161,3934.6
974.235,3926.55
975.31,3922.4
976.384,3912.2
977.459,3899.35
978.533,3897.8
979.607,3887.7
980.68,3888.55
981.754,3875.85
982.827,3872.2
983.901,3858.95
984.974,3862.9
986.047,3853.5
987.119,3840.85
988.192,3842.45
989.264,3833.5
990.337,3827.55
991.409,3820.6
992.481,3818.25
993.553,3812.8
994.624,3809.1
995.696,3804.8
996.767,3796.45
997.838,3794.95
998.909,3794.25
999.98,3788.25
1001.05,3781.45
1002.12,3782.7
1003.19,3777.3
1004.26,3773.55
1005.33,3772.4
1006.4,3768.3
1007.47,3762.75
1008.54,3758.65
1009.61,3759.95
1010.68,3756.65
1011.75,3752.55
1012.82,3749.85
1013.88,3750.8
1014.95,3748.5
1016.02,3745.8
1017.09,3740.7
1018.16,3740.45
1019.22,3739.95
1020.29,3742.25
1021.36,3747.9
1022.43,3745.75
1023.49,3742.25
1024.56,3737.65
1025.63,3733.9
1026.69,3726.65
1027.76,3724.4
1028.83,3720.05
1029.89,3718.0
1030.96,3716.75
1032.02,3717.8
1033.09,3720.15
1034.15,3720.0
1035.22,3721.0
1036.28,3715.35
1037.35,3713.8
1038.41,3708.85
1039.48,3708.3
1040.54,3706.9
1041.6,3705.25
1042.67,3704.95
1043.73,3703.9
1044.79,3703.0
1045.86,3700.35
1046.92,3702.0
1047.98,3700.2
1049.05,3701.0
1050.11,3698.9
1051.17,3699.45
1052.23,3699.65
1053.29,3700.0
1054.36,3699.3
1055.42,3700.75
1056.48,3698.15
1057.54,3696.9
1058.6,3696.35
1059.66,3698.25
1060.72,3697.5
1061.78,3696.4
1062.84,3696.95
1063.9,3696.7
1064.96,3696.8
1066.02,3695.8
1067.08,3694.75
1067.88,3694.25