File: spectra/VLFR_01-LDPE_bio_Raman_a5824c6a.csv
nm,Intensity
526.495,828.7
527.042,829.0
527.589,829.6
528.136,827.9
528.682,830.5
529.229,829.2
529.775,829.1
530.321,829.0
530.867,829.6
531.413,829.4
531.959,832.5
532.505,829.3
533.051,829.2
533.596,832.4
534.141,1038.1
534.687,1042.8
535.232,1021.2
535.777,1012.6
536.321,1006.1
536.866,996.2
537.41,995.3
537.955,999.7
538.499,996.8
539.043,998.1
539.587,1004.1
540.131,997.9
540.675,1005.7
541.219,1010.5
541.762,1013.2
542.305,1016.6
542.849,1018.0
543.392,1028.9
543.935,1025.6
544.478,1036.3
545.02,1042.3
545.563,1048.5
546.106,1050.4
546.648,1060.2
547.19,1068.8
547.732,1069.8
548.274,1082.6
548.816,1089.8
549.358,1095.4
549.9,1106.9
550.441,1117.2
550.983,1119.1
551.524,1133.5
552.065,1144.3
552.606,1154.7
553.147,1169.6
553.688,1176.6
554.229,1196.7
554.769,1202.1
555.31,1215.5
555.85,1229.4
556.391,1246.4
556.931,1262.4
557.471,1283.5
558.011,1303.4
558.551,1326.4
559.09,1343.7
559.63,1372.8
560.169,1404.0
560.709,1433.1
561.248,1456.8
561.787,1472.0
562.326,1504.0
562.865,1544.6
563.404,1582.1
563.943,1628.8
564.481,1665.1
565.02,1693.3
565.558,1745.5
566.096,1787.6
566.634,1814.8
567.172,1859.3
567.71,1892.2
568.248,1929.6
568.786,2011.5
569.324,2081.1
569.861,2129.1
570.399,2182.7
570.936,2247.7
571.473,2336.0
572.01,2382.5
572.547,2426.4
573.084,2480.4
573.621,2562.4
574.158,2631.5
574.694,2661.9
575.231,2735.4
575.767,2816.1
576.303,2874.8
576.84,2936.0
577.376,3001.0
577.912,3032.4
578.448,3095.3
578.984,3157.1
579.519,3210.7
580.055,3232.9
580.59,3287.6
581.126,3346.1
581.661,3373.9
582.196,3393.9
582.731,3409.2
583.267,3453.8
583.801,3465.8
584.336,3453.8
584.871,3430.5
585.406,3449.4
585.94,3457.2
586.475,3465.4
587.009,3483.6
587.543,3462.0
588.078,3441.8
588.612,3413.2
589.146,3376.3
589.68,3358.6
590.214,3327.6
590.747,3305.4
591.281,3270.1
591.815,3235.7
592.348,3211.4
592.881,3166.6
593.415,3098.6
593.948,3062.9
594.481,3028.2
595.014,3027.0
595.547,2978.6
596.08,2963.1
596.613,2945.7
597.146,2930.5
597.678,2889.2
598.211,2862.4
598.743,2826.6
599.276,2834.0
599.808,2828.3
600.34,2776.3
600.872,2741.7
601.404,2727.0
601.936,2707.3
602.468,2692.9
603.0,2672.9
603.532,2669.0
604.064,2645.1
604.595,2625.9
605.127,2592.6
605.658,2585.9
606.189,2559.7
606.721,2547.0
607.252,2549.4
607.783,2545.6
608.314,2552.4
608.845,2568.2
609.376,2568.4
609.907,2564.2
610.438,2555.8
610.968,2541.6
611.499,2562.8
612.029,2588.4
612.56,2604.3
613.09,2638.3
613.621,2650.8
614.151,2663.2
614.681,2672.0
615.211,2677.0
615.741,2705.5
616.271,2716.6
616.801,2723.1
617.331,2747.5
617.861,2771.7
618.39,2769.7
618.92,2785.3
619.45,2789.1
619.979,2806.7
620.509,2817.4
621.038,2818.3
621.567,2818.7
622.096,2829.8
622.626,2843.6
623.155,2867.5
623.684,2866.2
624.213,2871.9
624.742,2891.9
625.271,2895.3
625.799,2884.1
626.328,2889.7
626.857,2916.7
627.386,2953.5
627.914,2963.4
628.443,2992.8
628.971,3023.9
629.5,3007.5
630.028,2999.3
630.556,3019.7
631.084,3016.7
631.613,3000.9
632.141,2978.8
632.669,2954.6
633.197,2937.5
633.725,2921.8
634.253,2909.8
634.781,2929.9
635.308,2922.5
635.836,2935.3
636.364,2920.9
636.891,2916.0
637.419,2914.7
637.947,2887.7
638.474,2911.7
639.002,2905.8
639.529,2883.8
640.056,2894.4
640.584,2890.6
641.111,2874.6
641.638,2858.4
642.165,2837.6
642.692,2833.1
643.219,2800.4
643.746,2802.8
644.273,2760.7
644.8,2735.3
645.327,2738.9
645.854,2718.7
646.381,2705.0
646.908,2693.6
647.434,2693.3
647.961,2657.8
648.488,2652.1
649.014,2622.2
649.541,2612.1
650.067,2603.0
650.594,2590.6
651.12,2564.1
651.646,2571.0
652.173,2557.2
652.699,2530.6
653.225,2514.0
653.752,2521.4
654.278,2514.2
654.804,2490.9
655.33,2486.1
655.856,2461.4
656.382,2474.1
656.908,2440.9
657.434,2429.8
657.96,2422.4
658.486,2416.3
659.012,2396.7
659.538,2393.5
660.064,2377.0
660.589,2376.4
661.115,2350.3
661.641,2325.9
662.166,2313.4
662.692,2310.4
663.086,2301.5