File: spectra/VLFR_01-LDPE_bio_Raman_821a6d32.csv
nm,Intensity
526.547,832.55
527.095,831.95
527.642,831.85
528.189,832.05
528.736,833.55
529.283,831.8
529.829,831.9
530.376,831.25
530.922,831.75
531.468,833.1
532.014,839.7
532.56,833.15
533.106,832.7
533.651,833.4
534.196,942.35
534.742,923.5
535.287,906.5
535.832,883.6
536.376,878.05
536.921,874.7
537.465,871.75
538.01,872.15
538.554,866.25
539.098,862.85
539.642,859.5
540.186,858.9
540.729,857.95
541.273,854.65
541.816,854.9
542.36,854.25
542.903,854.85
543.446,853.4
543.988,853.9
544.531,852.45
545.074,852.65
545.616,851.5
546.158,851.7
546.701,851.7
547.243,851.85
547.785,851.3
548.326,851.25
548.868,850.6
549.41,851.2
549.951,849.65
550.492,850.3
551.034,850.85
551.575,851.05
552.116,853.05
552.656,852.6
553.197,854.6
553.738,856.3
554.278,856.9
554.819,858.6
555.359,860.8
555.899,861.95
556.439,863.85
556.979,865.05
557.519,869.6
558.058,874.35
558.598,874.4
559.137,872.9
559.677,871.0
560.216,871.25
560.755,869.65
561.294,872.0
561.833,874.2
562.371,876.85
562.91,885.05
563.449,889.0
563.987,984.45
564.525,916.55
565.064,908.35
565.602,901.05
566.14,991.95
566.678,911.1
567.216,901.35
567.753,904.7
568.291,900.25
568.828,905.95
569.366,910.1
569.903,914.15
570.44,924.75
570.977,935.8
571.514,1101.45
572.051,985.1
572.588,959.75
573.125,955.5
573.661,968.4
574.198,986.8
574.734,988.2
575.271,1006.0
575.807,1072.55
576.343,1240.5
576.879,1175.15
577.415,1140.05
577.951,1115.85
578.486,1137.3
579.022,1162.35
579.557,1198.8
580.093,1221.95
580.628,1251.2
581.164,1276.3
581.699,1300.35
582.234,1330.75
582.769,1354.95
583.304,1386.9
583.838,1396.5
584.373,1414.8
584.908,1427.8
585.442,1447.9
585.977,1459.2
586.511,1486.35
587.045,1503.9
587.58,1523.1
588.114,1540.75
588.648,1556.6
589.182,1574.05
589.715,1602.45
590.249,1621.35
590.783,1637.9
591.316,1661.85
591.85,1664.55
592.383,1670.3
592.917,1687.2
593.45,1684.2
593.983,1690.95
594.516,1697.85
595.049,1721.4
595.582,1728.05
596.115,1753.9
596.648,1754.6
597.18,1779.95
597.713,1793.35
598.245,1824.9
598.778,1845.8
599.31,1853.5
599.842,1867.65
600.375,1862.6
600.907,1866.5
601.439,1850.1
601.971,1842.8
602.503,1824.7
603.034,1802.95
603.566,1777.8
604.098,1739.0
604.629,1695.15
605.161,1660.2
605.692,1617.2
606.224,1577.35
606.755,1535.1
607.286,1514.45
607.817,1487.8
608.348,1471.4
608.879,1450.4
609.41,1425.2
609.941,1400.45
610.472,1384.75
611.002,1374.7
611.533,1360.7
612.063,1349.7
612.594,1336.75
613.124,1335.35
613.655,1322.3
614.185,1311.85
614.715,1300.45
615.245,1292.6
615.775,1277.0
616.305,1267.85
616.835,1254.25
617.365,1262.5
617.895,1252.25
618.425,1255.4
618.954,1239.85
619.484,1241.9
620.013,1236.4
620.543,1237.05
621.072,1239.45
621.602,1255.95
622.131,1281.9
622.66,1275.75
623.189,1237.7
623.718,1229.05
624.247,1231.4
624.776,1232.0
625.305,1240.7
625.834,1253.1
626.363,1287.55
626.891,1670.15
627.42,2208.55
627.949,1830.6
628.477,2218.3
629.006,1893.7
629.534,1755.0
630.062,1619.8
630.591,1590.75
631.119,1415.45
631.647,1326.5
632.175,1300.15
632.703,1286.1
633.231,1286.8
633.759,1284.85
634.287,1283.65
634.815,1286.25
635.343,1279.85
635.871,1285.15
636.398,1291.1
636.926,1284.9
637.454,1282.55
637.981,1289.2
638.509,1283.95
639.036,1283.0
639.564,1292.05
640.091,1293.75
640.618,1301.95
641.146,1293.85
641.673,1302.1
642.2,1309.0
642.727,1306.65
643.254,1295.6
643.781,1297.45
644.308,1298.7
644.835,1301.3
645.362,1297.85
645.889,1301.75
646.416,1297.75
646.942,1302.05
647.469,1308.15
647.996,1298.85
648.522,1300.25
649.049,1293.7
649.576,1292.4
650.102,1295.25
650.629,1291.2
651.155,1298.2
651.682,1301.1
652.208,1303.2
652.734,1306.9
653.261,1301.5
653.787,1309.1
654.313,1301.9
654.839,1302.35
655.365,1296.15
655.892,1289.55
656.418,1279.55
656.944,1276.75
657.47,1265.6
657.996,1259.65
658.522,1252.65
659.048,1235.65
659.574,1221.8
660.099,1210.6
660.625,1195.65
661.151,1180.45
661.677,1165.85
662.203,1150.2
662.728,1137.7
663.123,1132.6