File: spectra/VLFR_07-PET_nobio_Raman_c2a93e09.csv
nm,Intensity
791.588,11280.3
792.685,10501.9
793.781,9770.1
794.878,9457.9
795.975,9365.2
797.071,9365.5
798.168,9301.0
799.264,9392.5
800.36,9176.1
801.456,9366.0
802.552,9247.4
803.648,9126.4
804.744,8999.6
805.84,8959.2
806.936,8826.8
808.031,8713.5
809.127,8648.3
810.222,8559.5
811.317,8511.4
812.412,8436.4
813.507,8340.0
814.602,8306.4
815.697,8289.5
816.792,8207.2
817.887,8167.3
818.981,8084.2
820.076,8025.5
821.17,8006.2
822.265,7888.0
823.359,7916.5
824.453,7758.6
825.547,8025.4
826.641,7757.2
827.735,7712.1
828.828,7558.0
829.922,7574.3
831.016,7667.3
832.109,7448.7
833.202,7510.1
834.295,7405.7
835.388,7301.9
836.481,7335.8
837.574,7354.3
838.667,7391.8
839.76,7275.3
840.852,7553.8
841.945,7519.6
843.037,7290.9
844.129,7122.8
845.221,6932.5
846.314,6809.2
847.405,6847.8
848.497,6754.2
849.589,6680.0
850.681,6679.7
851.772,6705.9
852.863,6660.0
853.955,6609.3
855.046,6560.4
856.137,6507.9
857.228,6529.3
858.318,6587.0
859.409,6637.1
860.5,6623.6
861.59,6410.5
862.681,6321.8
863.771,6359.1
864.861,6415.4
865.951,6278.4
867.041,6223.0
868.131,6142.5
869.22,6195.6
870.31,6248.9
871.399,6409.3
872.488,6582.6
873.578,6559.5
874.667,6315.0
875.756,6153.1
876.845,6070.2
877.933,6033.3
879.022,6002.8
880.11,5943.7
881.199,5906.4
882.287,5999.9
883.375,5913.8
884.463,5898.6
885.551,5893.9
886.639,5812.5
887.726,5753.4
888.814,5711.5
889.901,5702.5
890.988,5707.8
892.075,5720.9
893.162,5649.0
894.249,5581.8
895.336,5540.0
896.423,5571.0
897.509,5926.0
898.595,6332.4
899.682,5847.8
900.768,5417.3
901.854,5374.9
902.94,5344.5
904.025,5315.7
905.111,5291.2
906.196,5462.4
907.282,5796.8
908.367,5813.4
909.452,5426.4
910.537,5191.3
911.622,5056.9
912.706,4996.4
913.791,4973.7
914.875,4956.5
915.959,4942.0
917.044,4922.9
918.128,4893.7
919.211,4829.1
920.295,4788.2
921.379,4783.7
922.462,4743.8
923.546,4739.7
924.629,4691.7
925.712,4672.2
926.795,4652.4
927.877,4614.7
928.96,4613.3
930.043,4553.7
931.125,4551.9
932.207,4522.9
933.289,4507.7
934.371,4485.0
935.453,4434.0
936.535,4433.8
937.616,4419.5
938.697,4386.2
939.779,4376.1
940.86,4353.4
941.941,4342.2
943.022,4318.9
944.102,4292.3
945.183,4288.1
946.263,4274.2
947.343,4244.3
948.423,4244.1
949.503,4224.6
950.583,4213.6
951.663,4202.5
952.742,4185.3
953.822,4165.5
954.901,4167.1
955.98,4144.4
957.059,4124.9
958.137,4136.2
959.216,4109.9
960.294,4093.7
961.373,4088.3
962.451,4083.8
963.529,4063.4
964.607,4053.1
965.684,4053.8
966.762,4040.5
967.839,4033.7
968.917,4018.6
969.994,4014.4
971.071,4003.6
972.147,3981.7
973.224,3986.9
974.3,3984.1
975.377,3973.2
976.453,3970.4
977.529,3962.9
978.605,3954.6
979.68,3936.8
980.756,3938.1
981.831,3933.9
982.907,3926.3
983.982,3924.8
985.057,3919.9
986.131,3915.9
987.206,3910.1
988.28,3900.7
989.355,3899.4
990.429,3888.2
991.503,3886.6
992.576,3878.0
993.65,3874.4
994.723,3867.0
995.797,3866.9
996.87,3865.7
997.943,3858.8
999.016,3851.9
1000.09,3848.1
1001.16,3846.9
1002.23,3843.0
1003.31,3839.9
1004.38,3838.2
1005.45,3836.5
1006.52,3834.1
1007.59,3831.7
1008.66,3823.7
1009.73,3820.6
1010.81,3821.0
1011.88,3816.8
1012.95,3813.3
1014.02,3815.7
1015.09,3812.3
1016.16,3810.7
1017.23,3810.5
1018.3,3800.9
1019.37,3806.2
1020.44,3806.8
1021.51,3808.6
1022.58,3811.1
1023.64,3810.6
1024.71,3805.1
1025.78,3801.7
1026.85,3792.2
1027.92,3788.4
1028.99,3787.9
1030.05,3784.1
1031.12,3781.6
1032.19,3783.0
1033.26,3781.1
1034.32,3787.5
1035.39,3786.5
1036.46,3785.4
1037.52,3782.8
1038.59,3776.7
1039.66,3774.8
1040.72,3771.0
1041.79,3771.0
1042.86,3770.9
1043.92,3771.2
1044.99,3767.7
1046.05,3767.6
1047.12,3767.3
1048.18,3764.2
1049.25,3765.0
1050.31,3765.4
1051.37,3767.1
1052.44,3765.6
1053.5,3765.1
1054.57,3764.6
1055.63,3764.1
1056.69,3765.0
1057.76,3762.9
1058.82,3763.4
1059.88,3760.5
1060.95,3763.9
1062.01,3762.9
1063.07,3763.2
1064.13,3762.6
1065.19,3762.9
1066.26,3761.5
1067.32,3762.3
1068.11,3760.2