File: spectra/VLFR_06-PET_bio_Raman_dde33878.csv
nm,Intensity
526.508,832.1
527.055,830.8
527.602,828.3
528.149,830.7
528.695,830.3
529.241,829.9
529.787,829.6
530.334,830.5
530.879,828.7
531.425,830.8
531.971,832.8
532.516,829.8
533.062,830.6
533.607,838.8
534.152,1952.2
534.697,1626.0
535.242,1327.3
535.786,1145.6
536.331,1039.9
536.876,985.6
537.42,971.5
537.964,962.9
538.508,974.8
539.052,966.4
539.596,984.2
540.14,993.8
540.683,954.1
541.227,943.4
541.77,933.9
542.313,938.0
542.856,939.4
543.399,941.0
543.942,942.9
544.485,945.1
545.027,948.7
545.57,949.8
546.112,954.1
546.654,959.1
547.196,956.4
547.738,960.2
548.28,962.2
548.822,964.7
549.363,961.7
549.905,965.1
550.446,987.7
550.988,988.3
551.529,978.4
552.07,979.4
552.611,988.2
553.152,999.4
553.692,993.8
554.233,987.3
554.773,990.3
555.314,1002.6
555.854,1049.2
556.394,1059.5
556.934,1067.2
557.474,1195.1
558.014,1089.6
558.553,1087.7
559.093,1046.3
559.632,1021.2
560.172,1023.7
560.711,1026.3
561.25,1032.9
561.789,1036.8
562.328,1053.1
562.867,1060.1
563.406,1070.8
563.944,1061.4
564.483,1064.9
565.021,1109.3
565.559,1176.4
566.098,1174.3
566.636,1090.0
567.174,1074.3
567.711,1155.4
568.249,1089.4
568.787,1084.1
569.324,1088.7
569.862,1124.9
570.399,1164.9
570.936,1272.3
571.474,1393.6
572.011,1245.8
572.548,1151.4
573.084,1124.1
573.621,1129.1
574.158,1158.7
574.694,1137.9
575.231,1167.7
575.767,1149.0
576.303,1172.2
576.84,1188.4
577.376,1170.5
577.912,1152.9
578.447,1158.1
578.983,1157.2
579.519,1164.1
580.054,1165.5
580.59,1177.7
581.125,1189.4
581.661,1267.0
582.196,2377.5
582.731,1234.6
583.266,1205.3
583.801,1194.0
584.336,1203.5
584.87,1219.0
585.405,1322.4
585.94,1808.4
586.474,1567.4
587.008,1264.9
587.543,1238.2
588.077,1214.7
588.611,1220.1
589.145,1226.1
589.679,1215.7
590.213,1228.8
590.747,1220.5
591.28,1223.4
591.814,1223.5
592.347,1225.5
592.881,1223.9
593.414,1227.8
593.947,1224.6
594.48,1231.8
595.014,1240.3
595.547,1237.4
596.079,1244.7
596.612,1243.6
597.145,1245.1
597.678,1241.1
598.21,1258.4
598.743,1251.0
599.275,1262.4
599.807,1255.9
600.34,1263.2
600.872,1253.1
601.404,1249.4
601.936,1250.7
602.468,1252.3
603.0,1262.6
603.532,1258.5
604.063,1261.6
604.595,1262.7
605.126,1251.2
605.658,1253.3
606.189,1253.5
606.721,1250.2
607.252,1256.2
607.783,1257.4
608.314,1264.3
608.845,1259.4
609.376,1259.8
609.907,1260.6
610.438,1257.1
610.968,1265.6
611.499,1263.2
612.03,1261.6
612.56,1268.1
613.091,1275.6
613.621,1284.6
614.151,1288.6
614.681,1283.3
615.212,1294.6
615.742,1281.0
616.272,1286.9
616.802,1291.1
617.332,1302.0
617.861,1301.3
618.391,1310.9
618.921,1312.5
619.45,1301.6
619.98,1301.4
620.509,1302.3
621.039,1298.6
621.568,1308.2
622.097,1307.6
622.627,1312.7
623.156,1316.5
623.685,1321.3
624.214,1329.7
624.743,1341.6
625.272,1338.2
625.801,1345.5
626.33,1337.6
626.858,1340.7
627.387,1344.8
627.916,1360.6
628.444,1380.6
628.973,1399.8
629.501,1408.4
630.029,1401.2
630.558,1410.2
631.086,1478.2
631.614,1602.7
632.142,1588.0
632.67,1503.2
633.198,1491.4
633.726,1473.3
634.254,1449.9
634.782,1436.8
635.31,1445.7
635.838,1513.7
636.365,1643.3
636.893,1646.6
637.421,1504.6
637.948,1465.9
638.476,1462.8
639.003,1468.4
639.531,1471.5
640.058,1465.1
640.585,1475.5
641.113,1487.8
641.64,1490.4
642.167,1503.7
642.694,1512.0
643.221,1494.4
643.748,1488.5
644.275,1488.2
644.802,1492.2
645.329,1499.8
645.856,1506.9
646.382,1509.3
646.909,1505.5
647.436,1520.1
647.962,1518.6
648.489,1514.4
649.016,1514.3
649.542,1520.7
650.069,1517.4
650.595,1516.5
651.121,1524.6
651.648,1530.8
652.174,1528.8
652.7,1543.8
653.227,1538.2
653.753,1538.1
654.279,1539.2
654.805,1548.2
655.331,1546.1
655.857,1545.4
656.383,1541.2
656.909,1550.6
657.435,1545.8
657.961,1549.0
658.487,1546.4
659.013,1547.7
659.538,1552.4
660.064,1554.5
660.59,1545.2
661.116,1546.8
661.641,1552.2
662.167,1534.2
662.692,1544.4
663.087,1531.4