File: spectra/VLFR_01-LDPE_bio_Raman_8a84ed72.csv
nm,Intensity
526.547,830.8
527.095,831.1
527.642,831.45
528.189,831.65
528.736,830.6
529.283,830.95
529.829,830.8
530.376,830.9
530.922,829.75
531.468,830.45
532.014,837.8
532.56,831.25
533.106,831.05
533.651,833.05
534.196,936.5
534.742,917.9
535.287,901.35
535.832,884.3
536.376,875.65
536.921,872.35
537.465,872.0
538.01,870.8
538.554,865.95
539.098,862.6
539.642,860.85
540.186,859.8
540.729,857.8
541.273,856.4
541.816,855.9
542.36,854.35
542.903,853.75
543.446,853.8
543.988,854.65
544.531,853.05
545.074,851.45
545.616,852.5
546.158,850.8
546.701,853.45
547.243,849.55
547.785,849.95
548.326,851.6
548.868,849.55
549.41,848.65
549.951,850.55
550.492,848.6
551.034,848.35
551.575,850.3
552.116,850.35
552.656,850.2
553.197,851.4
553.738,854.05
554.278,855.9
554.819,856.65
555.359,857.25
555.899,859.75
556.439,860.6
556.979,863.65
557.519,867.25
558.058,869.15
558.598,870.4
559.137,866.8
559.677,867.8
560.216,868.55
560.755,866.2
561.294,868.4
561.833,869.7
562.371,873.4
562.91,879.5
563.449,883.9
563.987,970.7
564.525,908.15
565.064,902.2
565.602,896.7
566.14,974.6
566.678,898.85
567.216,893.35
567.753,898.15
568.291,893.3
568.828,896.85
569.366,902.65
569.903,905.35
570.44,914.9
570.977,928.45
571.514,1079.45
572.051,967.0
572.588,945.45
573.125,941.95
573.661,951.8
574.198,970.1
574.734,971.6
575.271,991.2
575.807,1050.35
576.343,1201.95
576.879,1146.55
577.415,1114.3
577.951,1102.2
578.486,1124.45
579.022,1151.7
579.557,1186.25
580.093,1210.85
580.628,1250.7
581.164,1276.75
581.699,1300.45
582.234,1330.4
582.769,1349.85
583.304,1366.55
583.838,1385.25
584.373,1403.25
584.908,1420.3
585.442,1435.9
585.977,1457.75
586.511,1478.3
587.045,1499.5
587.58,1522.05
588.114,1545.0
588.648,1575.75
589.182,1600.7
589.715,1623.5
590.249,1649.3
590.783,1673.85
591.316,1697.95
591.85,1713.65
592.383,1723.2
592.917,1734.9
593.45,1733.1
593.983,1743.8
594.516,1760.35
595.049,1779.2
595.582,1791.8
596.115,1813.3
596.648,1824.55
597.18,1853.75
597.713,1888.95
598.245,1906.35
598.778,1943.15
599.31,1959.45
599.842,1984.7
600.375,1973.75
600.907,1967.1
601.439,1956.5
601.971,1948.0
602.503,1927.7
603.034,1906.65
603.566,1885.95
604.098,1840.65
604.629,1800.9
605.161,1739.75
605.692,1696.6
606.224,1648.65
606.755,1606.8
607.286,1587.7
607.817,1557.7
608.348,1531.4
608.879,1509.85
609.41,1483.25
609.941,1457.55
610.472,1436.5
611.002,1425.15
611.533,1402.75
612.063,1393.6
612.594,1385.0
613.124,1376.95
613.655,1370.05
614.185,1348.8
614.715,1336.65
615.245,1321.9
615.775,1303.45
616.305,1295.35
616.835,1289.2
617.365,1280.25
617.895,1277.2
618.425,1262.95
618.954,1252.0
619.484,1248.65
620.013,1246.4
620.543,1239.6
621.072,1244.0
621.602,1255.0
622.131,1280.8
622.66,1271.55
623.189,1238.4
623.718,1229.8
624.247,1227.4
624.776,1224.85
625.305,1228.0
625.834,1238.15
626.363,1271.9
626.891,1587.65
627.42,2032.3
627.949,1723.15
628.477,2058.85
629.006,1764.45
629.534,1659.6
630.062,1544.1
630.591,1514.65
631.119,1364.8
631.647,1297.75
632.175,1275.2
632.703,1251.55
633.231,1253.45
633.759,1253.45
634.287,1251.8
634.815,1247.7
635.343,1245.45
635.871,1248.0
636.398,1253.5
636.926,1255.25
637.454,1245.55
637.981,1250.35
638.509,1253.35
639.036,1252.65
639.564,1253.6
640.091,1256.5
640.618,1261.2
641.146,1266.5
641.673,1268.75
642.2,1273.15
642.727,1272.25
643.254,1273.95
643.781,1279.0
644.308,1275.7
644.835,1272.55
645.362,1280.85
645.889,1278.4
646.416,1279.85
646.942,1275.25
647.469,1275.6
647.996,1277.85
648.522,1270.5
649.049,1267.3
649.576,1283.65
650.102,1274.65
650.629,1271.4
651.155,1270.1
651.682,1272.85
652.208,1280.0
652.734,1276.4
653.261,1278.15
653.787,1279.6
654.313,1274.85
654.839,1269.15
655.365,1268.95
655.892,1262.15
656.418,1256.05
656.944,1252.6
657.47,1238.3
657.996,1228.5
658.522,1222.0
659.048,1209.55
659.574,1201.55
660.099,1185.35
660.625,1174.6
661.151,1157.95
661.677,1144.1
662.203,1130.25
662.728,1122.6
663.123,1112.95