File: spectra/VLFR_06-PET_bio_Raman_ddfd29d2.csv
nm,Intensity
526.493,829.88
527.039,829.64
527.586,829.04
528.133,829.84
528.679,829.12
529.225,828.94
529.771,829.46
530.317,829.22
530.863,828.9
531.409,828.72
531.955,830.82
532.5,830.18
533.046,828.84
533.591,831.78
534.136,1165.04
534.681,1072.54
535.226,977.82
535.771,920.26
536.315,885.2
536.86,872.52
537.404,864.38
537.948,860.24
538.493,863.38
539.037,860.3
539.58,866.68
540.124,869.72
540.668,855.7
541.211,852.8
541.755,850.36
542.298,851.26
542.841,849.6
543.384,849.86
543.927,852.34
544.47,850.14
545.013,850.12
545.555,851.24
546.098,851.28
546.64,851.74
547.182,851.6
547.724,852.74
548.266,852.08
548.808,852.6
549.35,852.32
549.892,853.12
550.433,858.66
550.974,860.24
551.516,854.4
552.057,855.18
552.598,856.38
553.139,861.08
553.68,856.62
554.22,854.92
554.761,855.9
555.301,859.8
555.842,873.38
556.382,873.98
556.922,874.98
557.462,915.48
558.002,884.46
558.542,881.08
559.082,868.16
559.621,861.88
560.161,860.32
560.7,860.4
561.239,862.42
561.778,864.06
562.317,868.42
562.856,869.58
563.395,868.26
563.934,865.4
564.472,868.26
565.011,882.8
565.549,896.98
566.088,898.82
566.626,871.54
567.164,866.78
567.702,890.06
568.24,870.54
568.777,867.3
569.315,869.88
569.853,875.0
570.39,887.74
570.927,923.36
571.465,959.9
572.002,911.02
572.539,881.86
573.076,873.46
573.612,873.14
574.149,879.48
574.686,875.12
575.222,883.7
575.759,877.14
576.295,882.0
576.831,887.58
577.367,878.28
577.903,874.0
578.439,875.2
578.975,873.82
579.511,873.48
580.046,875.28
580.582,877.34
581.117,881.7
581.653,906.02
582.188,1254.72
582.723,897.56
583.258,880.86
583.793,879.44
584.328,880.54
584.863,884.0
585.398,909.08
585.932,1057.32
586.467,995.46
587.001,895.62
587.535,883.76
588.07,880.46
588.604,879.92
589.138,877.96
589.672,878.8
590.206,878.6
590.739,878.24
591.273,878.62
591.807,878.16
592.34,878.28
592.873,878.86
593.407,877.26
593.94,878.3
594.473,878.1
595.006,879.22
595.539,879.16
596.072,878.96
596.605,879.8
597.138,880.22
597.67,879.94
598.203,881.2
598.735,879.52
599.268,881.02
599.8,880.04
600.332,879.84
600.865,879.32
601.397,881.16
601.929,879.28
602.46,879.6
602.992,881.32
603.524,880.66
604.056,880.68
604.587,879.4
605.119,881.0
605.65,878.84
606.182,879.88
606.713,877.86
607.244,880.02
607.775,878.42
608.306,878.86
608.837,879.22
609.368,880.74
609.899,881.24
610.43,879.6
610.961,879.1
611.491,879.32
612.022,879.82
612.552,880.54
613.083,882.4
613.613,882.48
614.143,882.64
614.673,881.7
615.203,882.5
615.734,882.88
616.263,881.92
616.793,883.56
617.323,883.52
617.853,885.42
618.383,885.94
618.912,885.42
619.442,883.7
619.971,883.5
620.501,883.62
621.03,883.74
621.56,882.64
622.089,883.92
622.618,882.78
623.147,885.42
623.676,884.26
624.205,885.66
624.734,887.44
625.263,887.76
625.792,887.96
626.321,887.06
626.849,886.84
627.378,886.86
627.906,886.92
628.435,892.88
628.963,895.72
629.492,897.36
630.02,895.04
630.548,895.16
631.077,907.56
631.605,936.98
632.133,937.68
632.661,917.18
633.189,912.22
633.717,906.86
634.245,900.96
634.773,897.78
635.3,900.1
635.828,912.44
636.356,942.28
636.883,942.9
637.411,907.3
637.938,900.54
638.466,897.0
638.993,897.32
639.521,898.28
640.048,897.14
640.575,897.26
641.103,896.0
641.63,897.02
642.157,900.32
642.684,901.06
643.211,896.88
643.738,895.54
644.265,895.68
644.792,896.26
645.319,896.42
645.845,896.46
646.372,897.46
646.899,898.78
647.425,899.08
647.952,899.18
648.479,898.4
649.005,897.78
649.532,896.54
650.058,897.68
650.585,898.78
651.111,898.18
651.637,898.46
652.164,897.8
652.69,897.9
653.216,898.96
653.742,897.76
654.268,897.86
654.794,898.04
655.32,896.5
655.846,898.32
656.372,897.28
656.898,898.24
657.424,897.44
657.95,897.74
658.476,897.26
659.002,897.26
659.528,896.76
660.053,896.58
660.579,896.04
661.105,895.38
661.63,895.16
662.156,894.28
662.681,894.26
663.076,894.56