File: spectra/VLFR_01-LDPE_nobio_Raman_aa6bdee1.csv
nm,Intensity
526.532,830.4
527.079,830.1
527.625,830.85
528.172,829.4
528.718,830.9
529.265,830.1
529.811,829.9
530.357,830.1
530.903,830.35
531.449,831.05
531.994,838.05
532.54,830.85
533.085,830.75
533.63,831.75
534.176,922.25
534.721,902.1
535.266,887.55
535.81,871.85
536.355,865.55
536.9,861.2
537.444,861.8
537.988,859.95
538.533,856.8
539.077,853.2
539.621,851.55
540.165,849.75
540.708,848.35
541.252,845.75
541.795,846.5
542.339,845.8
542.882,844.35
543.425,844.3
543.968,845.5
544.511,843.55
545.054,844.1
545.597,842.4
546.139,843.75
546.682,843.85
547.224,841.95
547.766,842.15
548.308,842.2
548.85,840.95
549.392,841.95
549.934,841.2
550.475,840.9
551.017,840.95
551.558,841.95
552.1,840.7
552.641,842.35
553.182,841.7
553.723,846.55
554.264,845.2
554.804,845.35
555.345,847.8
555.885,849.8
556.426,850.2
556.966,852.35
557.506,856.15
558.046,858.75
558.586,861.95
559.126,856.3
559.665,853.7
560.205,852.6
560.745,850.9
561.284,853.25
561.823,854.75
562.362,856.35
562.901,858.65
563.44,865.65
563.979,956.2
564.518,892.6
565.056,878.5
565.595,874.45
566.133,993.4
566.671,874.65
567.21,865.8
567.748,861.5
568.285,856.95
568.823,857.6
569.361,858.35
569.899,859.1
570.436,864.6
570.974,872.85
571.511,1043.9
572.048,908.45
572.585,877.05
573.122,868.1
573.659,870.15
574.196,877.85
574.733,867.25
575.269,875.9
575.806,938.3
576.342,1042.6
576.878,979.65
577.414,932.05
577.951,893.65
578.486,891.4
579.022,893.6
579.558,897.45
580.094,900.95
580.629,907.85
581.165,912.7
581.7,916.85
582.236,922.9
582.771,927.55
583.306,940.8
583.841,945.45
584.376,952.0
584.911,958.0
585.445,972.7
585.98,982.85
586.514,1000.7
587.049,1014.0
587.583,1026.65
588.117,1044.8
588.651,1059.4
589.186,1075.75
589.72,1092.55
590.253,1107.15
590.787,1123.6
591.321,1136.7
591.854,1150.75
592.388,1158.7
592.921,1168.4
593.455,1172.35
593.988,1180.05
594.521,1183.7
595.054,1188.0
595.587,1196.35
596.12,1205.5
596.653,1210.85
597.186,1219.65
597.718,1227.2
598.251,1245.65
598.783,1254.25
599.316,1258.55
599.848,1267.35
600.38,1264.65
600.912,1264.35
601.444,1260.9
601.976,1257.6
602.508,1251.55
603.04,1243.55
603.572,1232.1
604.103,1219.1
604.635,1198.3
605.167,1176.7
605.698,1160.5
606.229,1145.9
606.761,1131.35
607.292,1120.95
607.823,1115.2
608.354,1102.85
608.885,1095.35
609.416,1089.95
609.947,1079.95
610.477,1076.75
611.008,1066.55
611.539,1064.9
612.069,1054.1
612.6,1054.2
613.13,1046.3
613.66,1043.7
614.19,1041.85
614.721,1036.3
615.251,1030.2
615.781,1025.85
616.311,1020.35
616.841,1021.1
617.37,1023.25
617.9,1020.15
618.43,1014.0
618.96,1013.15
619.489,1013.05
620.019,1008.6
620.548,1008.5
621.077,1009.3
621.607,1019.95
622.136,1036.75
622.665,1032.75
623.194,1007.5
623.723,992.4
624.252,993.2
624.781,992.1
625.31,994.7
625.839,1003.9
626.368,1031.45
626.896,1315.6
627.425,1792.4
627.953,1479.05
628.482,1782.4
629.01,1603.7
629.539,1462.5
630.067,1341.35
630.596,1307.95
631.124,1138.25
631.652,1049.15
632.18,1016.85
632.708,1002.1
633.236,996.05
633.764,991.55
634.292,988.8
634.82,990.55
635.348,990.25
635.876,994.35
636.403,997.5
636.931,1003.5
637.459,1002.25
637.986,1008.15
638.514,1009.6
639.041,1010.9
639.568,1017.15
640.096,1018.35
640.623,1026.35
641.15,1030.15
641.678,1033.75
642.205,1038.75
642.732,1041.75
643.259,1045.8
643.786,1045.9
644.313,1048.25
644.84,1051.45
645.367,1055.1
645.894,1057.45
646.421,1052.65
646.948,1056.85
647.474,1055.85
648.001,1060.35
648.528,1056.3
649.054,1052.0
649.581,1054.7
650.108,1052.55
650.634,1051.5
651.161,1051.05
651.687,1052.1
652.214,1056.35
652.74,1056.1
653.266,1051.85
653.793,1053.9
654.319,1052.1
654.845,1049.1
655.371,1048.55
655.897,1043.2
656.424,1046.8
656.95,1039.75
657.476,1033.75
658.002,1027.85
658.528,1023.95
659.054,1015.15
659.58,1011.8
660.106,1006.5
660.631,1002.15
661.157,990.35
661.683,987.2
662.209,982.3
662.735,975.2
663.129,966.8