File: spectra/VLFR_06-PET_bio_Raman_6765d138.csv
nm,Intensity
526.493,829.25
527.039,828.6
527.586,829.1
528.133,828.7
528.679,830.3
529.225,828.5
529.771,829.3
530.317,828.05
530.863,829.25
531.409,828.7
531.955,831.35
532.5,829.4
533.046,828.45
533.591,828.25
534.136,853.65
534.681,848.8
535.226,845.95
535.771,845.5
536.315,843.55
536.86,844.85
537.404,845.8
537.948,844.8
538.493,847.25
539.037,846.3
539.58,848.55
540.124,848.95
540.668,848.2
541.211,849.5
541.755,848.55
542.298,848.5
542.841,847.45
543.384,848.35
543.927,847.85
544.47,848.35
545.013,848.85
545.555,848.4
546.098,848.45
546.64,849.4
547.182,848.85
547.724,850.05
548.266,849.65
548.808,850.45
549.35,852.5
549.892,851.95
550.433,852.2
550.974,852.15
551.516,852.9
552.057,853.35
552.598,855.05
553.139,853.95
553.68,854.25
554.22,854.55
554.761,855.05
555.301,853.05
555.842,855.0
556.382,855.2
556.922,856.2
557.462,858.1
558.002,858.4
558.542,857.1
559.082,857.4
559.621,856.75
560.161,857.6
560.7,856.95
561.239,858.2
561.778,858.9
562.317,859.15
562.856,860.2
563.395,862.05
563.934,859.15
564.472,862.9
565.011,861.1
565.549,863.05
566.088,863.6
566.626,863.45
567.164,861.15
567.702,862.85
568.24,863.45
568.777,863.5
569.315,866.65
569.853,865.6
570.39,864.55
570.927,868.35
571.465,867.55
572.002,868.05
572.539,867.1
573.076,868.85
573.612,866.05
574.149,867.65
574.686,869.1
575.222,869.45
575.759,869.0
576.295,869.9
576.831,869.85
577.367,869.5
577.903,871.45
578.439,871.2
578.975,871.45
579.511,870.55
580.046,872.9
580.582,871.65
581.117,873.1
581.653,871.8
582.188,883.0
582.723,873.9
583.258,872.6
583.793,874.8
584.328,874.2
584.863,873.1
585.398,874.1
585.932,878.35
586.467,880.3
587.001,876.95
587.535,875.8
588.07,876.1
588.604,875.25
589.138,876.05
589.672,874.85
590.206,875.8
590.739,876.8
591.273,874.25
591.807,876.45
592.34,876.7
592.873,875.05
593.407,875.55
593.94,873.35
594.473,875.4
595.006,875.95
595.539,876.1
596.072,877.55
596.605,878.15
597.138,876.45
597.67,876.65
598.203,876.8
598.735,877.55
599.268,877.75
599.8,877.7
600.332,878.3
600.865,878.0
601.397,874.7
601.929,875.8
602.46,875.45
602.992,878.65
603.524,877.15
604.056,875.1
604.587,876.25
605.119,878.6
605.65,876.3
606.182,875.9
606.713,876.05
607.244,875.65
607.775,876.8
608.306,874.45
608.837,876.4
609.368,875.35
609.899,874.25
610.43,875.6
610.961,874.7
611.491,874.45
612.022,877.65
612.552,874.7
613.083,875.35
613.613,877.8
614.143,874.25
614.673,875.55
615.203,874.95
615.734,875.75
616.263,876.4
616.793,874.65
617.323,876.3
617.853,872.9
618.383,875.2
618.912,874.1
619.442,874.9
619.971,874.95
620.501,874.5
621.03,875.75
621.56,876.15
622.089,873.55
622.618,873.5
623.147,875.9
623.676,873.15
624.205,874.65
624.734,875.25
625.263,874.9
625.792,874.8
626.321,874.5
626.849,874.2
627.378,873.9
627.906,875.15
628.435,876.0
628.963,876.55
629.492,877.2
630.02,875.7
630.548,876.0
631.077,879.3
631.605,877.9
632.133,878.4
632.661,876.4
633.189,874.4
633.717,874.35
634.245,876.9
634.773,876.55
635.3,876.0
635.828,878.5
636.356,879.3
636.883,878.9
637.411,877.25
637.938,877.25
638.466,877.35
638.993,877.45
639.521,879.3
640.048,878.1
640.575,877.35
641.103,878.4
641.63,875.45
642.157,878.4
642.684,876.6
643.211,875.75
643.738,874.85
644.265,876.9
644.792,877.0
645.319,873.2
645.845,875.9
646.372,875.4
646.899,876.75
647.425,876.35
647.952,876.05
648.479,874.3
649.005,874.05
649.532,876.2
650.058,874.4
650.585,875.7
651.111,874.55
651.637,874.05
652.164,874.2
652.69,875.05
653.216,874.85
653.742,874.95
654.268,874.0
654.794,874.4
655.32,873.15
655.846,873.45
656.372,872.6
656.898,872.85
657.424,872.9
657.95,872.9
658.476,874.15
659.002,873.15
659.528,873.95
660.053,873.75
660.579,871.65
661.105,871.35
661.63,870.35
662.156,870.55
662.681,870.5
663.076,872.05