File: spectra/VLFR_01-LDPE_bio_Raman_a30f15fb.csv
nm,Intensity
526.508,829.6
527.055,830.1
527.602,830.4
528.149,831.5
528.695,830.4
529.241,831.9
529.787,831.3
530.334,829.8
530.879,829.9
531.425,830.5
531.971,833.7
532.516,832.0
533.062,829.9
533.607,831.0
534.152,905.2
534.697,892.7
535.242,879.5
535.786,862.5
536.331,857.3
536.876,855.1
537.42,854.7
537.964,849.8
538.508,848.7
539.052,847.2
539.596,845.2
540.14,845.0
540.683,843.2
541.227,841.4
541.77,841.4
542.313,840.8
542.856,839.6
543.399,839.7
543.942,841.8
544.485,841.5
545.027,840.0
545.57,840.0
546.112,838.7
546.654,839.9
547.196,839.7
547.738,837.5
548.28,837.0
548.822,838.2
549.363,837.0
549.905,837.1
550.446,838.2
550.988,837.3
551.529,838.7
552.07,836.3
552.611,838.6
553.152,839.5
553.692,840.7
554.233,841.4
554.773,843.2
555.314,843.6
555.854,844.7
556.394,844.1
556.934,847.7
557.474,847.2
558.014,851.1
558.553,850.7
559.093,847.5
559.632,845.9
560.172,848.8
560.711,845.2
561.25,846.4
561.789,848.2
562.328,851.2
562.867,851.1
563.406,856.2
563.944,906.7
564.483,870.9
565.021,864.9
565.559,858.6
566.098,907.0
566.636,862.8
567.174,855.5
567.711,859.9
568.249,850.0
568.787,850.7
569.324,853.3
569.862,854.8
570.399,857.7
570.936,865.4
571.474,954.3
572.011,894.3
572.548,868.8
573.084,865.2
573.621,864.6
574.158,872.3
574.694,864.0
575.231,869.4
575.767,906.3
576.303,1018.1
576.84,966.4
577.376,933.7
577.912,893.2
578.447,886.5
578.983,890.9
579.519,898.1
580.054,899.7
580.59,906.4
581.125,907.5
581.661,917.7
582.196,918.0
582.731,931.6
583.266,933.5
583.801,945.1
584.336,953.6
584.87,961.5
585.405,970.2
585.94,975.5
586.474,993.0
587.008,1007.4
587.543,1018.8
588.077,1029.0
588.611,1047.2
589.145,1058.5
589.679,1065.4
590.213,1080.0
590.747,1094.6
591.28,1107.1
591.814,1112.7
592.347,1121.3
592.881,1132.8
593.414,1134.6
593.947,1150.0
594.48,1155.9
595.014,1154.0
595.547,1165.3
596.079,1180.8
596.612,1193.4
597.145,1201.1
597.678,1222.6
598.21,1231.9
598.743,1240.8
599.275,1248.4
599.807,1261.9
600.34,1253.4
600.872,1251.2
601.404,1257.5
601.936,1256.2
602.468,1244.9
603.0,1235.5
603.532,1227.0
604.063,1207.5
604.595,1194.7
605.126,1173.0
605.658,1155.7
606.189,1134.1
606.721,1127.8
607.252,1104.7
607.783,1099.3
608.314,1090.6
608.845,1077.8
609.376,1075.6
609.907,1064.9
610.438,1061.6
610.968,1051.1
611.499,1044.8
612.03,1041.4
612.56,1038.2
613.091,1038.4
613.621,1030.6
614.151,1024.9
614.681,1021.6
615.212,1017.8
615.742,1012.3
616.272,1007.8
616.802,1010.2
617.332,1005.9
617.861,1002.7
618.391,998.9
618.921,998.3
619.45,995.8
619.98,996.1
620.509,990.7
621.039,996.0
621.568,1011.5
622.097,1027.1
622.627,1027.1
623.156,993.8
623.685,983.3
624.214,984.1
624.743,974.9
625.272,983.5
625.801,990.8
626.33,1010.9
626.858,1260.5
627.387,1744.1
627.916,1441.4
628.444,1664.6
628.973,1480.2
629.501,1373.8
630.029,1254.9
630.558,1224.8
631.086,1094.8
631.614,1014.1
632.142,991.7
632.67,978.1
633.198,973.7
633.726,970.2
634.254,967.5
634.782,964.0
635.31,969.6
635.838,966.7
636.365,970.8
636.893,971.3
637.421,972.9
637.948,971.5
638.476,973.0
639.003,977.6
639.531,983.0
640.058,977.5
640.585,984.8
641.113,987.3
641.64,988.2
642.167,995.7
642.694,994.9
643.221,996.0
643.748,996.6
644.275,1001.3
644.802,995.9
645.329,999.5
645.856,1003.2
646.382,997.8
646.909,1004.1
647.436,1009.3
647.962,1007.5
648.489,1007.8
649.016,1012.4
649.542,1008.3
650.069,1008.0
650.595,1010.1
651.121,1009.0
651.648,1016.9
652.174,1018.9
652.7,1017.9
653.227,1019.5
653.753,1022.7
654.279,1013.6
654.805,1019.8
655.331,1020.2
655.857,1013.6
656.383,1001.8
656.909,1006.8
657.435,1005.1
657.961,1000.2
658.487,994.4
659.013,987.9
659.538,988.5
660.064,983.8
660.59,979.0
661.116,973.7
661.641,961.2
662.167,959.8
662.692,958.0
663.087,949.0