File: spectra/VLFR_06-PET_bio_Raman_6708e6bd.csv
nm,Intensity
526.493,828.75
527.039,829.9
527.586,829.95
528.133,828.6
528.679,829.25
529.225,828.3
529.771,829.65
530.317,829.4
530.863,829.15
531.409,829.4
531.955,829.5
532.5,829.3
533.046,828.7
533.591,829.65
534.136,950.5
534.681,888.9
535.226,878.65
535.771,877.4
536.315,875.1
536.86,876.35
537.404,889.65
537.948,897.0
538.493,895.85
539.037,879.35
539.58,871.6
540.124,872.95
540.668,870.2
541.211,869.85
541.755,870.2
542.298,871.75
542.841,870.75
543.384,870.45
543.927,873.0
544.47,878.1
545.013,889.1
545.555,893.75
546.098,882.05
546.64,879.5
547.182,881.9
547.724,882.95
548.266,883.95
548.808,887.7
549.35,891.45
549.892,892.85
550.433,892.15
550.974,890.3
551.516,885.5
552.057,882.7
552.598,877.7
553.139,877.45
553.68,877.15
554.22,876.7
554.761,878.95
555.301,875.1
555.842,876.1
556.382,875.25
556.922,876.3
557.462,879.8
558.002,878.2
558.542,879.0
559.082,876.35
559.621,876.85
560.161,877.35
560.7,880.65
561.239,881.6
561.778,884.75
562.317,1045.45
562.856,885.1
563.395,881.65
563.934,883.3
564.472,882.75
565.011,887.95
565.549,890.35
566.088,886.8
566.626,887.4
567.164,892.55
567.702,887.85
568.24,885.5
568.777,884.55
569.315,886.55
569.853,885.15
570.39,887.65
570.927,888.8
571.465,888.2
572.002,888.05
572.539,888.4
573.076,887.35
573.612,889.45
574.149,890.1
574.686,889.1
575.222,889.35
575.759,889.45
576.295,891.2
576.831,891.4
577.367,891.7
577.903,891.6
578.439,890.75
578.975,891.5
579.511,896.3
580.046,893.2
580.582,894.7
581.117,898.05
581.653,899.35
582.188,908.65
582.723,896.05
583.258,898.05
583.793,897.55
584.328,894.6
584.863,898.2
585.398,896.85
585.932,902.45
586.467,899.75
587.001,897.55
587.535,896.2
588.07,898.45
588.604,897.6
589.138,897.05
589.672,897.6
590.206,898.75
590.739,899.1
591.273,900.0
591.807,897.3
592.34,897.35
592.873,897.75
593.407,898.5
593.94,898.45
594.473,899.85
595.006,900.75
595.539,899.4
596.072,899.35
596.605,899.3
597.138,901.25
597.67,900.75
598.203,902.85
598.735,901.65
599.268,903.95
599.8,901.2
600.332,901.0
600.865,901.8
601.397,902.25
601.929,900.2
602.46,901.4
602.992,899.15
603.524,901.5
604.056,902.0
604.587,901.6
605.119,902.7
605.65,899.15
606.182,901.4
606.713,901.75
607.244,899.5
607.775,901.5
608.306,902.9
608.837,901.55
609.368,901.45
609.899,900.8
610.43,900.45
610.961,902.95
611.491,903.5
612.022,899.5
612.552,901.2
613.083,900.95
613.613,904.6
614.143,902.85
614.673,901.15
615.203,902.9
615.734,900.55
616.263,903.05
616.793,900.7
617.323,904.35
617.853,901.55
618.383,902.95
618.912,903.45
619.442,899.55
619.971,901.2
620.501,898.25
621.03,900.25
621.56,902.95
622.089,902.1
622.618,901.75
623.147,902.15
623.676,901.85
624.205,901.9
624.734,904.4
625.263,903.45
625.792,903.0
626.321,902.55
626.849,904.65
627.378,902.95
627.906,899.6
628.435,903.25
628.963,902.25
629.492,901.7
630.02,903.85
630.548,902.35
631.077,905.0
631.605,906.6
632.133,907.15
632.661,904.35
633.189,904.15
633.717,905.9
634.245,901.95
634.773,903.4
635.3,903.9
635.828,906.3
636.356,907.75
636.883,908.55
637.411,907.1
637.938,906.0
638.466,908.65
638.993,907.65
639.521,910.75
640.048,911.95
640.575,913.95
641.103,917.45
641.63,918.15
642.157,921.8
642.684,923.2
643.211,923.9
643.738,927.15
644.265,931.75
644.792,932.85
645.319,935.8
645.845,944.85
646.372,953.95
646.899,962.7
647.425,968.15
647.952,970.0
648.479,968.4
649.005,973.6
649.532,978.05
650.058,971.8
650.585,965.4
651.111,960.05
651.637,957.1
652.164,963.6
652.69,967.2
653.216,972.7
653.742,978.6
654.268,978.95
654.794,972.35
655.32,960.95
655.846,949.15
656.372,937.25
656.898,925.8
657.424,917.9
657.95,914.95
658.476,906.65
659.002,904.05
659.528,899.85
660.053,896.95
660.579,896.85
661.105,893.1
661.63,893.45
662.156,892.45
662.681,891.35
663.076,892.65