File: spectra/VLFR_02-HDPE_nobio_Raman_e34e5956.csv
cm-1,Intensity
-123.878,1852.0
-105.821,1852.7
-87.8007,1853.35
-69.8161,1853.35
-51.8675,1853.15
-33.9547,1853.95
-16.0776,1880.15
1.76388,3434.3
19.5698,1855.6
37.3403,1853.75
55.0755,1909.65
72.7754,2035.5
90.4402,2029.8
108.07,2020.0
125.665,1987.55
143.225,1964.8
160.75,1963.6
178.241,1966.75
195.697,1963.8
213.119,1961.3
230.506,1959.5
247.859,1959.6
265.178,1950.95
282.463,1951.15
299.713,1952.9
316.93,1955.65
334.113,1954.2
351.263,1958.6
368.379,1959.55
385.461,1955.8
402.51,1955.0
419.526,1956.6
436.508,1959.55
453.458,1963.05
470.374,1966.75
487.257,1953.95
504.107,1967.95
520.925,1960.8
537.71,1964.75
554.462,1962.3
571.182,1967.2
587.87,1964.0
604.525,1962.6
621.148,1965.0
637.739,1968.7
654.297,1975.0
670.824,1974.8
687.319,1974.75
703.782,1969.85
720.213,1979.8
736.613,1979.45
752.981,1978.3
769.317,1985.15
785.623,1990.85
801.897,1985.8
818.139,1994.8
834.351,1998.65
850.532,1996.3
866.681,2013.9
882.8,2016.6
898.888,2008.5
914.945,2011.05
930.972,2012.95
946.968,2008.35
962.934,2012.85
978.869,2014.85
994.774,2022.1
1010.65,2026.55
1026.49,2029.9
1042.31,2047.8
1058.09,2349.9
1073.85,2123.8
1089.57,2101.25
1105.27,2075.05
1120.93,2281.5
1136.57,2290.95
1152.18,2061.85
1167.75,2098.65
1183.3,2049.9
1198.82,2039.85
1214.31,2053.15
1229.77,2051.9
1245.2,2060.85
1260.6,2084.9
1275.97,2103.1
1291.32,2559.45
1306.63,2212.5
1321.92,2115.4
1337.18,2095.85
1352.41,2100.15
1367.61,2144.65
1382.78,2104.8
1397.93,2118.2
1413.05,2390.15
1428.14,2342.4
1443.2,2556.0
1458.23,2419.2
1473.23,2304.6
1488.21,2222.1
1503.16,2210.1
1518.08,2229.65
1532.97,2260.0
1547.84,2276.5
1562.68,2292.45
1577.49,2326.15
1592.27,2356.2
1607.03,2381.4
1621.76,2389.95
1636.46,2445.5
1651.14,2449.15
1665.78,2477.85
1680.41,2497.8
1695.0,2525.4
1709.57,2518.7
1724.11,2567.15
1738.62,2585.3
1753.11,2627.35
1767.57,2657.0
1782.01,2687.3
1796.41,2720.55
1810.8,2767.7
1825.15,2791.75
1839.48,2811.95
1853.79,2870.75
1868.06,2889.85
1882.31,2913.0
1896.54,2947.5
1910.74,2960.05
1924.91,2991.65
1939.06,2983.8
1953.19,3003.05
1967.28,2991.8
1981.35,2964.75
1995.4,2986.0
2009.42,3026.15
2023.42,2996.4
2037.39,3040.75
2051.33,3019.5
2065.25,2999.35
2079.15,2979.9
2093.01,2971.45
2106.86,2993.45
2120.68,3018.9
2134.47,2975.75
2148.24,2980.8
2161.99,2942.75
2175.71,2983.5
2189.41,2952.7
2203.08,2938.7
2216.73,2911.2
2230.35,2873.4
2243.95,2885.1
2257.52,2856.05
2271.07,2804.95
2284.6,2804.35
2298.1,2759.35
2311.58,2732.8
2325.03,2712.5
2338.46,2698.5
2351.87,2694.45
2365.25,2671.8
2378.61,2674.15
2391.94,2634.5
2405.26,2662.35
2418.54,2620.45
2431.81,2616.35
2445.05,2613.65
2458.27,2554.55
2471.46,2554.6
2484.63,2546.15
2497.78,2546.25
2510.9,2516.55
2524.0,2518.5
2537.08,2518.25
2550.14,2530.6
2563.17,2485.4
2576.18,2503.45
2589.17,2501.75
2602.13,2493.9
2615.07,2498.3
2627.99,2481.5
2640.89,2484.35
2653.76,2491.65
2666.61,2482.4
2679.44,2489.7
2692.25,2509.8
2705.03,2564.45
2717.79,2675.75
2730.53,2601.5
2743.25,2479.95
2755.94,2469.6
2768.61,2465.85
2781.27,2462.4
2793.89,2464.7
2806.5,2476.25
2819.09,2568.25
2831.65,3071.9
2844.19,5522.7
2856.71,5110.5
2869.21,4409.7
2881.69,6019.5
2894.14,4338.8
2906.58,3925.05
2918.99,3546.85
2931.38,3425.75
2943.75,2960.2
2956.1,2629.3
2968.42,2557.55
2980.73,2558.3
2993.01,2527.0
3005.28,2512.9
3017.52,2506.2
3029.74,2522.45
3041.94,2493.7
3054.12,2502.7
3066.28,2523.8
3078.42,2527.7
3090.54,2506.05
3102.63,2513.05
3114.71,2508.6
3126.77,2512.9
3138.8,2513.7
3150.82,2511.35
3162.81,2515.75
3174.78,2555.15
3186.74,2482.35
3198.67,2535.25
3210.58,2537.5
3222.47,2541.8
3234.35,2548.2
3246.2,2537.0
3258.03,2554.15
3269.84,2579.05
3281.64,2552.55
3293.41,2569.6
3305.16,2548.75
3316.89,2555.1
3328.61,2523.6
3340.3,2529.95
3351.97,2540.2
3363.63,2509.6
3375.26,2487.45
3386.88,2476.55
3398.47,2444.05
3410.05,2480.95
3421.6,2494.45
3433.14,2435.4
3444.66,2454.3
3456.15,2395.3
3467.63,2418.65
3479.09,2406.55
3490.53,2378.15
3501.96,2381.9
3513.36,2384.35
3524.74,2347.35
3536.11,2370.05
3547.45,2338.75
3558.78,2306.9
3570.09,2321.8
3581.37,2320.7
3592.64,2309.3
3603.9,2291.6
3615.13,2276.15
3626.34,2245.1
3637.54,2255.5
3648.72,2243.45
3659.87,2230.1
3665.45,2228.25