File: spectra/VLFR_06-PET_bio_Raman_7be6d459.csv
nm,Intensity
526.508,828.1
527.055,827.6
527.602,829.8
528.149,827.6
528.695,828.8
529.241,828.3
529.787,828.6
530.334,828.1
530.879,828.2
531.425,828.9
531.971,835.9
532.516,829.2
533.062,828.2
533.607,828.5
534.152,902.2
534.697,897.7
535.242,888.7
535.786,880.2
536.331,878.6
536.876,876.0
537.42,879.0
537.964,878.8
538.508,880.5
539.052,877.7
539.596,877.1
540.14,880.3
540.683,881.1
541.227,879.8
541.77,878.8
542.313,879.7
542.856,878.5
543.399,881.0
543.942,883.7
544.485,880.9
545.027,882.8
545.57,882.9
546.112,883.7
546.654,886.7
547.196,884.2
547.738,888.5
548.28,890.3
548.822,889.6
549.363,892.3
549.905,888.4
550.446,888.1
550.988,892.0
551.529,888.3
552.07,890.8
552.611,893.0
553.152,897.9
553.692,894.7
554.233,896.0
554.773,898.5
555.314,896.8
555.854,900.6
556.394,899.4
556.934,899.4
557.474,906.0
558.014,901.4
558.553,900.1
559.093,902.1
559.632,900.7
560.172,900.5
560.711,903.1
561.25,902.3
561.789,908.4
562.328,908.4
562.867,912.0
563.406,909.9
563.944,908.7
564.483,913.1
565.021,913.5
565.559,918.9
566.098,914.8
566.636,914.7
567.174,919.4
567.711,917.4
568.249,918.1
568.787,918.6
569.324,919.6
569.862,923.5
570.399,922.6
570.936,927.3
571.474,937.5
572.011,927.1
572.548,930.6
573.084,928.9
573.621,927.1
574.158,931.4
574.694,933.5
575.231,934.4
575.767,932.2
576.303,937.4
576.84,937.8
577.376,934.3
577.912,933.2
578.447,934.9
578.983,944.0
579.519,941.0
580.054,942.5
580.59,937.0
581.125,945.0
581.661,947.9
582.196,983.3
582.731,948.7
583.266,947.8
583.801,951.7
584.336,946.5
584.87,950.1
585.405,948.4
585.94,970.9
586.474,960.8
587.008,957.0
587.543,950.3
588.077,955.5
588.611,951.5
589.145,956.7
589.679,949.7
590.213,947.3
590.747,952.9
591.28,955.3
591.814,953.6
592.347,950.5
592.881,951.2
593.414,956.5
593.947,952.3
594.48,952.2
595.014,955.9
595.547,956.9
596.079,958.8
596.612,956.8
597.145,956.7
597.678,958.7
598.21,958.1
598.743,965.0
599.275,962.9
599.807,958.8
600.34,959.1
600.872,963.7
601.404,959.1
601.936,959.1
602.468,960.1
603.0,958.3
603.532,956.9
604.063,958.4
604.595,954.3
605.126,963.7
605.658,954.9
606.189,956.5
606.721,955.3
607.252,954.3
607.783,955.5
608.314,960.5
608.845,960.2
609.376,963.7
609.907,958.9
610.438,959.2
610.968,960.4
611.499,955.6
612.03,961.0
612.56,963.1
613.091,965.1
613.621,960.3
614.151,967.8
614.681,960.6
615.212,967.8
615.742,969.4
616.272,964.7
616.802,968.7
617.332,966.0
617.861,961.9
618.391,964.7
618.921,967.4
619.45,966.4
619.98,967.4
620.509,964.7
621.039,968.8
621.568,965.0
622.097,970.2
622.627,969.5
623.156,969.9
623.685,969.4
624.214,971.1
624.743,971.1
625.272,970.9
625.801,970.2
626.33,975.5
626.858,970.3
627.387,974.2
627.916,972.8
628.444,974.0
628.973,974.9
629.501,976.0
630.029,975.0
630.558,975.1
631.086,981.4
631.614,981.0
632.142,981.6
632.67,980.0
633.198,983.7
633.726,977.3
634.254,981.8
634.782,981.9
635.31,975.0
635.838,981.5
636.365,984.1
636.893,983.7
637.421,984.8
637.948,977.0
638.476,982.2
639.003,980.2
639.531,981.0
640.058,984.1
640.585,982.6
641.113,984.7
641.64,984.5
642.167,992.2
642.694,983.9
643.221,991.3
643.748,989.6
644.275,983.2
644.802,985.5
645.329,986.2
645.856,985.6
646.382,981.0
646.909,990.6
647.436,989.7
647.962,984.5
648.489,986.6
649.016,989.5
649.542,989.2
650.069,990.0
650.595,988.6
651.121,991.5
651.648,991.6
652.174,989.3
652.7,986.6
653.227,985.1
653.753,982.8
654.279,982.5
654.805,979.0
655.331,983.6
655.857,978.8
656.383,975.1
656.909,982.6
657.435,978.3
657.961,977.1
658.487,973.6
659.013,973.7
659.538,968.9
660.064,968.7
660.59,971.2
661.116,968.7
661.641,967.8
662.167,967.9
662.692,967.1
663.087,966.7