File: spectra/VLFR_06-PET_nobio_Raman_7b7ac817.csv
nm,Intensity
526.486,829.7
527.033,830.5
527.579,831.6
528.126,829.9
528.672,829.6
529.219,830.4
529.765,830.4
530.311,829.9
530.857,829.9
531.403,831.0
531.948,832.2
532.494,832.6
533.039,830.4
533.585,838.1
534.13,2074.6
534.675,1758.6
535.22,1428.3
535.764,1220.7
536.309,1100.1
536.854,1046.5
537.398,1026.0
537.942,1022.6
538.486,1027.0
539.03,1019.1
539.574,1038.6
540.118,1052.8
540.662,1014.5
541.205,998.2
541.749,994.1
542.292,995.4
542.835,998.2
543.378,998.7
543.921,1013.4
544.464,1003.8
545.006,1006.4
545.549,1011.1
546.091,1010.0
546.634,1012.4
547.176,1013.1
547.718,1010.5
548.26,1015.4
548.802,1018.4
549.343,1018.7
549.885,1018.2
550.426,1035.7
550.968,1052.8
551.509,1029.7
552.05,1032.7
552.591,1036.6
553.132,1065.6
553.673,1036.6
554.214,1039.4
554.754,1042.1
555.295,1054.6
555.835,1109.9
556.375,1111.8
556.915,1122.4
557.455,1252.6
557.995,1153.8
558.535,1147.3
559.075,1102.3
559.614,1071.0
560.154,1072.2
560.693,1081.7
561.232,1084.2
561.772,1088.0
562.311,1107.4
562.85,1115.9
563.388,1124.2
563.927,1110.4
564.466,1120.3
565.004,1167.7
565.543,1228.9
566.081,1247.9
566.619,1146.1
567.157,1138.3
567.695,1219.3
568.233,1150.4
568.771,1148.4
569.309,1157.3
569.846,1179.9
570.384,1231.1
570.921,1356.4
571.458,1476.4
571.995,1320.4
572.532,1226.5
573.069,1191.7
573.606,1204.9
574.143,1229.5
574.68,1214.4
575.216,1250.9
575.753,1225.8
576.289,1252.6
576.825,1268.2
577.361,1246.7
577.897,1236.7
578.433,1239.3
578.969,1246.8
579.505,1254.5
580.041,1251.5
580.576,1264.0
581.112,1287.0
581.647,1353.8
582.183,2500.5
582.718,1348.0
583.253,1302.9
583.788,1294.3
584.323,1305.0
584.858,1319.0
585.392,1412.7
585.927,1939.7
586.462,1712.9
586.996,1374.4
587.53,1327.6
588.065,1329.1
588.599,1316.1
589.133,1312.1
589.667,1322.9
590.201,1320.0
590.735,1331.2
591.268,1331.0
591.802,1339.5
592.335,1332.2
592.869,1332.9
593.402,1334.7
593.936,1342.3
594.469,1353.6
595.002,1344.3
595.535,1352.5
596.068,1367.2
596.601,1359.3
597.133,1366.6
597.666,1368.6
598.199,1375.0
598.731,1379.5
599.264,1386.3
599.796,1381.3
600.328,1382.8
600.86,1379.8
601.393,1399.1
601.925,1394.7
602.457,1397.8
602.988,1406.1
603.52,1406.9
604.052,1412.2
604.583,1411.8
605.115,1405.5
605.646,1411.4
606.178,1397.5
606.709,1402.8
607.24,1419.7
607.771,1415.3
608.302,1425.8
608.833,1431.3
609.364,1426.1
609.895,1442.1
610.426,1442.9
610.957,1436.6
611.487,1443.3
612.018,1447.9
612.548,1459.4
613.078,1477.2
613.609,1474.2
614.139,1474.9
614.669,1484.0
615.199,1478.6
615.729,1493.1
616.259,1479.8
616.789,1492.6
617.319,1499.7
617.849,1508.3
618.378,1510.0
618.908,1510.0
619.437,1505.8
619.967,1497.1
620.496,1493.8
621.025,1504.8
621.555,1511.1
622.084,1501.7
622.613,1512.3
623.142,1522.8
623.671,1529.8
624.2,1523.3
624.729,1538.4
625.258,1540.6
625.786,1545.4
626.315,1544.8
626.844,1550.3
627.372,1541.9
627.901,1549.2
628.429,1573.1
628.957,1590.0
629.486,1609.1
630.014,1585.6
630.542,1601.3
631.07,1652.7
631.598,1794.1
632.126,1789.4
632.654,1705.2
633.182,1684.9
633.71,1679.5
634.237,1649.0
634.765,1651.1
635.293,1652.7
635.82,1712.3
636.348,1831.5
636.875,1854.0
637.403,1718.5
637.93,1680.0
638.458,1670.2
638.985,1674.4
639.512,1684.9
640.039,1675.6
640.566,1691.0
641.093,1699.6
641.62,1706.2
642.147,1710.8
642.674,1731.4
643.201,1710.9
643.728,1717.8
644.255,1716.6
644.781,1707.7
645.308,1719.5
645.835,1713.7
646.361,1720.7
646.888,1731.0
647.414,1740.9
647.941,1748.9
648.467,1743.9
648.993,1748.8
649.52,1730.6
650.046,1755.7
650.572,1734.4
651.098,1745.6
651.625,1740.9
652.151,1740.3
652.677,1756.0
653.203,1765.9
653.729,1762.4
654.255,1774.0
654.78,1764.4
655.306,1770.3
655.832,1778.1
656.358,1773.0
656.884,1771.7
657.409,1778.8
657.935,1772.9
658.461,1785.2
658.986,1781.8
659.512,1793.3
660.037,1781.1
660.563,1771.8
661.088,1787.7
661.614,1751.4
662.139,1773.0
662.664,1777.7
663.058,1768.3