File: spectra/VLFR_09-PET_bio_Raman_2a822e82.csv
nm,Intensity
526.508,830.2
527.055,832.1
527.602,830.0
528.149,831.1
528.695,831.2
529.241,831.1
529.787,831.2
530.334,829.5
530.879,831.2
531.425,831.1
531.971,841.0
532.516,833.3
533.062,830.4
533.607,838.0
534.152,1790.3
534.697,1645.6
535.242,1460.8
535.786,1380.1
536.331,1310.0
536.876,1280.6
537.42,1255.3
537.964,1246.6
538.508,1249.2
539.052,1248.6
539.596,1263.9
540.14,1298.7
540.683,1265.5
541.227,1259.7
541.77,1266.4
542.313,1268.0
542.856,1273.2
543.399,1274.4
543.942,1292.3
544.485,1292.2
545.027,1303.3
545.57,1307.2
546.112,1312.2
546.654,1321.0
547.196,1315.7
547.738,1331.7
548.28,1330.9
548.822,1351.2
549.363,1342.4
549.905,1350.1
550.446,1375.7
550.988,1377.9
551.529,1365.0
552.07,1369.5
552.611,1383.2
553.152,1395.2
553.692,1395.5
554.233,1390.6
554.773,1405.8
555.314,1423.8
555.854,1442.2
556.394,1457.6
556.934,1473.5
557.474,1671.4
558.014,1549.7
558.553,1477.5
559.093,1455.4
559.632,1453.4
560.172,1464.5
560.711,1483.2
561.25,1495.9
561.789,1534.8
562.328,1565.8
562.867,1524.3
563.406,1527.9
563.944,1531.8
564.483,1574.2
565.021,1725.3
565.559,1682.0
566.098,1669.9
566.636,1579.2
567.174,1566.5
567.711,1654.6
568.249,1604.0
568.787,1598.6
569.324,1601.7
569.862,1621.1
570.399,1663.5
570.936,1862.3
571.474,2144.1
572.011,1833.5
572.548,1683.0
573.084,1659.4
573.621,1649.5
574.158,1683.9
574.694,1664.9
575.231,1712.8
575.767,1722.4
576.303,1700.1
576.84,1736.8
577.376,1725.0
577.912,1703.5
578.447,1709.2
578.983,1709.1
579.519,1703.4
580.054,1716.6
580.59,1727.9
581.125,1772.9
581.661,1913.0
582.196,3959.5
582.731,1889.0
583.266,1781.9
583.801,1751.5
584.336,1790.1
584.87,1793.8
585.405,1899.5
585.94,2708.0
586.474,2380.6
587.008,1882.5
587.543,1821.1
588.077,1806.3
588.611,1798.5
589.145,1792.5
589.679,1787.9
590.213,1805.1
590.747,1796.5
591.28,1796.2
591.814,1809.4
592.347,1804.2
592.881,1796.5
593.414,1810.3
593.947,1803.0
594.48,1817.3
595.014,1834.9
595.547,1832.6
596.079,1845.9
596.612,1838.3
597.145,1850.8
597.678,1860.1
598.21,1854.2
598.743,1875.2
599.275,1882.7
599.807,1886.7
600.34,1884.4
600.872,1880.7
601.404,1876.4
601.936,1894.1
602.468,1891.3
603.0,1911.9
603.532,1903.1
604.063,1914.1
604.595,1918.8
605.126,1911.0
605.658,1920.6
606.189,1915.4
606.721,1917.3
607.252,1923.0
607.783,1933.1
608.314,1946.7
608.845,1974.0
609.376,1982.5
609.907,1982.1
610.438,1984.5
610.968,1993.2
611.499,2007.7
612.03,2029.0
612.56,2052.0
613.091,2084.2
613.621,2087.2
614.151,2110.4
614.681,2124.8
615.212,2129.3
615.742,2136.0
616.272,2150.6
616.802,2170.0
617.332,2212.1
617.861,2233.0
618.391,2251.8
618.921,2248.1
619.45,2254.3
619.98,2277.2
620.509,2272.8
621.039,2294.5
621.568,2324.5
622.097,2335.6
622.627,2345.9
623.156,2383.6
623.685,2388.1
624.214,2427.1
624.743,2449.6
625.272,2459.3
625.801,2473.5
626.33,2479.5
626.858,2501.4
627.387,2500.2
627.916,2519.8
628.444,2558.3
628.973,2563.2
629.501,2625.1
630.029,2649.8
630.558,2639.5
631.086,2694.5
631.614,2788.9
632.142,2832.0
632.67,2774.3
633.198,2763.9
633.726,2753.7
634.254,2727.9
634.782,2726.2
635.31,2759.6
635.838,2852.0
636.365,3012.9
636.893,3005.1
637.421,2853.1
637.948,2816.4
638.476,2830.5
639.003,2825.5
639.531,2834.3
640.058,2864.1
640.585,2853.5
641.113,2886.6
641.64,2879.6
642.167,2918.6
642.694,2907.6
643.221,2890.1
643.748,2892.0
644.275,2889.4
644.802,2889.3
645.329,2887.0
645.856,2923.0
646.382,2904.7
646.909,2936.4
647.436,2943.8
647.962,2955.4
648.489,2938.6
649.016,2926.2
649.542,2948.3
650.069,2937.7
650.595,2927.5
651.121,2956.9
651.648,2955.9
652.174,2965.1
652.7,2968.9
653.227,2961.1
653.753,2997.1
654.279,2991.3
654.805,2974.2
655.331,2995.3
655.857,3010.3
656.383,3002.1
656.909,3000.0
657.435,3002.7
657.961,3000.6
658.487,3033.4
659.013,3031.7
659.538,3041.3
660.064,3032.3
660.59,3027.4
661.116,3030.6
661.641,3009.2
662.167,3005.1
662.692,3018.1
663.087,3005.5