File: spectra/VLFR_01-LDPE_bio_Raman_7192871e.csv
nm,Intensity
528.65,1850.7
529.155,1850.4
529.66,1851.0
530.165,1850.3
530.67,1852.0
531.175,1854.15
531.68,1883.9
532.185,4206.1
532.69,1853.5
533.194,1851.7
533.699,1933.0
534.204,2212.9
534.708,2205.2
535.213,2200.1
535.717,2182.75
536.222,2167.55
536.726,2173.8
537.231,2164.25
537.735,2169.25
538.239,2175.8
538.743,2158.95
539.247,2166.2
539.751,2160.25
540.255,2166.25
540.759,2163.85
541.263,2157.7
541.767,2162.95
542.271,2169.2
542.775,2173.2
543.279,2175.75
543.782,2156.4
544.286,2167.8
544.789,2159.15
545.293,2173.8
545.796,2173.85
546.3,2170.5
546.803,2171.45
547.306,2183.0
547.81,2174.8
548.313,2180.35
548.816,2184.95
549.319,2185.35
549.822,2179.15
550.325,2178.2
550.828,2188.65
551.331,2192.6
551.834,2193.5
552.337,2194.35
552.839,2191.2
553.342,2203.15
553.844,2207.65
554.347,2217.6
554.849,2213.7
555.352,2216.4
555.854,2221.9
556.357,2224.65
556.859,2243.9
557.361,2247.7
557.863,2250.5
558.365,2257.25
558.867,2253.15
559.369,2259.85
559.871,2264.5
560.373,2261.35
560.875,2270.9
561.377,2279.15
561.878,2283.05
562.38,2296.55
562.881,2295.45
563.383,2320.2
563.884,2456.05
564.386,2387.7
564.887,2377.5
565.388,2343.55
565.89,2432.85
566.391,2468.3
566.892,2345.75
567.393,2365.0
567.894,2344.15
568.395,2341.65
568.896,2350.75
569.396,2354.45
569.897,2346.15
570.398,2386.45
570.898,2412.15
571.399,2665.0
571.9,2522.25
572.4,2434.4
572.9,2403.95
573.401,2402.85
573.901,2418.8
574.401,2381.05
574.901,2385.55
575.401,2494.55
575.901,2576.7
576.401,2804.8
576.901,2674.25
577.401,2535.75
577.901,2461.8
578.4,2438.45
578.9,2458.9
579.399,2472.45
579.899,2473.2
580.398,2476.1
580.898,2489.0
581.397,2505.2
581.896,2487.0
582.395,2491.85
582.895,2509.35
583.394,2485.0
583.893,2516.3
584.391,2502.65
584.89,2523.35
585.389,2519.55
585.888,2518.85
586.386,2539.6
586.885,2540.1
587.384,2563.7
587.882,2566.8
588.38,2581.65
588.879,2591.5
589.377,2602.5
589.875,2600.95
590.373,2602.85
590.871,2621.6
591.369,2633.2
591.867,2667.05
592.365,2664.6
592.863,2658.45
593.361,2682.45
593.858,2670.3
594.356,2703.45
594.853,2706.55
595.351,2682.7
595.848,2708.8
596.345,2742.65
596.843,2757.4
597.34,2780.65
597.837,2798.15
598.334,2801.05
598.831,2827.45
599.328,2858.55
599.824,2853.45
600.321,2845.3
600.818,2883.85
601.314,2864.3
601.811,2871.45
602.307,2857.0
602.804,2853.05
603.3,2819.95
603.796,2815.55
604.293,2807.05
604.789,2758.5
605.285,2753.85
605.781,2764.4
606.277,2721.3
606.772,2672.45
607.268,2672.0
607.764,2671.15
608.259,2636.55
608.755,2618.9
609.25,2618.6
609.746,2587.8
610.241,2590.9
610.736,2594.2
611.231,2560.25
611.727,2568.2
612.222,2549.55
612.716,2550.65
613.211,2547.1
613.706,2541.95
614.201,2533.95
614.695,2529.2
615.19,2512.65
615.684,2515.8
616.179,2501.6
616.673,2512.4
617.168,2507.1
617.662,2492.25
618.156,2511.3
618.65,2495.45
619.144,2494.5
619.638,2502.7
620.131,2512.9
620.625,2482.4
621.119,2539.3
621.612,2550.6
622.106,2606.3
622.599,2585.65
623.093,2509.75
623.586,2457.75
624.079,2469.8
624.572,2465.2
625.065,2471.05
625.558,2480.95
626.051,2522.85
626.544,2759.95
627.037,4091.55
627.529,4062.0
628.022,3673.25
628.514,4572.4
629.007,3776.35
629.499,3507.25
629.991,3214.05
630.483,3152.5
630.976,2824.45
631.468,2581.5
631.959,2502.35
632.451,2440.55
632.943,2427.9
633.435,2399.7
633.926,2406.75
634.418,2391.65
634.909,2381.55
635.401,2374.05
635.892,2365.1
636.383,2355.0
636.874,2345.25
637.365,2331.55
637.856,2344.35
638.347,2354.55
638.838,2341.35
639.329,2326.15
639.819,2329.75
640.31,2327.7
640.8,2325.55
641.291,2317.45
641.781,2329.8
642.271,2316.95
642.761,2314.0
643.251,2316.4
643.741,2324.05
644.231,2327.1
644.721,2322.65
645.211,2310.0
645.7,2307.0
646.19,2310.65
646.679,2302.0
647.169,2316.25
647.658,2311.15
648.147,2315.75
648.636,2285.6
649.125,2300.7
649.614,2291.95
650.103,2284.3
650.592,2295.15
651.08,2289.25
651.569,2280.7
652.058,2271.15
652.546,2273.1
653.034,2261.1
653.523,2268.3
654.011,2270.5
654.499,2247.4
654.987,2245.35
655.475,2251.8
655.963,2251.35
656.45,2237.8
656.938,2238.65
657.425,2225.1
657.913,2204.65
658.4,2187.85
658.888,2202.65
659.375,2188.05
659.862,2187.95
660.349,2175.15
660.836,2169.35
661.079,2164.95