File: spectra/VLFR_02-HDPE_nobio_Raman_e0bc59c6.csv
nm,Intensity
526.486,829.5
527.033,828.8
527.579,828.7
528.126,830.9
528.672,828.5
529.219,828.3
529.765,828.5
530.311,828.5
530.857,829.5
531.403,828.7
531.948,834.0
532.494,831.4
533.039,829.0
533.585,829.0
534.13,875.1
534.675,873.5
535.22,868.7
535.764,853.5
536.309,848.5
536.854,847.9
537.398,846.3
537.942,847.5
538.486,847.0
539.03,847.8
539.574,846.1
540.118,841.4
540.662,842.2
541.205,840.6
541.749,841.0
542.292,840.5
542.835,841.4
543.378,842.1
543.921,840.7
544.464,840.0
545.006,838.9
545.549,839.2
546.091,840.0
546.634,840.1
547.176,840.2
547.718,842.8
548.26,841.0
548.802,839.5
549.343,840.8
549.885,841.9
550.426,839.5
550.968,841.6
551.509,841.5
552.05,840.0
552.591,843.1
553.132,841.2
553.673,843.2
554.214,841.7
554.754,842.0
555.295,842.5
555.835,842.4
556.375,843.5
556.915,845.2
557.455,846.3
557.995,848.1
558.535,844.2
559.075,847.7
559.614,844.9
560.154,846.5
560.693,847.7
561.232,846.4
561.772,844.4
562.311,847.0
562.85,849.6
563.388,849.2
563.927,899.0
564.466,864.5
565.004,860.6
565.543,856.0
566.081,912.1
566.619,858.4
567.157,853.8
567.695,853.7
568.233,848.3
568.771,850.5
569.309,849.6
569.846,849.7
570.384,854.0
570.921,858.5
571.458,935.7
571.995,877.8
572.532,858.1
573.069,848.5
573.606,855.5
574.143,860.1
574.68,850.6
575.216,853.0
575.753,893.0
576.289,959.7
576.825,913.6
577.361,896.0
577.897,859.8
578.433,854.6
578.969,851.9
579.505,854.3
580.041,853.4
580.576,851.0
581.112,855.0
581.647,853.1
582.183,853.8
582.718,854.6
583.253,853.2
583.788,855.3
584.323,855.8
584.858,855.4
585.392,855.6
585.927,855.7
586.462,854.7
586.996,855.8
587.53,854.8
588.065,858.9
588.599,857.4
589.133,857.0
589.667,857.4
590.201,855.5
590.735,858.2
591.268,859.1
591.802,859.8
592.335,859.5
592.869,858.4
593.402,856.8
593.936,860.7
594.469,861.7
595.002,858.3
595.535,858.1
596.068,860.5
596.601,862.8
597.133,861.7
597.666,863.2
598.199,864.7
598.731,864.3
599.264,869.2
599.796,866.3
600.328,865.4
600.86,866.3
601.393,865.3
601.925,865.5
602.457,868.9
602.988,866.1
603.52,865.9
604.052,866.1
604.583,863.2
605.115,864.8
605.646,862.4
606.178,861.2
606.709,856.7
607.24,859.7
607.771,859.1
608.302,858.7
608.833,859.1
609.364,857.0
609.895,858.8
610.426,855.7
610.957,859.6
611.487,857.1
612.018,858.0
612.548,858.5
613.078,857.9
613.609,858.0
614.139,856.8
614.669,856.5
615.199,859.6
615.729,857.0
616.259,859.2
616.789,860.9
617.319,863.8
617.849,863.5
618.378,863.3
618.908,862.2
619.437,868.6
619.967,868.4
620.496,868.0
621.025,872.9
621.555,883.8
622.084,906.0
622.613,905.5
623.142,879.1
623.671,873.0
624.2,872.3
624.729,871.9
625.258,871.2
625.786,884.5
626.315,906.8
626.844,1115.6
627.372,1560.6
627.901,1274.8
628.429,1447.7
628.957,1327.5
629.486,1202.1
630.014,1097.8
630.542,1075.2
631.07,965.5
631.598,900.5
632.126,880.1
632.654,875.8
633.182,874.7
633.71,871.0
634.237,865.9
634.765,862.5
635.293,863.1
635.82,862.2
636.348,861.6
636.875,862.2
637.403,857.1
637.93,859.7
638.458,857.9
638.985,856.4
639.512,857.8
640.039,858.6
640.566,857.1
641.093,854.9
641.62,854.7
642.147,854.3
642.674,851.8
643.201,856.3
643.728,855.3
644.255,853.2
644.781,854.5
645.308,852.3
645.835,853.8
646.361,853.9
646.888,852.6
647.414,852.8
647.941,853.1
648.467,853.7
648.993,853.6
649.52,854.4
650.046,855.4
650.572,852.5
651.098,849.2
651.625,851.9
652.151,853.3
652.677,854.6
653.203,853.3
653.729,852.4
654.255,851.7
654.78,852.5
655.306,850.9
655.832,850.7
656.358,852.6
656.884,851.8
657.409,849.9
657.935,851.4
658.461,852.2
658.986,851.1
659.512,851.3
660.037,850.8
660.563,853.3
661.088,848.6
661.614,847.5
662.139,849.2
662.664,849.2
663.058,847.2