File: spectra/VLFR_06-PET_bio_Raman_91f10249.csv
nm,Intensity
526.508,831.1
527.055,829.9
527.602,832.1
528.149,831.3
528.695,829.4
529.241,830.5
529.787,830.2
530.334,831.0
530.879,831.4
531.425,830.5
531.971,835.7
532.516,830.8
533.062,829.6
533.607,837.8
534.152,1638.9
534.697,1413.7
535.242,1195.3
535.786,1059.4
536.331,986.7
536.876,951.8
537.42,941.7
537.964,926.1
538.508,936.5
539.052,931.5
539.596,944.9
540.14,948.4
540.683,925.4
541.227,915.9
541.77,917.7
542.313,916.8
542.856,915.9
543.399,917.0
543.942,926.5
544.485,914.4
545.027,923.8
545.57,927.6
546.112,926.4
546.654,927.3
547.196,929.2
547.738,928.4
548.28,932.7
548.822,933.1
549.363,934.4
549.905,938.2
550.446,954.3
550.988,953.7
551.529,943.9
552.07,953.4
552.611,956.5
553.152,963.7
553.692,957.1
554.233,954.4
554.773,956.7
555.314,969.3
555.854,1004.3
556.394,1005.9
556.934,1009.8
557.474,1105.0
558.014,1032.3
558.553,1029.2
559.093,998.5
559.632,989.8
560.172,986.0
560.711,987.7
561.25,989.4
561.789,993.2
562.328,1005.6
562.867,1019.4
563.406,1019.0
563.944,1012.5
564.483,1016.6
565.021,1050.5
565.559,1093.0
566.098,1088.2
566.636,1034.5
567.174,1032.3
567.711,1085.4
568.249,1039.6
568.787,1040.0
569.324,1041.2
569.862,1063.6
570.399,1090.3
570.936,1177.6
571.474,1245.6
572.011,1144.3
572.548,1089.1
573.084,1070.7
573.621,1076.0
574.158,1092.6
574.694,1086.6
575.231,1104.4
575.767,1092.3
576.303,1105.8
576.84,1121.4
577.376,1102.1
577.912,1093.6
578.447,1106.2
578.983,1105.5
579.519,1100.3
580.054,1108.8
580.59,1118.7
581.125,1124.3
581.661,1176.7
582.196,1909.2
582.731,1157.5
583.266,1144.7
583.801,1133.2
584.336,1137.1
584.87,1144.6
585.405,1219.6
585.94,1550.1
586.474,1373.6
587.008,1183.3
587.543,1154.0
588.077,1152.0
588.611,1154.6
589.145,1157.5
589.679,1155.1
590.213,1153.6
590.747,1160.7
591.28,1164.3
591.814,1155.5
592.347,1172.5
592.881,1162.9
593.414,1167.9
593.947,1160.9
594.48,1168.4
595.014,1174.3
595.547,1175.3
596.079,1178.6
596.612,1187.3
597.145,1187.4
597.678,1186.0
598.21,1186.4
598.743,1190.1
599.275,1189.9
599.807,1190.0
600.34,1198.6
600.872,1185.2
601.404,1197.6
601.936,1189.3
602.468,1195.6
603.0,1191.4
603.532,1197.6
604.063,1198.4
604.595,1197.1
605.126,1199.3
605.658,1188.3
606.189,1195.4
606.721,1192.5
607.252,1191.4
607.783,1195.8
608.314,1201.4
608.845,1191.4
609.376,1204.4
609.907,1200.3
610.438,1204.1
610.968,1195.7
611.499,1201.8
612.03,1206.4
612.56,1215.2
613.091,1224.1
613.621,1216.5
614.151,1221.7
614.681,1222.4
615.212,1220.9
615.742,1222.6
616.272,1230.7
616.802,1227.2
617.332,1237.3
617.861,1233.7
618.391,1250.6
618.921,1240.8
619.45,1238.5
619.98,1233.4
620.509,1240.3
621.039,1240.2
621.568,1245.8
622.097,1247.4
622.627,1258.5
623.156,1263.4
623.685,1261.1
624.214,1261.0
624.743,1279.1
625.272,1271.3
625.801,1271.7
626.33,1272.0
626.858,1276.4
627.387,1281.9
627.916,1293.0
628.444,1292.9
628.973,1326.1
629.501,1313.9
630.029,1322.3
630.558,1327.4
631.086,1354.1
631.614,1437.5
632.142,1422.8
632.67,1396.3
633.198,1371.1
633.726,1370.0
634.254,1358.0
634.782,1348.9
635.31,1367.4
635.838,1406.7
636.365,1472.1
636.893,1466.1
637.421,1394.3
637.948,1391.3
638.476,1381.5
639.003,1380.7
639.531,1379.4
640.058,1401.0
640.585,1395.0
641.113,1409.6
641.64,1407.4
642.167,1420.4
642.694,1422.0
643.221,1406.8
643.748,1408.6
644.275,1405.1
644.802,1408.6
645.329,1411.8
645.856,1417.4
646.382,1423.2
646.909,1441.8
647.436,1431.7
647.962,1430.9
648.489,1431.1
649.016,1439.3
649.542,1427.1
650.069,1435.3
650.595,1431.1
651.121,1430.1
651.648,1437.4
652.174,1445.7
652.7,1439.4
653.227,1448.3
653.753,1442.9
654.279,1449.3
654.805,1439.8
655.331,1446.5
655.857,1440.6
656.383,1436.5
656.909,1448.8
657.435,1454.0
657.961,1448.6
658.487,1450.3
659.013,1447.6
659.538,1449.4
660.064,1449.6
660.59,1440.8
661.116,1435.6
661.641,1428.1
662.167,1438.5
662.692,1437.4
663.087,1430.1