File: spectra/VLFR_01-LDPE_bio_Raman_862ce177.csv
nm,Intensity
526.495,828.8
527.042,828.7
527.589,828.8
528.136,829.9
528.682,830.7
529.229,829.7
529.775,829.6
530.321,829.2
530.867,830.5
531.413,829.9
531.959,828.9
532.505,830.2
533.051,827.8
533.596,830.1
534.141,894.0
534.687,886.0
535.232,875.5
535.777,865.6
536.321,861.0
536.866,857.6
537.41,857.9
537.955,858.0
538.499,852.6
539.043,853.6
539.587,851.5
540.131,852.6
540.675,848.7
541.219,849.3
541.762,848.7
542.305,847.7
542.849,847.6
543.392,849.9
543.935,850.3
544.478,849.6
545.02,848.8
545.563,851.1
546.106,848.0
546.648,851.2
547.19,849.8
547.732,848.3
548.274,851.2
548.816,850.4
549.358,848.7
549.9,849.9
550.441,849.0
550.983,848.7
551.524,852.3
552.065,850.6
552.606,851.7
553.147,851.2
553.688,852.2
554.229,854.3
554.769,856.5
555.31,852.6
555.85,856.3
556.391,858.3
556.931,859.8
557.471,859.8
558.011,864.0
558.551,862.6
559.09,863.4
559.63,861.6
560.169,858.0
560.709,859.5
561.248,863.0
561.787,863.0
562.326,865.0
562.865,868.6
563.404,872.7
563.943,949.6
564.481,890.6
565.02,881.3
565.558,884.7
566.096,1005.6
566.634,885.9
567.172,876.4
567.71,876.1
568.248,873.8
568.786,876.4
569.324,876.3
569.861,880.8
570.399,883.6
570.936,894.3
571.473,1029.7
572.01,911.0
572.547,893.7
573.084,894.0
573.621,894.2
574.158,907.4
574.694,900.2
575.231,909.7
575.767,970.8
576.303,1024.9
576.84,985.0
577.376,962.1
577.912,937.4
578.448,940.6
578.984,946.9
579.519,953.5
580.055,958.0
580.59,965.6
581.126,974.6
581.661,978.9
582.196,986.7
582.731,996.5
583.267,999.6
583.801,1004.9
584.336,1011.1
584.871,1011.7
585.406,1016.3
585.94,1020.8
586.475,1022.7
587.009,1031.0
587.543,1033.7
588.078,1035.8
588.612,1035.1
589.146,1046.9
589.68,1046.0
590.214,1052.7
590.747,1052.6
591.281,1053.6
591.815,1072.0
592.348,1063.5
592.881,1071.2
593.415,1061.3
593.948,1061.4
594.481,1069.7
595.014,1072.0
595.547,1072.7
596.08,1069.5
596.613,1070.9
597.146,1076.9
597.678,1070.2
598.211,1076.7
598.743,1079.3
599.276,1077.1
599.808,1081.2
600.34,1077.4
600.872,1071.8
601.404,1072.8
601.936,1077.7
602.468,1076.3
603.0,1064.0
603.532,1065.5
604.064,1055.7
604.595,1054.0
605.127,1047.9
605.658,1039.4
606.189,1027.3
606.721,1026.2
607.252,1018.5
607.783,1020.6
608.314,1011.5
608.845,1013.5
609.376,1009.6
609.907,1007.5
610.438,1001.2
610.968,996.5
611.499,997.1
612.029,988.1
612.56,989.5
613.09,987.7
613.621,985.1
614.151,982.1
614.681,980.4
615.211,974.7
615.741,974.6
616.271,968.4
616.801,970.2
617.331,973.6
617.861,973.0
618.39,966.5
618.92,966.5
619.45,971.5
619.979,968.4
620.509,965.9
621.038,966.0
621.567,976.3
622.096,996.2
622.626,987.0
623.155,968.0
623.684,963.7
624.213,963.2
624.742,961.8
625.271,961.1
625.799,964.6
626.328,987.0
626.857,1177.0
627.386,1539.1
627.914,1279.3
628.443,1461.5
628.971,1378.9
629.5,1268.7
630.028,1170.0
630.556,1146.7
631.084,1040.7
631.613,982.9
632.141,964.2
632.669,964.5
633.197,959.3
633.725,954.8
634.253,952.2
634.781,947.1
635.308,953.5
635.836,950.3
636.364,948.5
636.891,951.4
637.419,943.9
637.947,944.6
638.474,949.8
639.002,943.8
639.529,944.6
640.056,942.5
640.584,945.1
641.111,940.7
641.638,941.2
642.165,942.7
642.692,944.5
643.219,941.0
643.746,940.7
644.273,936.7
644.8,941.1
645.327,937.0
645.854,937.4
646.381,942.5
646.908,941.1
647.434,939.6
647.961,935.9
648.488,937.9
649.014,937.5
649.541,935.3
650.067,934.2
650.594,934.4
651.12,934.6
651.646,933.4
652.173,929.5
652.699,929.0
653.225,928.1
653.752,931.2
654.278,930.3
654.804,928.9
655.33,928.5
655.856,922.4
656.382,923.5
656.908,922.4
657.434,921.0
657.96,924.1
658.486,918.5
659.012,919.7
659.538,914.5
660.064,919.6
660.589,911.6
661.115,914.1
661.641,909.2
662.166,908.0
662.692,905.5
663.086,904.1