File: spectra/VLFR_08-PLA_bio_Raman_0876c9ac.csv
nm,Intensity
528.626,1864.6
529.132,1861.5
529.637,1862.6
530.143,1862.3
530.648,1862.5
531.153,1864.2
531.658,1905.6
532.164,4558.2
532.669,1866.4
533.174,1865.1
533.679,1923.8
534.184,2130.1
534.689,2144.5
535.194,2153.1
535.699,2177.9
536.203,2154.8
536.708,2159.2
537.213,2180.3
537.717,2187.3
538.222,2189.0
538.726,2198.1
539.231,2194.0
539.735,2210.7
540.239,2215.4
540.744,2207.1
541.248,2226.6
541.752,2228.8
542.256,2231.7
542.76,2241.8
543.264,2251.5
543.768,2261.1
544.272,2264.4
544.776,2267.3
545.28,2282.2
545.784,2280.4
546.287,2271.0
546.791,2300.0
547.294,2273.2
547.798,2303.4
548.301,2311.0
548.805,2294.1
549.308,2305.6
549.811,2306.4
550.315,2318.7
550.818,2363.2
551.321,2341.6
551.824,2364.3
552.327,2353.1
552.83,2330.1
553.333,2372.3
553.835,2363.5
554.338,2385.0
554.841,2383.0
555.343,2381.8
555.846,2378.8
556.349,2382.2
556.851,2375.9
557.353,2397.5
557.856,2418.6
558.358,2407.5
558.86,2416.6
559.362,2412.6
559.864,2437.1
560.366,2415.7
560.868,2436.6
561.37,2422.6
561.872,2472.6
562.374,2514.9
562.876,2449.1
563.377,2471.5
563.879,2437.4
564.38,2471.3
564.882,2483.4
565.383,2492.1
565.885,2475.7
566.386,2491.8
566.887,2487.8
567.388,2501.6
567.889,2504.6
568.391,2473.0
568.892,2507.9
569.392,2509.6
569.893,2504.3
570.394,2510.6
570.895,2515.0
571.395,2524.8
571.896,2557.5
572.397,2557.1
572.897,2559.3
573.397,2547.2
573.898,2546.3
574.398,2533.9
574.898,2574.2
575.398,2562.7
575.898,2575.7
576.398,2567.1
576.898,2572.4
577.398,2570.8
577.898,2581.6
578.398,2568.7
578.897,2581.6
579.397,2566.1
579.896,2594.0
580.396,2602.0
580.895,2589.1
581.395,2588.3
581.894,2600.2
582.393,2591.3
582.892,2610.3
583.391,2605.1
583.89,2603.6
584.389,2607.7
584.888,2581.7
585.387,2590.7
585.886,2584.4
586.384,2603.9
586.883,2603.5
587.381,2616.8
587.88,2631.8
588.378,2589.0
588.876,2573.5
589.375,2573.9
589.873,2596.2
590.371,2597.9
590.869,2595.6
591.367,2601.9
591.865,2589.8
592.363,2607.3
592.86,2627.3
593.358,2605.9
593.856,2605.9
594.353,2618.1
594.851,2611.1
595.348,2611.2
595.845,2626.7
596.342,2623.8
596.84,2641.7
597.337,2611.8
597.834,2595.8
598.331,2616.9
598.828,2621.9
599.324,2621.1
599.821,2632.4
600.318,2614.2
600.814,2664.1
601.311,2627.0
601.807,2624.5
602.304,2622.7
602.8,2636.6
603.296,2661.6
603.792,2638.0
604.288,2624.1
604.784,2640.5
605.28,2630.3
605.776,2628.4
606.272,2635.9
606.767,2622.5
607.263,2664.7
607.759,2626.7
608.254,2639.2
608.749,2664.9
609.245,2628.3
609.74,2653.1
610.235,2629.8
610.73,2636.6
611.225,2655.0
611.72,2633.3
612.215,2627.8
612.71,2633.7
613.204,2655.2
613.699,2647.3
614.194,2633.6
614.688,2653.3
615.182,2632.4
615.677,2625.8
616.171,2622.4
616.665,2630.0
617.159,2640.4
617.653,2643.2
618.147,2636.2
618.641,2638.6
619.135,2628.8
619.628,2622.1
620.122,2636.8
620.615,2648.1
621.109,2632.8
621.602,2607.9
622.095,2630.3
622.589,2645.7
623.082,2620.2
623.575,2647.6
624.068,2628.4
624.561,2621.4
625.053,2599.8
625.546,2584.9
626.039,2606.3
626.531,2599.0
627.024,2591.9
627.516,2583.2
628.008,2588.3
628.501,2612.0
628.993,2612.9
629.485,2620.9
629.977,2600.3
630.469,2600.0
630.96,2655.8
631.452,2633.1
631.944,2596.0
632.435,2602.2
632.927,2588.7
633.418,2572.8
633.91,2595.8
634.401,2574.1
634.892,2594.2
635.383,2560.7
635.874,2529.2
636.365,2528.0
636.856,2545.0
637.346,2515.1
637.837,2531.5
638.327,2572.5
638.818,2528.5
639.308,2522.5
639.799,2513.4
640.289,2518.8
640.779,2506.3
641.269,2504.2
641.759,2474.0
642.249,2478.2
642.738,2507.4
643.228,2489.6
643.718,2510.6
644.207,2526.4
644.697,2478.0
645.186,2505.3
645.675,2469.6
646.164,2475.1
646.653,2486.5
647.142,2475.1
647.631,2474.5
648.12,2477.9
648.609,2472.4
649.098,2456.6
649.586,2429.6
650.075,2456.8
650.563,2429.8
651.051,2434.3
651.539,2411.9
652.027,2416.9
652.515,2400.5
653.003,2407.0
653.491,2370.5
653.979,2360.7
654.467,2356.8
654.954,2354.0
655.442,2340.6
655.929,2323.6
656.416,2298.7
656.904,2331.6
657.391,2301.5
657.878,2320.0
658.365,2317.8
658.851,2286.4
659.338,2275.0
659.825,2274.8
660.311,2269.4
660.798,2262.9
661.041,2260.6